Data from 18C-808nm-8A_Absorbance__926__00926.txt Node

Date: Mon Jul 17 16:54:58 CEST 2023
User: Laser008
Spectrometer: MAYP115816
Trigger mode: 0
Integration Time (sec): 2,500000E-1
Scans to average: 10
Electric dark correction enabled: true
Nonlinearity correction enabled: true
Boxcar width: 5
XAxis mode: Wavelengths
Number of Pixels in Spectrum: 2068
>>>>>Begin Spectral Data<<<<<
198,914	-0,65
199,384	-0,47
199,855	-0,34
200,325	-0,27
200,796	-0,25
201,266	-0,21
201,737	-0,19
202,207	-0,18
202,677	-0,17
203,147	-0,16
203,618	-0,13
204,088	-0,12
204,558	-0,11
205,028	-0,11
205,498	-0,11
205,968	-0,12
206,439	-0,13
206,909	-0,13
207,379	-0,13
207,849	-0,14
208,319	-0,15
208,789	-0,15
209,258	-0,15
209,728	-0,17
210,198	-0,16
210,668	-0,15
211,138	-0,14
211,608	-0,14
212,077	-0,14
212,547	-0,14
213,017	-0,14
213,486	-0,14
213,956	-0,15
214,426	-0,16
214,895	-0,15
215,365	-0,17
215,834	-0,17
216,304	-0,18
216,773	-0,19
217,243	-0,2
217,712	-0,21
218,181	-0,2
218,651	-0,2
219,12	-0,19
219,589	-0,2
220,058	-0,19
220,528	-0,2
220,997	-0,21
221,466	-0,21
221,935	-0,22
222,404	-0,21
222,873	-0,21
223,342	-0,21
223,812	-0,21
224,281	-0,21
224,749	-0,21
225,218	-0,22
225,687	-0,22
226,156	-0,21
226,625	-0,19
227,094	-0,19
227,563	-0,19
228,031	-0,21
228,5	-0,21
228,969	-0,22
229,438	-0,21
229,906	-0,2
230,375	-0,19
230,844	-0,2
231,312	-0,2
231,781	-0,2
232,249	-0,2
232,718	-0,2
233,186	-0,18
233,655	-0,18
234,123	-0,17
234,591	-0,16
235,06	-0,16
235,528	-0,17
235,996	-0,16
236,465	-0,16
236,933	-0,15
237,401	-0,15
237,869	-0,14
238,337	-0,14
238,805	-0,14
239,274	-0,14
239,742	-0,14
240,21	-0,15
240,678	-0,14
241,146	-0,14
241,614	-0,14
242,081	-0,14
242,549	-0,14
243,017	-0,14
243,485	-0,15
243,953	-0,15
244,421	-0,14
244,888	-0,14
245,356	-0,13
245,824	-0,13
246,291	-0,13
246,759	-0,14
247,227	-0,14
247,694	-0,13
248,162	-0,12
248,629	-0,12
249,097	-0,13
249,564	-0,14
250,032	-0,14
250,499	-0,14
250,967	-0,15
251,434	-0,15
251,901	-0,15
252,369	-0,16
252,836	-0,17
253,303	-0,18
253,77	-0,19
254,237	-0,18
254,705	-0,18
255,172	-0,17
255,639	-0,17
256,106	-0,19
256,573	-0,19
257,04	-0,2
257,507	-0,2
257,974	-0,2
258,441	-0,18
258,908	-0,18
259,375	-0,19
259,841	-0,19
260,308	-0,2
260,775	-0,19
261,242	-0,18
261,709	-0,18
262,175	-0,18
262,642	-0,19
263,109	-0,18
263,575	-0,2
264,042	-0,18
264,508	-0,18
264,975	-0,2
265,441	-0,2
265,908	-0,22
266,374	-0,21
266,841	-0,22
267,307	-0,22
267,773	-0,21
268,24	-0,21
268,706	-0,21
269,172	-0,23
269,639	-0,24
270,105	-0,22
270,571	-0,23
271,037	-0,22
271,503	-0,23
271,969	-0,23
272,435	-0,22
272,902	-0,23
273,368	-0,24
273,834	-0,23
274,3	-0,23
274,765	-0,23
275,231	-0,23
275,697	-0,22
276,163	-0,21
276,629	-0,21
277,095	-0,21
277,56	-0,21
278,026	-0,22
278,492	-0,21
278,958	-0,21
279,423	-0,2
279,889	-0,2
280,354	-0,2
280,82	-0,2
281,286	-0,21
281,751	-0,21
282,217	-0,2
282,682	-0,2
283,147	-0,2
283,613	-0,21
284,078	-0,22
284,544	-0,24
285,009	-0,24
285,474	-0,24
285,939	-0,26
286,405	-0,26
286,87	-0,25
287,335	-0,26
287,8	-0,25
288,265	-0,23
288,73	-0,24
289,195	-0,26
289,66	-0,26
290,125	-0,24
290,59	-0,24
291,055	-0,23
291,52	-0,22
291,985	-0,23
292,45	-0,24
292,915	-0,24
293,38	-0,25
293,844	-0,24
294,309	-0,22
294,774	-0,21
295,239	-0,23
295,703	-0,23
296,168	-0,22
296,632	-0,22
297,097	-0,21
297,562	-0,2
298,026	-0,2
298,491	-0,2
298,955	-0,19
299,419	-0,18
299,884	-0,18
300,348	-0,18
300,813	-0,17
301,277	-0,19
301,741	-0,19
302,205	-0,19
302,67	-0,18
303,134	-0,18
303,598	-0,18
304,062	-0,17
304,526	-0,17
304,99	-0,19
305,454	-0,19
305,919	-0,18
306,383	-0,16
306,847	-0,16
307,31	-0,16
307,774	-0,16
308,238	-0,17
308,702	-0,16
309,166	-0,17
309,63	-0,17
310,094	-0,14
310,557	-0,14
311,021	-0,14
311,485	-0,15
311,948	-0,14
312,412	-0,14
312,876	-0,14
313,339	-0,14
313,803	-0,15
314,266	-0,15
314,73	-0,16
315,193	-0,16
315,657	-0,15
316,12	-0,15
316,584	-0,14
317,047	-0,13
317,51	-0,12
317,973	-0,11
318,437	-0,11
318,9	-0,1
319,363	-0,09
319,826	-0,08
320,29	-0,09
320,753	-0,08
321,216	-0,08
321,679	-0,08
322,142	-0,08
322,605	-0,09
323,068	-0,09
323,531	-0,09
323,994	-0,09
324,457	-0,09
324,92	-0,09
325,382	-0,08
325,845	-0,08
326,308	-0,08
326,771	-0,09
327,233	-0,08
327,696	-0,08
328,159	-0,07
328,622	-0,07
329,084	-0,06
329,547	-0,06
330,009	-0,06
330,472	-0,05
330,934	-0,05
331,397	-0,04
331,859	-0,03
332,322	-0,04
332,784	-0,03
333,246	-0,02
333,709	-0,02
334,171	-0,01
334,633	-0,02
335,096	-0,01
335,558	-0,01
336,02	-0,01
336,482	-0,01
336,944	0
337,406	0,02
337,868	0,02
338,331	0,01
338,793	0,03
339,255	0,03
339,717	0,03
340,178	0,04
340,64	0,04
341,102	0,05
341,564	0,05
342,026	0,06
342,488	0,06
342,949	0,07
343,411	0,09
343,873	0,11
344,335	0,12
344,796	0,14
345,258	0,17
345,719	0,19
346,181	0,22
346,643	0,24
347,104	0,26
347,566	0,27
348,027	0,29
348,488	0,3
348,95	0,31
349,411	0,32
349,873	0,33
350,334	0,34
350,795	0,34
351,256	0,35
351,718	0,35
352,179	0,36
352,64	0,36
353,101	0,36
353,562	0,36
354,023	0,36
354,484	0,36
354,945	0,36
355,406	0,36
355,867	0,36
356,328	0,36
356,789	0,36
357,25	0,36
357,711	0,37
358,172	0,37
358,633	0,37
359,093	0,37
359,554	0,37
360,015	0,37
360,476	0,37
360,936	0,37
361,397	0,37
361,858	0,37
362,318	0,37
362,779	0,37
363,239	0,37
363,7	0,37
364,16	0,37
364,621	0,37
365,081	0,37
365,541	0,37
366,002	0,37
366,462	0,37
366,922	0,37
367,383	0,37
367,843	0,37
368,303	0,37
368,763	0,37
369,223	0,37
369,684	0,37
370,144	0,37
370,604	0,37
371,064	0,37
371,524	0,37
371,984	0,37
372,444	0,37
372,904	0,37
373,363	0,37
373,823	0,37
374,283	0,37
374,743	0,37
375,203	0,37
375,663	0,37
376,122	0,37
376,582	0,37
377,042	0,37
377,501	0,37
377,961	0,37
378,42	0,37
378,88	0,37
379,34	0,37
379,799	0,37
380,259	0,37
380,718	0,37
381,177	0,36
381,637	0,36
382,096	0,36
382,555	0,36
383,015	0,36
383,474	0,36
383,933	0,36
384,393	0,36
384,852	0,36
385,311	0,36
385,77	0,36
386,229	0,36
386,688	0,36
387,147	0,36
387,606	0,36
388,065	0,36
388,524	0,36
388,983	0,36
389,442	0,36
389,901	0,36
390,36	0,36
390,819	0,36
391,277	0,36
391,736	0,36
392,195	0,36
392,654	0,36
393,112	0,36
393,571	0,36
394,03	0,36
394,488	0,36
394,947	0,36
395,405	0,36
395,864	0,36
396,322	0,36
396,781	0,36
397,239	0,36
397,698	0,36
398,156	0,36
398,614	0,36
399,073	0,36
399,531	0,36
399,989	0,36
400,447	0,36
400,905	0,36
401,364	0,36
401,822	0,36
402,28	0,36
402,738	0,35
403,196	0,35
403,654	0,35
404,112	0,35
404,57	0,35
405,028	0,35
405,486	0,35
405,944	0,35
406,402	0,35
406,859	0,35
407,317	0,35
407,775	0,35
408,233	0,35
408,691	0,35
409,148	0,35
409,606	0,35
410,064	0,35
410,521	0,35
410,979	0,35
411,436	0,35
411,894	0,35
412,351	0,35
412,809	0,35
413,266	0,35
413,724	0,35
414,181	0,35
414,638	0,35
415,096	0,35
415,553	0,35
416,01	0,35
416,467	0,35
416,925	0,35
417,382	0,35
417,839	0,35
418,296	0,35
418,753	0,35
419,21	0,35
419,667	0,35
420,124	0,35
420,581	0,35
421,038	0,35
421,495	0,35
421,952	0,35
422,409	0,35
422,866	0,35
423,322	0,35
423,779	0,35
424,236	0,35
424,693	0,35
425,149	0,35
425,606	0,35
426,063	0,35
426,519	0,35
426,976	0,35
427,433	0,35
427,889	0,35
428,346	0,35
428,802	0,35
429,258	0,35
429,715	0,35
430,171	0,35
430,628	0,35
431,084	0,35
431,54	0,35
431,997	0,35
432,453	0,34
432,909	0,34
433,365	0,34
433,821	0,34
434,277	0,34
434,734	0,34
435,19	0,34
435,646	0,34
436,102	0,34
436,558	0,34
437,014	0,34
437,47	0,34
437,925	0,34
438,381	0,34
438,837	0,34
439,293	0,34
439,749	0,34
440,205	0,34
440,66	0,34
441,116	0,34
441,572	0,34
442,027	0,34
442,483	0,34
442,939	0,34
443,394	0,34
443,85	0,34
444,305	0,34
444,761	0,34
445,216	0,34
445,672	0,34
446,127	0,34
446,582	0,34
447,038	0,34
447,493	0,34
447,948	0,34
448,403	0,34
448,859	0,34
449,314	0,34
449,769	0,34
450,224	0,34
450,679	0,34
451,134	0,34
451,589	0,34
452,044	0,34
452,499	0,34
452,954	0,34
453,409	0,34
453,864	0,34
454,319	0,34
454,774	0,34
455,229	0,34
455,684	0,34
456,138	0,34
456,593	0,34
457,048	0,34
457,503	0,34
457,957	0,34
458,412	0,34
458,866	0,34
459,321	0,34
459,776	0,34
460,23	0,34
460,685	0,34
461,139	0,34
461,593	0,34
462,048	0,35
462,502	0,35
462,957	0,35
463,411	0,35
463,865	0,35
464,319	0,35
464,774	0,35
465,228	0,35
465,682	0,35
466,136	0,35
466,59	0,35
467,044	0,35
467,499	0,35
467,953	0,35
468,407	0,35
468,861	0,35
469,315	0,35
469,768	0,35
470,222	0,35
470,676	0,35
471,13	0,35
471,584	0,35
472,038	0,35
472,491	0,35
472,945	0,35
473,399	0,35
473,852	0,35
474,306	0,35
474,76	0,35
475,213	0,35
475,667	0,35
476,12	0,35
476,574	0,35
477,027	0,36
477,481	0,36
477,934	0,36
478,388	0,36
478,841	0,36
479,294	0,36
479,748	0,36
480,201	0,36
480,654	0,36
481,107	0,36
481,561	0,36
482,014	0,36
482,467	0,37
482,92	0,37
483,373	0,37
483,826	0,37
484,279	0,37
484,732	0,37
485,185	0,37
485,638	0,37
486,091	0,37
486,544	0,37
486,997	0,37
487,449	0,37
487,902	0,37
488,355	0,38
488,808	0,38
489,26	0,38
489,713	0,38
490,166	0,38
490,618	0,38
491,071	0,38
491,523	0,38
491,976	0,39
492,429	0,39
492,881	0,39
493,333	0,39
493,786	0,39
494,238	0,39
494,691	0,4
495,143	0,4
495,595	0,4
496,048	0,4
496,5	0,4
496,952	0,4
497,404	0,41
497,856	0,41
498,309	0,41
498,761	0,41
499,213	0,41
499,665	0,41
500,117	0,42
500,569	0,42
501,021	0,42
501,473	0,42
501,925	0,43
502,377	0,43
502,828	0,43
503,28	0,43
503,732	0,43
504,184	0,44
504,636	0,44
505,087	0,44
505,539	0,44
505,991	0,44
506,442	0,44
506,894	0,45
507,345	0,45
507,797	0,45
508,249	0,45
508,7	0,45
509,151	0,46
509,603	0,46
510,054	0,46
510,506	0,46
510,957	0,46
511,408	0,47
511,86	0,47
512,311	0,47
512,762	0,47
513,213	0,47
513,665	0,47
514,116	0,48
514,567	0,48
515,018	0,48
515,469	0,48
515,92	0,48
516,371	0,48
516,822	0,49
517,273	0,49
517,724	0,49
518,175	0,49
518,626	0,49
519,076	0,49
519,527	0,5
519,978	0,5
520,429	0,5
520,88	0,5
521,33	0,5
521,781	0,5
522,232	0,5
522,682	0,5
523,133	0,51
523,583	0,51
524,034	0,51
524,484	0,51
524,935	0,51
525,385	0,51
525,836	0,51
526,286	0,51
526,736	0,51
527,187	0,51
527,637	0,51
528,087	0,51
528,538	0,51
528,988	0,51
529,438	0,51
529,888	0,51
530,338	0,51
530,788	0,51
531,238	0,51
531,688	0,51
532,139	0,51
532,589	0,51
533,038	0,51
533,488	0,51
533,938	0,51
534,388	0,51
534,838	0,51
535,288	0,51
535,738	0,5
536,187	0,5
536,637	0,5
537,087	0,5
537,537	0,5
537,986	0,5
538,436	0,5
538,885	0,49
539,335	0,49
539,785	0,49
540,234	0,49
540,684	0,49
541,133	0,48
541,582	0,48
542,032	0,48
542,481	0,48
542,931	0,48
543,38	0,47
543,829	0,47
544,278	0,47
544,728	0,47
545,177	0,47
545,626	0,46
546,075	0,46
546,524	0,46
546,973	0,46
547,422	0,46
547,871	0,46
548,32	0,46
548,769	0,46
549,218	0,46
549,667	0,45
550,116	0,45
550,565	0,45
551,014	0,45
551,463	0,45
551,911	0,45
552,36	0,45
552,809	0,45
553,258	0,44
553,706	0,44
554,155	0,44
554,603	0,44
555,052	0,44
555,501	0,44
555,949	0,44
556,398	0,43
556,846	0,43
557,294	0,43
557,743	0,43
558,191	0,43
558,64	0,42
559,088	0,42
559,536	0,42
559,985	0,42
560,433	0,42
560,881	0,42
561,329	0,41
561,777	0,41
562,225	0,41
562,674	0,41
563,122	0,41
563,57	0,41
564,018	0,41
564,466	0,4
564,914	0,4
565,362	0,4
565,809	0,4
566,257	0,4
566,705	0,4
567,153	0,39
567,601	0,39
568,048	0,39
568,496	0,39
568,944	0,39
569,392	0,39
569,839	0,39
570,287	0,38
570,734	0,38
571,182	0,38
571,63	0,38
572,077	0,38
572,525	0,38
572,972	0,38
573,419	0,37
573,867	0,37
574,314	0,37
574,761	0,37
575,209	0,37
575,656	0,37
576,103	0,37
576,551	0,37
576,998	0,37
577,445	0,36
577,892	0,36
578,339	0,36
578,786	0,36
579,233	0,36
579,68	0,36
580,127	0,36
580,574	0,36
581,021	0,36
581,468	0,36
581,915	0,35
582,362	0,35
582,809	0,35
583,255	0,35
583,702	0,35
584,149	0,35
584,596	0,35
585,042	0,35
585,489	0,35
585,936	0,34
586,382	0,34
586,829	0,34
587,275	0,34
587,722	0,34
588,168	0,34
588,615	0,34
589,061	0,34
589,508	0,34
589,954	0,34
590,4	0,34
590,847	0,34
591,293	0,34
591,739	0,34
592,185	0,34
592,632	0,34
593,078	0,34
593,524	0,34
593,97	0,33
594,416	0,33
594,862	0,33
595,308	0,33
595,754	0,33
596,2	0,33
596,646	0,33
597,092	0,33
597,538	0,33
597,984	0,33
598,43	0,33
598,876	0,33
599,321	0,33
599,767	0,33
600,213	0,33
600,659	0,33
601,104	0,32
601,55	0,32
601,995	0,32
602,441	0,32
602,887	0,32
603,332	0,32
603,778	0,32
604,223	0,32
604,668	0,32
605,114	0,32
605,559	0,32
606,005	0,32
606,45	0,32
606,895	0,32
607,341	0,32
607,786	0,32
608,231	0,32
608,676	0,32
609,121	0,31
609,566	0,31
610,012	0,31
610,457	0,3
610,902	0,3
611,347	0,3
611,792	0,3
612,237	0,3
612,682	0,3
613,127	0,3
613,571	0,3
614,016	0,3
614,461	0,3
614,906	0,3
615,351	0,3
615,795	0,31
616,24	0,31
616,685	0,31
617,129	0,31
617,574	0,31
618,019	0,31
618,463	0,31
618,908	0,31
619,352	0,31
619,797	0,31
620,241	0,31
620,686	0,31
621,13	0,31
621,574	0,31
622,019	0,31
622,463	0,3
622,907	0,3
623,352	0,3
623,796	0,3
624,24	0,3
624,684	0,3
625,128	0,3
625,572	0,3
626,016	0,3
626,461	0,3
626,905	0,3
627,349	0,3
627,793	0,3
628,236	0,3
628,68	0,3
629,124	0,3
629,568	0,3
630,012	0,3
630,456	0,3
630,9	0,3
631,343	0,3
631,787	0,3
632,231	0,3
632,674	0,3
633,118	0,3
633,562	0,3
634,005	0,3
634,449	0,3
634,892	0,3
635,336	0,3
635,779	0,3
636,223	0,3
636,666	0,3
637,109	0,3
637,553	0,3
637,996	0,3
638,439	0,3
638,883	0,3
639,326	0,3
639,769	0,3
640,212	0,3
640,655	0,3
641,099	0,3
641,542	0,3
641,985	0,3
642,428	0,3
642,871	0,3
643,314	0,3
643,757	0,3
644,2	0,3
644,643	0,3
645,085	0,3
645,528	0,29
645,971	0,29
646,414	0,29
646,857	0,29
647,299	0,29
647,742	0,29
648,185	0,29
648,627	0,29
649,07	0,29
649,513	0,29
649,955	0,29
650,398	0,29
650,84	0,29
651,283	0,29
651,725	0,29
652,168	0,29
652,61	0,29
653,052	0,29
653,495	0,29
653,937	0,23
654,379	0,18
654,821	0,19
655,264	0,19
655,706	0,19
656,148	0,19
656,59	0,19
657,032	0,19
657,474	0,19
657,916	0,19
658,358	0,18
658,8	0,23
659,242	0,29
659,684	0,29
660,126	0,29
660,568	0,29
661,01	0,29
661,452	0,29
661,894	0,29
662,335	0,29
662,777	0,29
663,219	0,29
663,661	0,29
664,102	0,29
664,544	0,29
664,985	0,29
665,427	0,29
665,869	0,29
666,31	0,29
666,752	0,29
667,193	0,29
667,634	0,29
668,076	0,29
668,517	0,29
668,959	0,29
669,4	0,29
669,841	0,29
670,282	0,29
670,724	0,29
671,165	0,29
671,606	0,29
672,047	0,29
672,488	0,28
672,929	0,28
673,37	0,28
673,811	0,28
674,252	0,28
674,693	0,28
675,134	0,28
675,575	0,28
676,016	0,28
676,457	0,28
676,898	0,28
677,339	0,28
677,78	0,28
678,22	0,28
678,661	0,28
679,102	0,28
679,542	0,28
679,983	0,28
680,424	0,28
680,864	0,28
681,305	0,28
681,745	0,28
682,186	0,28
682,626	0,28
683,067	0,28
683,507	0,28
683,948	0,28
684,388	0,28
684,828	0,28
685,269	0,28
685,709	0,28
686,149	0,28
686,589	0,28
687,029	0,28
687,47	0,28
687,91	0,28
688,35	0,28
688,79	0,28
689,23	0,27
689,67	0,27
690,11	0,27
690,55	0,27
690,99	0,27
691,43	0,27
691,87	0,27
692,31	0,27
692,749	0,27
693,189	0,27
693,629	0,27
694,069	0,27
694,508	0,27
694,948	0,27
695,388	0,27
695,827	0,27
696,267	0,27
696,706	0,27
697,146	0,27
697,586	0,27
698,025	0,28
698,464	0,28
698,904	0,28
699,343	0,28
699,783	0,28
700,222	0,28
700,661	0,28
701,101	0,28
701,54	0,28
701,979	0,28
702,418	0,28
702,857	0,28
703,297	0,28
703,736	0,28
704,175	0,27
704,614	0,27
705,053	0,27
705,492	0,27
705,931	0,27
706,37	0,27
706,809	0,27
707,248	0,27
707,687	0,27
708,125	0,27
708,564	0,27
709,003	0,27
709,442	0,27
709,88	0,27
710,319	0,27
710,758	0,27
711,196	0,27
711,635	0,27
712,074	0,27
712,512	0,27
712,951	0,26
713,389	0,26
713,828	0,26
714,266	0,26
714,705	0,26
715,143	0,26
715,581	0,26
716,02	0,26
716,458	0,26
716,896	0,26
717,334	0,26
717,773	0,26
718,211	0,26
718,649	0,26
719,087	0,26
719,525	0,26
719,963	0,26
720,401	0,26
720,839	0,26
721,277	0,26
721,715	0,26
722,153	0,26
722,591	0,26
723,029	0,26
723,467	0,26
723,905	0,26
724,342	0,26
724,78	0,26
725,218	0,26
725,656	0,26
726,093	0,26
726,531	0,26
726,969	0,26
727,406	0,26
727,844	0,26
728,281	0,26
728,719	0,26
729,156	0,26
729,594	0,26
730,031	0,26
730,469	0,26
730,906	0,26
731,343	0,26
731,781	0,26
732,218	0,26
732,655	0,26
733,092	0,25
733,53	0,25
733,967	0,25
734,404	0,25
734,841	0,25
735,278	0,25
735,715	0,25
736,152	0,25
736,589	0,25
737,026	0,25
737,463	0,25
737,9	0,25
738,337	0,25
738,774	0,25
739,211	0,25
739,647	0,25
740,084	0,25
740,521	0,25
740,958	0,25
741,394	0,25
741,831	0,24
742,268	0,24
742,704	0,24
743,141	0,24
743,577	0,24
744,014	0,24
744,45	0,24
744,887	0,24
745,323	0,24
745,76	0,24
746,196	0,23
746,632	0,23
747,069	0,23
747,505	0,23
747,941	0,23
748,378	0,23
748,814	0,24
749,25	0,24
749,686	0,24
750,122	0,24
750,558	0,24
750,994	0,24
751,43	0,24
751,866	0,24
752,302	0,24
752,738	0,24
753,174	0,25
753,61	0,25
754,046	0,25
754,482	0,25
754,918	0,25
755,354	0,25
755,789	0,25
756,225	0,25
756,661	0,25
757,096	0,25
757,532	0,25
757,968	0,24
758,403	0,24
758,839	0,24
759,274	0,24
759,71	0,24
760,145	0,24
760,581	0,23
761,016	0,23
761,452	0,23
761,887	0,22
762,322	0,22
762,758	0,22
763,193	0,21
763,628	0,21
764,063	0,2
764,499	0,2
764,934	0,19
765,369	0,19
765,804	0,18
766,239	0,18
766,674	0,18
767,109	0,17
767,544	0,17
767,979	0,16
768,414	0,15
768,849	0,14
769,284	0,14
769,719	0,13
770,154	0,13
770,588	0,12
771,023	0,11
771,458	0,1
771,893	0,09
772,327	0,08
772,762	0,08
773,197	0,07
773,631	0,06
774,066	0,06
774,5	0,05
774,935	0,04
775,369	0,04
775,804	0,03
776,238	0,02
776,673	0,01
777,107	0
777,541	-0
777,976	-0,01
778,41	-0,02
778,844	-0,03
779,279	-0,03
779,713	-0,04
780,147	-0,04
780,581	-0,05
781,015	-0,06
781,449	-0,06
781,883	-0,06
782,317	-0,08
782,751	-0,09
783,185	-0,09
783,619	-0,09
784,053	-0,1
784,487	-0,11
784,921	-0,12
785,355	-0,12
785,789	-0,13
786,223	-0,14
786,656	-0,16
787,09	-0,17
787,524	-0,17
787,957	-0,18
788,391	-0,2
788,825	-0,22
789,258	-0,24
789,692	-0,25
790,125	-0,27
790,559	-0,28
790,992	-0,3
791,426	-0,32
791,859	-0,34
792,293	-0,37
792,726	-0,39
793,159	-0,4
793,593	-0,42
794,026	-0,44
794,459	-0,47
794,892	-0,5
795,326	-0,52
795,759	-0,56
796,192	-0,6
796,625	-0,65
797,058	-0,67
797,491	-0,72
797,924	-0,76
798,357	-0,81
798,79	-0,85
799,223	-0,9
799,656	-0,95
800,089	-1
800,522	-1,05
800,955	-1,09
801,387	-1,15
801,82	-1,2
802,253	-1,27
802,686	-1,35
803,118	-1,4
803,551	-1,45
803,984	-1,5
804,416	-1,54
804,849	-1,59
805,281	-1,73
805,714	-2,1
806,146	-2,5
806,579	-2,74
807,011	-2,89
807,444	-2,98
807,876	-3,06
808,308	-3,09
808,741	-3,12
809,173	-3,17
809,605	-3,19
810,037	-3,27
810,47	-3,17
810,902	-2,97
811,334	-2,82
811,766	-2,66
812,198	-2,4
812,63	-2,01
813,062	-1,82
813,494	-1,73
813,926	-1,64
814,358	-1,59
814,79	-1,5
815,222	-1,45
815,654	-1,4
816,086	-1,33
816,518	-1,28
816,949	-1,22
817,381	-1,18
817,813	-1,16
818,245	-1,12
818,676	-1,08
819,108	-1,05
819,54	-1,04
819,971	-1,01
820,403	-0,96
820,834	-0,95
821,266	-0,9
821,697	-0,88
822,129	-0,87
822,56	-0,84
822,991	-0,81
823,423	-0,78
823,854	-0,77
824,286	-0,74
824,717	-0,73
825,148	-0,71
825,579	-0,7
826,01	-0,69
826,442	-0,68
826,873	-0,66
827,304	-0,63
827,735	-0,62
828,166	-0,62
828,597	-0,61
829,028	-0,61
829,459	-0,61
829,89	-0,61
830,321	-0,57
830,752	-0,57
831,183	-0,56
831,613	-0,55
832,044	-0,55
832,475	-0,54
832,906	-0,55
833,336	-0,55
833,767	-0,56
834,198	-0,54
834,628	-0,52
835,059	-0,55
835,49	-0,56
835,92	-0,53
836,351	-0,53
836,781	-0,53
837,212	-0,53
837,642	-0,53
838,072	-0,52
838,503	-0,52
838,933	-0,51
839,364	-0,52
839,794	-0,49
840,224	-0,48
840,654	-0,53
841,085	-0,53
841,515	-0,51
841,945	-0,51
842,375	-0,47
842,805	-0,46
843,235	-0,45
843,665	-0,46
844,095	-0,45
844,525	-0,47
844,955	-0,48
845,385	-0,45
845,815	-0,44
846,245	-0,46
846,675	-0,47
847,105	-0,49
847,534	-0,49
847,964	-0,47
848,394	-0,45
848,824	-0,48
849,253	-0,47
849,683	-0,47
850,112	-0,48
850,542	-0,52
850,972	-0,52
851,401	-0,5
851,831	-0,48
852,26	-0,49
852,69	-0,53
853,119	-0,52
853,548	-0,53
853,978	-0,54
854,407	-0,52
854,836	-0,51
855,266	-0,5
855,695	-0,52
856,124	-0,53
856,553	-0,54
856,983	-0,55
857,412	-0,54
857,841	-0,55
858,27	-0,56
858,699	-0,56
859,128	-0,59
859,557	-0,59
859,986	-0,6
860,415	-0,59
860,844	-0,57
861,273	-0,57
861,702	-0,57
862,13	-0,55
862,559	-0,58
862,988	-0,55
863,417	-0,54
863,845	-0,53
864,274	-0,54
864,703	-0,54
865,131	-0,53
865,56	-0,54
865,989	-0,56
866,417	-0,54
866,846	-0,54
867,274	-0,54
867,703	-0,55
868,131	-0,58
868,559	-0,57
868,988	-0,6
869,416	-0,58
869,844	-0,6
870,273	-0,62
870,701	-0,6
871,129	-0,64
871,557	-0,67
871,986	-0,67
872,414	-0,68
872,842	-0,65
873,27	-0,63
873,698	-0,59
874,126	-0,63
874,554	-0,61
874,982	-0,62
875,41	-0,65
875,838	-0,6
876,266	-0,56
876,694	-0,56
877,122	-0,55
877,549	-0,6
877,977	-0,57
878,405	-0,6
878,833	-0,57
879,26	-0,56
879,688	-0,55
880,116	-0,53
880,543	-0,51
880,971	-0,5
881,399	-0,53
881,826	-0,54
882,254	-0,53
882,681	-0,56
883,109	-0,53
883,536	-0,54
883,963	-0,55
884,391	-0,54
884,818	-0,52
885,245	-0,56
885,673	-0,58
886,1	-0,55
886,527	-0,55
886,954	-0,51
887,381	-0,53
887,809	-0,54
888,236	-0,55
888,663	-0,56
889,09	-0,61
889,517	-0,64
889,944	-0,63
890,371	-0,62
890,798	-0,63
891,225	-0,63
891,652	-0,67
892,078	-0,64
892,505	-0,66
892,932	-0,61
893,359	-0,62
893,786	-0,61
894,212	-0,57
894,639	-0,59
895,066	-0,61
895,492	-0,55
895,919	-0,55
896,346	-0,55
896,772	-0,56
897,199	-0,53
897,625	-0,56
898,052	-0,53
898,478	-0,52
898,904	-0,53
899,331	-0,52
899,757	-0,53
900,183	-0,55
900,61	-0,53
901,036	-0,52
901,462	-0,53
901,888	-0,52
902,315	-0,5
902,741	-0,55
903,167	-0,53
903,593	-0,56
904,019	-0,55
904,445	-0,52
904,871	-0,55
905,297	-0,57
905,723	-0,57
906,149	-0,56
906,575	-0,58
907,001	-0,58
907,427	-0,56
907,852	-0,56
908,278	-0,56
908,704	-0,54
909,13	-0,53
909,555	-0,53
909,981	-0,52
910,407	-0,52
910,832	-0,52
911,258	-0,51
911,684	-0,51
912,109	-0,51
912,535	-0,53
912,96	-0,49
913,386	-0,53
913,811	-0,53
914,236	-0,54
914,662	-0,52
915,087	-0,55
915,512	-0,55
915,938	-0,57
916,363	-0,57
916,788	-0,58
917,213	-0,56
917,639	-0,6
918,064	-0,57
918,489	-0,58
918,914	-0,59
919,339	-0,6
919,764	-0,58
920,189	-0,57
920,614	-0,59
921,039	-0,6
921,464	-0,55
921,889	-0,58
922,314	-0,59
922,738	-0,62
923,163	-0,64
923,588	-0,63
924,013	-0,62
924,437	-0,62
924,862	-0,64
925,287	-0,6
925,711	-0,61
926,136	-0,63
926,561	-0,61
926,985	-0,6
927,41	-0,57
927,834	-0,55
928,259	-0,52
928,683	-0,5
929,108	-0,47
929,532	-0,48
929,956	-0,47
930,381	-0,45
930,805	-0,45
931,229	-0,44
931,653	-0,43
932,078	-0,43
932,502	-0,45
932,926	-0,46
933,35	-0,46
933,774	-0,47
934,198	-0,45
934,622	-0,45
935,046	-0,45
935,47	-0,46
935,894	-0,46
936,318	-0,45
936,742	-0,45
937,166	-0,45
937,59	-0,44
938,014	-0,47
938,437	-0,47
938,861	-0,48
939,285	-0,49
939,709	-0,48
940,132	-0,48
940,556	-0,49
940,98	-0,48
941,403	-0,47
941,827	-0,47
942,25	-0,49
942,674	-0,47
943,097	-0,46
943,521	-0,46
943,944	-0,48
944,368	-0,47
944,791	-0,46
945,214	-0,48
945,638	-0,49
946,061	-0,52
946,484	-0,53
946,907	-0,51
947,331	-0,52
947,754	-0,55
948,177	-0,53
948,6	-0,52
949,023	-0,51
949,446	-0,51
949,869	-0,49
950,292	-0,49
950,715	-0,45
951,138	-0,44
951,561	-0,42
951,984	-0,41
952,407	-0,4
952,83	-0,39
953,252	-0,36
953,675	-0,36
954,098	-0,37
954,521	-0,36
954,943	-0,36
955,366	-0,37
955,789	-0,35
956,211	-0,37
956,634	-0,37
957,056	-0,35
957,479	-0,35
957,902	-0,38
958,324	-0,38
958,746	-0,36
959,169	-0,37
959,591	-0,37
960,014	-0,37
960,436	-0,37
960,858	-0,37
961,281	-0,37
961,703	-0,38
962,125	-0,38
962,547	-0,36
962,969	-0,36
963,391	-0,37
963,814	-0,38
964,236	-0,38
964,658	-0,35
965,08	-0,36
965,502	-0,34
965,924	-0,32
966,346	-0,32
966,768	-0,31
967,189	-0,33
967,611	-0,33
968,033	-0,33
968,455	-0,32
968,877	-0,32
969,298	-0,33
969,72	-0,35
970,142	-0,34
970,563	-0,35
970,985	-0,33
971,407	-0,33
971,828	-0,3
972,25	-0,3
972,671	-0,28
973,093	-0,27
973,514	-0,26
973,936	-0,25
974,357	-0,23
974,778	-0,24
975,2	-0,24
975,621	-0,23
976,042	-0,22
976,464	-0,21
976,885	-0,2
977,306	-0,2
977,727	-0,2
978,148	-0,19
978,57	-0,18
978,991	-0,17
979,412	-0,16
979,833	-0,15
980,254	-0,14
980,675	-0,15
981,096	-0,14
981,517	-0,12
981,937	-0,12
982,358	-0,1
982,779	-0,09
983,2	-0,09
983,621	-0,09
984,042	-0,08
984,462	-0,07
984,883	-0,06
985,304	-0,05
985,724	-0,05
986,145	-0,04
986,565	-0,02
986,986	-0,01
987,407	-0,01
987,827	0,01
988,248	0,02
988,668	0,02
989,088	0,03
989,509	0,04
989,929	0,05
990,35	0,06
990,77	0,07
991,19	0,07
991,61	0,08
992,031	0,09
992,451	0,09
992,871	0,1
993,291	0,1
993,711	0,11
994,131	0,11
994,551	0,11
994,971	0,12
995,391	0,12
995,811	0,13
996,231	0,13
996,651	0,13
997,071	0,14
997,491	0,14
997,911	0,15
998,331	0,15
998,75	0,16
999,17	0,16
999,59	0,16
1000,009	0,17
1000,429	0,17
1000,849	0,17
1001,268	0,18
1001,688	0,18
1002,107	0,18
1002,527	0,18
1002,946	0,18
1003,366	0,18
1003,785	0,19
1004,205	0,19
1004,624	0,19
1005,044	0,19
1005,463	0,19
1005,882	0,19
1006,301	0,19
1006,721	0,19
1007,14	0,19
1007,559	0,19
1007,978	0,19
1008,397	0,19
1008,816	0,19
1009,235	0,19
1009,655	0,19
1010,074	0,19
1010,492	0,19
1010,911	0,19
1011,33	0,19
1011,749	0,19
1012,168	0,19
1012,587	0,18
1013,006	0,18
1013,425	0,18
1013,843	0,18
1014,262	0,18
1014,681	0,18
1015,099	0,18
1015,518	0,18
1015,937	0,18
1016,355	0,18
1016,774	0,18
1017,192	0,18
1017,611	0,18
1018,029	0,18
1018,448	0,18
1018,866	0,19
1019,285	0,19
1019,703	0,19
1020,121	0,19
1020,54	0,19
1020,958	0,19
1021,376	0,19
1021,794	0,19
1022,213	0,19
1022,631	0,19
1023,049	0,19
1023,467	0,19
1023,885	0,19
1024,303	0,18
1024,721	0,18
1025,139	0,18
1025,557	0,18
1025,975	0,18
1026,393	0,18
1026,811	0,18
1027,229	0,18
1027,647	0,18
1028,065	0,18
1028,482	0,18
1028,9	0,18
1029,318	0,18
1029,735	0,18
1030,153	0,18
1030,571	0,18
1030,988	0,18
1031,406	0,18
1031,823	0,18
1032,241	0,18
1032,659	0,18
1033,076	0,18
1033,493	0,18
1033,911	0,18
1034,328	0,18
1034,746	0,18
1035,163	0,18
1035,58	0,18
1035,997	0,18
1036,415	0,18
1036,832	0,18
1037,249	0,18
1037,666	0,18
1038,083	0,17
1038,501	0,17
1038,918	0,17
1039,335	0,17
1039,752	0,17
1040,169	0,17
1040,586	0,17
1041,003	0,17
1041,419	0,17
1041,836	0,17
1042,253	0,17
1042,67	0,17
1043,087	0,17
1043,504	0,17
1043,92	0,17
1044,337	0,17
1044,754	0,17
1045,17	0,17
1045,587	0,17
1046,004	0,17
1046,42	0,16
1046,837	0,16
1047,253	0,16
1047,67	0,16
1048,086	0,16
1048,503	0,16
1048,919	0,16
1049,335	0,16
1049,752	0,16
1050,168	0,16
1050,584	0,16
1051,001	0,16
1051,417	0,16
1051,833	0,16
1052,249	0,16
1052,665	0,16
1053,081	0,16
1053,497	0,16
1053,914	0,17
1054,33	0,17
1054,746	0,17
1055,162	0,17
1055,578	0,17
1055,993	0,17
1056,409	0,17
1056,825	0,17
1057,241	0,17
1057,657	0,17
1058,073	0,17
1058,488	0,17
1058,904	0,17
1059,32	0,17
1059,736	0,17
1060,151	0,17
1060,567	0,17
1060,982	0,17
1061,398	0,17
1061,813	0,17
1062,229	0,17
1062,644	0,17
1063,06	0,17
1063,475	0,17
1063,891	0,17
1064,306	0,17
1064,721	0,17
1065,137	0,17
1065,552	0,16
1065,967	0,16
1066,382	0,16
1066,798	0,16
1067,213	0,17
1067,628	0,17
1068,043	0,17
1068,458	0,17
1068,873	0,17
1069,288	0,17
1069,703	0,17
1070,118	0,17
1070,533	0,17
1070,948	0,17
1071,363	0,17
1071,778	0,17
1072,193	0,17
1072,607	0,17
1073,022	0,17
1073,437	0,18
1073,852	0,18
1074,266	0,18
1074,681	0,18
1075,096	0,18
1075,51	0,18
1075,925	0,18
1076,339	0,18
1076,754	0,18
1077,168	0,18
1077,583	0,17
1077,997	0,17
1078,412	0,17
1078,826	0,17
1079,24	0,17
1079,655	0,17
1080,069	0,17
1080,483	0,17
1080,897	0,17
1081,312	0,17
1081,726	0,17
1082,14	0,17
1082,554	0,17
1082,968	0,16
1083,382	0,16
1083,796	0,16
1084,21	0,16
1084,624	0,16
1085,038	0,16
1085,452	0,16
1085,866	0,16
1086,28	0,16
1086,694	0,16
1087,108	0,16
1087,521	0,16
1087,935	0,16
1088,349	0,16
1088,763	0,15
1089,176	0,15
1089,59	0,15
1090,004	0,15
1090,417	0,15
1090,831	0,15
1091,244	0,15
1091,658	0,14
1092,071	0,14
1092,485	0,14
1092,898	0,14
1093,312	0,14
1093,725	0,14
1094,138	0,14
1094,552	0,14
1094,965	0,14
1095,378	0,13
1095,791	0,13
1096,205	0,13
1096,618	0,13
1097,031	0,13
1097,444	0,13
1097,857	0,13
1098,27	0,13
1098,683	0,12
1099,096	0,12
1099,509	0,12
1099,922	0,11
1100,335	0,11
1100,748	0,11
1101,161	0,11
1101,574	0,11
1101,986	0,1
1102,399	0,1
1102,812	0,1
1103,225	0,09
1103,637	0,09
1104,05	0,09
1104,463	0,09
1104,875	0,09
1105,288	0,09
1105,7	0,09
1106,113	0,09
1106,525	0,08
1106,938	0,08
1107,35	0,07
1107,763	0,07
1108,175	0,07
1108,588	0,07
1109	0,06
1109,412	0,06
1109,824	0,05
1110,237	0,05
1110,649	0,04
1111,061	0,03
