Data from 18C-808nm-8A_Absorbance__1428__01428.txt Node

Date: Mon Jul 17 17:15:53 CEST 2023
User: Laser008
Spectrometer: MAYP115816
Trigger mode: 0
Integration Time (sec): 2,500000E-1
Scans to average: 10
Electric dark correction enabled: true
Nonlinearity correction enabled: true
Boxcar width: 5
XAxis mode: Wavelengths
Number of Pixels in Spectrum: 2068
>>>>>Begin Spectral Data<<<<<
198,914	-0,67
199,384	-0,49
199,855	-0,38
200,325	-0,3
200,796	-0,25
201,266	-0,22
201,737	-0,21
202,207	-0,2
202,677	-0,18
203,147	-0,17
203,618	-0,13
204,088	-0,12
204,558	-0,1
205,028	-0,09
205,498	-0,1
205,968	-0,11
206,439	-0,11
206,909	-0,11
207,379	-0,11
207,849	-0,11
208,319	-0,11
208,789	-0,12
209,258	-0,12
209,728	-0,13
210,198	-0,13
210,668	-0,12
211,138	-0,1
211,608	-0,1
212,077	-0,1
212,547	-0,1
213,017	-0,11
213,486	-0,11
213,956	-0,11
214,426	-0,11
214,895	-0,11
215,365	-0,12
215,834	-0,13
216,304	-0,14
216,773	-0,14
217,243	-0,16
217,712	-0,17
218,181	-0,17
218,651	-0,17
219,12	-0,17
219,589	-0,17
220,058	-0,16
220,528	-0,17
220,997	-0,17
221,466	-0,18
221,935	-0,19
222,404	-0,18
222,873	-0,17
223,342	-0,17
223,812	-0,16
224,281	-0,16
224,749	-0,16
225,218	-0,17
225,687	-0,17
226,156	-0,16
226,625	-0,15
227,094	-0,14
227,563	-0,15
228,031	-0,17
228,5	-0,16
228,969	-0,17
229,438	-0,16
229,906	-0,15
230,375	-0,15
230,844	-0,15
231,312	-0,16
231,781	-0,17
232,249	-0,15
232,718	-0,15
233,186	-0,12
233,655	-0,14
234,123	-0,13
234,591	-0,14
235,06	-0,14
235,528	-0,14
235,996	-0,14
236,465	-0,14
236,933	-0,13
237,401	-0,14
237,869	-0,13
238,337	-0,14
238,805	-0,13
239,274	-0,13
239,742	-0,13
240,21	-0,13
240,678	-0,12
241,146	-0,11
241,614	-0,1
242,081	-0,1
242,549	-0,1
243,017	-0,1
243,485	-0,11
243,953	-0,1
244,421	-0,09
244,888	-0,09
245,356	-0,09
245,824	-0,09
246,291	-0,1
246,759	-0,11
247,227	-0,11
247,694	-0,1
248,162	-0,1
248,629	-0,09
249,097	-0,09
249,564	-0,11
250,032	-0,12
250,499	-0,11
250,967	-0,12
251,434	-0,13
251,901	-0,12
252,369	-0,13
252,836	-0,14
253,303	-0,16
253,77	-0,18
254,237	-0,17
254,705	-0,17
255,172	-0,17
255,639	-0,17
256,106	-0,18
256,573	-0,19
257,04	-0,19
257,507	-0,19
257,974	-0,19
258,441	-0,16
258,908	-0,16
259,375	-0,18
259,841	-0,17
260,308	-0,17
260,775	-0,16
261,242	-0,15
261,709	-0,15
262,175	-0,17
262,642	-0,16
263,109	-0,16
263,575	-0,17
264,042	-0,16
264,508	-0,15
264,975	-0,17
265,441	-0,18
265,908	-0,18
266,374	-0,19
266,841	-0,19
267,307	-0,18
267,773	-0,18
268,24	-0,18
268,706	-0,18
269,172	-0,18
269,639	-0,19
270,105	-0,16
270,571	-0,17
271,037	-0,17
271,503	-0,17
271,969	-0,17
272,435	-0,17
272,902	-0,18
273,368	-0,19
273,834	-0,18
274,3	-0,2
274,765	-0,2
275,231	-0,22
275,697	-0,2
276,163	-0,2
276,629	-0,2
277,095	-0,2
277,56	-0,19
278,026	-0,2
278,492	-0,18
278,958	-0,19
279,423	-0,19
279,889	-0,18
280,354	-0,19
280,82	-0,2
281,286	-0,21
281,751	-0,21
282,217	-0,2
282,682	-0,2
283,147	-0,2
283,613	-0,21
284,078	-0,21
284,544	-0,21
285,009	-0,22
285,474	-0,2
285,939	-0,21
286,405	-0,21
286,87	-0,21
287,335	-0,2
287,8	-0,2
288,265	-0,18
288,73	-0,19
289,195	-0,22
289,66	-0,2
290,125	-0,19
290,59	-0,2
291,055	-0,19
291,52	-0,2
291,985	-0,2
292,45	-0,22
292,915	-0,23
293,38	-0,23
293,844	-0,22
294,309	-0,2
294,774	-0,2
295,239	-0,22
295,703	-0,23
296,168	-0,22
296,632	-0,21
297,097	-0,19
297,562	-0,18
298,026	-0,18
298,491	-0,18
298,955	-0,18
299,419	-0,17
299,884	-0,18
300,348	-0,16
300,813	-0,15
301,277	-0,14
301,741	-0,14
302,205	-0,15
302,67	-0,14
303,134	-0,14
303,598	-0,14
304,062	-0,13
304,526	-0,13
304,99	-0,15
305,454	-0,16
305,919	-0,15
306,383	-0,16
306,847	-0,15
307,31	-0,16
307,774	-0,17
308,238	-0,16
308,702	-0,16
309,166	-0,17
309,63	-0,16
310,094	-0,13
310,557	-0,12
311,021	-0,12
311,485	-0,12
311,948	-0,12
312,412	-0,12
312,876	-0,11
313,339	-0,12
313,803	-0,12
314,266	-0,11
314,73	-0,12
315,193	-0,12
315,657	-0,11
316,12	-0,11
316,584	-0,09
317,047	-0,09
317,51	-0,07
317,973	-0,08
318,437	-0,06
318,9	-0,05
319,363	-0,04
319,826	-0,04
320,29	-0,05
320,753	-0,05
321,216	-0,05
321,679	-0,06
322,142	-0,06
322,605	-0,08
323,068	-0,08
323,531	-0,09
323,994	-0,09
324,457	-0,09
324,92	-0,08
325,382	-0,07
325,845	-0,06
326,308	-0,06
326,771	-0,06
327,233	-0,05
327,696	-0,04
328,159	-0,03
328,622	-0,02
329,084	-0,02
329,547	-0,01
330,009	-0,01
330,472	-0
330,934	-0
331,397	0
331,859	0,01
332,322	0,02
332,784	0,02
333,246	0,03
333,709	0,02
334,171	0,03
334,633	0,03
335,096	0,03
335,558	0,03
336,02	0,03
336,482	0,03
336,944	0,04
337,406	0,04
337,868	0,05
338,331	0,05
338,793	0,07
339,255	0,07
339,717	0,07
340,178	0,08
340,64	0,09
341,102	0,09
341,564	0,1
342,026	0,11
342,488	0,12
342,949	0,13
343,411	0,15
343,873	0,17
344,335	0,2
344,796	0,23
345,258	0,26
345,719	0,29
346,181	0,33
346,643	0,35
347,104	0,37
347,566	0,4
348,027	0,42
348,488	0,43
348,95	0,44
349,411	0,46
349,873	0,47
350,334	0,48
350,795	0,5
351,256	0,5
351,718	0,51
352,179	0,51
352,64	0,51
353,101	0,51
353,562	0,52
354,023	0,52
354,484	0,52
354,945	0,52
355,406	0,52
355,867	0,52
356,328	0,52
356,789	0,52
357,25	0,52
357,711	0,53
358,172	0,53
358,633	0,53
359,093	0,53
359,554	0,53
360,015	0,53
360,476	0,53
360,936	0,53
361,397	0,53
361,858	0,53
362,318	0,53
362,779	0,53
363,239	0,53
363,7	0,53
364,16	0,53
364,621	0,53
365,081	0,53
365,541	0,53
366,002	0,53
366,462	0,53
366,922	0,53
367,383	0,53
367,843	0,53
368,303	0,53
368,763	0,53
369,223	0,53
369,684	0,53
370,144	0,53
370,604	0,53
371,064	0,53
371,524	0,53
371,984	0,53
372,444	0,53
372,904	0,53
373,363	0,53
373,823	0,53
374,283	0,53
374,743	0,53
375,203	0,53
375,663	0,53
376,122	0,53
376,582	0,53
377,042	0,53
377,501	0,53
377,961	0,53
378,42	0,53
378,88	0,53
379,34	0,53
379,799	0,53
380,259	0,53
380,718	0,53
381,177	0,53
381,637	0,52
382,096	0,52
382,555	0,52
383,015	0,52
383,474	0,52
383,933	0,52
384,393	0,52
384,852	0,52
385,311	0,52
385,77	0,52
386,229	0,52
386,688	0,52
387,147	0,52
387,606	0,52
388,065	0,52
388,524	0,52
388,983	0,52
389,442	0,52
389,901	0,52
390,36	0,52
390,819	0,52
391,277	0,52
391,736	0,52
392,195	0,52
392,654	0,52
393,112	0,52
393,571	0,52
394,03	0,52
394,488	0,52
394,947	0,52
395,405	0,51
395,864	0,51
396,322	0,51
396,781	0,51
397,239	0,51
397,698	0,51
398,156	0,51
398,614	0,51
399,073	0,51
399,531	0,51
399,989	0,51
400,447	0,51
400,905	0,51
401,364	0,51
401,822	0,51
402,28	0,51
402,738	0,51
403,196	0,51
403,654	0,51
404,112	0,51
404,57	0,51
405,028	0,51
405,486	0,51
405,944	0,51
406,402	0,51
406,859	0,51
407,317	0,51
407,775	0,51
408,233	0,51
408,691	0,51
409,148	0,51
409,606	0,51
410,064	0,51
410,521	0,51
410,979	0,51
411,436	0,51
411,894	0,51
412,351	0,51
412,809	0,51
413,266	0,5
413,724	0,5
414,181	0,5
414,638	0,5
415,096	0,5
415,553	0,5
416,01	0,5
416,467	0,5
416,925	0,5
417,382	0,5
417,839	0,5
418,296	0,5
418,753	0,5
419,21	0,5
419,667	0,5
420,124	0,5
420,581	0,5
421,038	0,5
421,495	0,5
421,952	0,5
422,409	0,5
422,866	0,5
423,322	0,5
423,779	0,5
424,236	0,5
424,693	0,5
425,149	0,5
425,606	0,5
426,063	0,5
426,519	0,5
426,976	0,5
427,433	0,5
427,889	0,5
428,346	0,5
428,802	0,5
429,258	0,5
429,715	0,5
430,171	0,5
430,628	0,5
431,084	0,5
431,54	0,5
431,997	0,5
432,453	0,5
432,909	0,5
433,365	0,5
433,821	0,5
434,277	0,49
434,734	0,5
435,19	0,5
435,646	0,5
436,102	0,5
436,558	0,5
437,014	0,5
437,47	0,5
437,925	0,5
438,381	0,5
438,837	0,5
439,293	0,5
439,749	0,5
440,205	0,5
440,66	0,5
441,116	0,5
441,572	0,5
442,027	0,5
442,483	0,5
442,939	0,5
443,394	0,5
443,85	0,5
444,305	0,5
444,761	0,5
445,216	0,5
445,672	0,5
446,127	0,5
446,582	0,5
447,038	0,5
447,493	0,5
447,948	0,5
448,403	0,5
448,859	0,5
449,314	0,5
449,769	0,5
450,224	0,5
450,679	0,5
451,134	0,5
451,589	0,5
452,044	0,5
452,499	0,5
452,954	0,5
453,409	0,5
453,864	0,5
454,319	0,5
454,774	0,5
455,229	0,5
455,684	0,5
456,138	0,5
456,593	0,5
457,048	0,5
457,503	0,5
457,957	0,5
458,412	0,5
458,866	0,5
459,321	0,5
459,776	0,5
460,23	0,5
460,685	0,5
461,139	0,5
461,593	0,5
462,048	0,5
462,502	0,5
462,957	0,51
463,411	0,51
463,865	0,51
464,319	0,51
464,774	0,51
465,228	0,51
465,682	0,51
466,136	0,51
466,59	0,51
467,044	0,51
467,499	0,51
467,953	0,51
468,407	0,51
468,861	0,51
469,315	0,51
469,768	0,51
470,222	0,51
470,676	0,52
471,13	0,52
471,584	0,52
472,038	0,52
472,491	0,52
472,945	0,52
473,399	0,52
473,852	0,52
474,306	0,52
474,76	0,52
475,213	0,52
475,667	0,52
476,12	0,52
476,574	0,52
477,027	0,53
477,481	0,53
477,934	0,53
478,388	0,53
478,841	0,53
479,294	0,53
479,748	0,53
480,201	0,53
480,654	0,53
481,107	0,54
481,561	0,54
482,014	0,54
482,467	0,54
482,92	0,54
483,373	0,54
483,826	0,54
484,279	0,54
484,732	0,55
485,185	0,55
485,638	0,55
486,091	0,55
486,544	0,55
486,997	0,55
487,449	0,55
487,902	0,56
488,355	0,56
488,808	0,56
489,26	0,56
489,713	0,56
490,166	0,57
490,618	0,57
491,071	0,57
491,523	0,57
491,976	0,57
492,429	0,58
492,881	0,58
493,333	0,58
493,786	0,58
494,238	0,59
494,691	0,59
495,143	0,59
495,595	0,59
496,048	0,6
496,5	0,6
496,952	0,6
497,404	0,6
497,856	0,61
498,309	0,61
498,761	0,61
499,213	0,61
499,665	0,62
500,117	0,62
500,569	0,62
501,021	0,63
501,473	0,63
501,925	0,63
502,377	0,64
502,828	0,64
503,28	0,64
503,732	0,64
504,184	0,65
504,636	0,65
505,087	0,65
505,539	0,66
505,991	0,66
506,442	0,66
506,894	0,67
507,345	0,67
507,797	0,67
508,249	0,67
508,7	0,68
509,151	0,68
509,603	0,68
510,054	0,69
510,506	0,69
510,957	0,69
511,408	0,7
511,86	0,7
512,311	0,7
512,762	0,7
513,213	0,71
513,665	0,71
514,116	0,71
514,567	0,71
515,018	0,72
515,469	0,72
515,92	0,72
516,371	0,73
516,822	0,73
517,273	0,73
517,724	0,73
518,175	0,73
518,626	0,74
519,076	0,74
519,527	0,74
519,978	0,74
520,429	0,74
520,88	0,74
521,33	0,75
521,781	0,75
522,232	0,75
522,682	0,75
523,133	0,75
523,583	0,75
524,034	0,75
524,484	0,75
524,935	0,75
525,385	0,76
525,836	0,76
526,286	0,76
526,736	0,76
527,187	0,76
527,637	0,76
528,087	0,76
528,538	0,76
528,988	0,76
529,438	0,76
529,888	0,75
530,338	0,75
530,788	0,75
531,238	0,75
531,688	0,75
532,139	0,75
532,589	0,75
533,038	0,75
533,488	0,75
533,938	0,75
534,388	0,74
534,838	0,74
535,288	0,74
535,738	0,74
536,187	0,74
536,637	0,73
537,087	0,73
537,537	0,73
537,986	0,73
538,436	0,72
538,885	0,72
539,335	0,72
539,785	0,71
540,234	0,71
540,684	0,71
541,133	0,7
541,582	0,7
542,032	0,7
542,481	0,69
542,931	0,69
543,38	0,69
543,829	0,68
544,278	0,68
544,728	0,68
545,177	0,67
545,626	0,67
546,075	0,67
546,524	0,66
546,973	0,66
547,422	0,66
547,871	0,66
548,32	0,65
548,769	0,65
549,218	0,65
549,667	0,65
550,116	0,65
550,565	0,64
551,014	0,64
551,463	0,64
551,911	0,63
552,36	0,63
552,809	0,63
553,258	0,62
553,706	0,62
554,155	0,62
554,603	0,61
555,052	0,61
555,501	0,61
555,949	0,61
556,398	0,6
556,846	0,6
557,294	0,6
557,743	0,59
558,191	0,59
558,64	0,59
559,088	0,58
559,536	0,58
559,985	0,58
560,433	0,57
560,881	0,57
561,329	0,57
561,777	0,56
562,225	0,56
562,674	0,56
563,122	0,55
563,57	0,55
564,018	0,55
564,466	0,55
564,914	0,54
565,362	0,54
565,809	0,54
566,257	0,53
566,705	0,53
567,153	0,53
567,601	0,53
568,048	0,52
568,496	0,52
568,944	0,52
569,392	0,52
569,839	0,51
570,287	0,51
570,734	0,51
571,182	0,51
571,63	0,5
572,077	0,5
572,525	0,5
572,972	0,49
573,419	0,49
573,867	0,49
574,314	0,49
574,761	0,48
575,209	0,48
575,656	0,48
576,103	0,48
576,551	0,48
576,998	0,47
577,445	0,47
577,892	0,47
578,339	0,47
578,786	0,47
579,233	0,47
579,68	0,46
580,127	0,46
580,574	0,46
581,021	0,46
581,468	0,45
581,915	0,45
582,362	0,45
582,809	0,45
583,255	0,45
583,702	0,45
584,149	0,44
584,596	0,44
585,042	0,44
585,489	0,44
585,936	0,44
586,382	0,44
586,829	0,44
587,275	0,43
587,722	0,43
588,168	0,43
588,615	0,43
589,061	0,43
589,508	0,43
589,954	0,43
590,4	0,42
590,847	0,42
591,293	0,42
591,739	0,42
592,185	0,42
592,632	0,42
593,078	0,42
593,524	0,42
593,97	0,42
594,416	0,41
594,862	0,41
595,308	0,41
595,754	0,41
596,2	0,41
596,646	0,41
597,092	0,41
597,538	0,41
597,984	0,41
598,43	0,4
598,876	0,4
599,321	0,4
599,767	0,4
600,213	0,4
600,659	0,4
601,104	0,4
601,55	0,4
601,995	0,4
602,441	0,4
602,887	0,39
603,332	0,39
603,778	0,39
604,223	0,39
604,668	0,39
605,114	0,39
605,559	0,39
606,005	0,39
606,45	0,39
606,895	0,39
607,341	0,39
607,786	0,39
608,231	0,39
608,676	0,38
609,121	0,38
609,566	0,37
610,012	0,37
610,457	0,37
610,902	0,37
611,347	0,36
611,792	0,36
612,237	0,36
612,682	0,36
613,127	0,36
613,571	0,36
614,016	0,36
614,461	0,36
614,906	0,37
615,351	0,37
615,795	0,37
616,24	0,37
616,685	0,37
617,129	0,37
617,574	0,37
618,019	0,37
618,463	0,37
618,908	0,37
619,352	0,37
619,797	0,37
620,241	0,37
620,686	0,37
621,13	0,36
621,574	0,36
622,019	0,36
622,463	0,36
622,907	0,36
623,352	0,36
623,796	0,36
624,24	0,36
624,684	0,36
625,128	0,36
625,572	0,36
626,016	0,36
626,461	0,36
626,905	0,36
627,349	0,36
627,793	0,36
628,236	0,36
628,68	0,36
629,124	0,36
629,568	0,36
630,012	0,35
630,456	0,35
630,9	0,35
631,343	0,35
631,787	0,35
632,231	0,35
632,674	0,35
633,118	0,35
633,562	0,35
634,005	0,35
634,449	0,35
634,892	0,35
635,336	0,35
635,779	0,35
636,223	0,35
636,666	0,35
637,109	0,35
637,553	0,35
637,996	0,35
638,439	0,35
638,883	0,35
639,326	0,35
639,769	0,35
640,212	0,35
640,655	0,35
641,099	0,34
641,542	0,34
641,985	0,34
642,428	0,34
642,871	0,34
643,314	0,34
643,757	0,34
644,2	0,34
644,643	0,34
645,085	0,34
645,528	0,34
645,971	0,34
646,414	0,34
646,857	0,34
647,299	0,34
647,742	0,34
648,185	0,34
648,627	0,34
649,07	0,34
649,513	0,34
649,955	0,34
650,398	0,34
650,84	0,34
651,283	0,34
651,725	0,34
652,168	0,34
652,61	0,34
653,052	0,34
653,495	0,34
653,937	0,26
654,379	0,21
654,821	0,22
655,264	0,22
655,706	0,22
656,148	0,22
656,59	0,22
657,032	0,22
657,474	0,22
657,916	0,22
658,358	0,21
658,8	0,26
659,242	0,33
659,684	0,34
660,126	0,34
660,568	0,34
661,01	0,34
661,452	0,33
661,894	0,33
662,335	0,33
662,777	0,33
663,219	0,33
663,661	0,33
664,102	0,33
664,544	0,33
664,985	0,33
665,427	0,33
665,869	0,33
666,31	0,33
666,752	0,33
667,193	0,33
667,634	0,33
668,076	0,33
668,517	0,33
668,959	0,33
669,4	0,33
669,841	0,33
670,282	0,33
670,724	0,33
671,165	0,33
671,606	0,33
672,047	0,33
672,488	0,33
672,929	0,33
673,37	0,33
673,811	0,33
674,252	0,33
674,693	0,33
675,134	0,33
675,575	0,33
676,016	0,33
676,457	0,33
676,898	0,33
677,339	0,32
677,78	0,32
678,22	0,32
678,661	0,32
679,102	0,32
679,542	0,32
679,983	0,32
680,424	0,32
680,864	0,32
681,305	0,32
681,745	0,32
682,186	0,32
682,626	0,32
683,067	0,32
683,507	0,32
683,948	0,32
684,388	0,32
684,828	0,32
685,269	0,32
685,709	0,32
686,149	0,32
686,589	0,32
687,029	0,32
687,47	0,32
687,91	0,32
688,35	0,32
688,79	0,32
689,23	0,32
689,67	0,32
690,11	0,32
690,55	0,32
690,99	0,32
691,43	0,32
691,87	0,32
692,31	0,31
692,749	0,31
693,189	0,31
693,629	0,31
694,069	0,31
694,508	0,31
694,948	0,31
695,388	0,31
695,827	0,31
696,267	0,31
696,706	0,31
697,146	0,32
697,586	0,32
698,025	0,32
698,464	0,32
698,904	0,32
699,343	0,32
699,783	0,32
700,222	0,32
700,661	0,32
701,101	0,32
701,54	0,32
701,979	0,32
702,418	0,32
702,857	0,32
703,297	0,32
703,736	0,32
704,175	0,32
704,614	0,32
705,053	0,31
705,492	0,31
705,931	0,31
706,37	0,31
706,809	0,31
707,248	0,31
707,687	0,31
708,125	0,31
708,564	0,31
709,003	0,31
709,442	0,31
709,88	0,31
710,319	0,31
710,758	0,31
711,196	0,31
711,635	0,31
712,074	0,31
712,512	0,31
712,951	0,31
713,389	0,3
713,828	0,3
714,266	0,3
714,705	0,3
715,143	0,3
715,581	0,3
716,02	0,3
716,458	0,3
716,896	0,3
717,334	0,3
717,773	0,3
718,211	0,3
718,649	0,3
719,087	0,3
719,525	0,3
719,963	0,3
720,401	0,3
720,839	0,3
721,277	0,3
721,715	0,3
722,153	0,3
722,591	0,3
723,029	0,3
723,467	0,3
723,905	0,3
724,342	0,3
724,78	0,3
725,218	0,3
725,656	0,3
726,093	0,3
726,531	0,3
726,969	0,3
727,406	0,3
727,844	0,3
728,281	0,3
728,719	0,3
729,156	0,3
729,594	0,3
730,031	0,3
730,469	0,3
730,906	0,3
731,343	0,3
731,781	0,3
732,218	0,3
732,655	0,3
733,092	0,3
733,53	0,3
733,967	0,3
734,404	0,3
734,841	0,3
735,278	0,3
735,715	0,29
736,152	0,29
736,589	0,29
737,026	0,29
737,463	0,29
737,9	0,29
738,337	0,29
738,774	0,29
739,211	0,29
739,647	0,29
740,084	0,29
740,521	0,29
740,958	0,29
741,394	0,29
741,831	0,29
742,268	0,29
742,704	0,29
743,141	0,28
743,577	0,28
744,014	0,28
744,45	0,28
744,887	0,28
745,323	0,28
745,76	0,28
746,196	0,28
746,632	0,27
747,069	0,27
747,505	0,27
747,941	0,28
748,378	0,28
748,814	0,28
749,25	0,28
749,686	0,28
750,122	0,28
750,558	0,28
750,994	0,29
751,43	0,29
751,866	0,29
752,302	0,29
752,738	0,29
753,174	0,29
753,61	0,29
754,046	0,29
754,482	0,29
754,918	0,29
755,354	0,3
755,789	0,3
756,225	0,29
756,661	0,29
757,096	0,29
757,532	0,29
757,968	0,29
758,403	0,29
758,839	0,29
759,274	0,28
759,71	0,28
760,145	0,28
760,581	0,27
761,016	0,27
761,452	0,26
761,887	0,26
762,322	0,26
762,758	0,25
763,193	0,25
763,628	0,25
764,063	0,24
764,499	0,24
764,934	0,23
765,369	0,23
765,804	0,22
766,239	0,22
766,674	0,21
767,109	0,21
767,544	0,2
767,979	0,19
768,414	0,19
768,849	0,18
769,284	0,18
769,719	0,17
770,154	0,16
770,588	0,16
771,023	0,15
771,458	0,14
771,893	0,13
772,327	0,12
772,762	0,11
773,197	0,1
773,631	0,09
774,066	0,09
774,5	0,08
774,935	0,07
775,369	0,06
775,804	0,05
776,238	0,05
776,673	0,04
777,107	0,03
777,541	0,03
777,976	0,02
778,41	0,01
778,844	-0
779,279	-0
779,713	-0,01
780,147	-0,02
780,581	-0,03
781,015	-0,04
781,449	-0,04
781,883	-0,05
782,317	-0,07
782,751	-0,07
783,185	-0,08
783,619	-0,08
784,053	-0,09
784,487	-0,09
784,921	-0,1
785,355	-0,1
785,789	-0,11
786,223	-0,11
786,656	-0,12
787,09	-0,13
787,524	-0,14
787,957	-0,15
788,391	-0,17
788,825	-0,18
789,258	-0,2
789,692	-0,21
790,125	-0,23
790,559	-0,25
790,992	-0,27
791,426	-0,29
791,859	-0,31
792,293	-0,33
792,726	-0,35
793,159	-0,36
793,593	-0,38
794,026	-0,4
794,459	-0,43
794,892	-0,45
795,326	-0,48
795,759	-0,51
796,192	-0,55
796,625	-0,6
797,058	-0,63
797,491	-0,67
797,924	-0,71
798,357	-0,76
798,79	-0,8
799,223	-0,84
799,656	-0,9
800,089	-0,95
800,522	-0,99
800,955	-1,03
801,387	-1,09
801,82	-1,14
802,253	-1,2
802,686	-1,28
803,118	-1,34
803,551	-1,39
803,984	-1,43
804,416	-1,47
804,849	-1,5
805,281	-1,63
805,714	-1,98
806,146	-2,42
806,579	-2,69
807,011	-2,86
807,444	-2,96
807,876	-3,05
808,308	-3,08
808,741	-3,11
809,173	-3,17
809,605	-3,19
810,037	-3,26
810,47	-3,18
810,902	-2,99
811,334	-2,84
811,766	-2,69
812,198	-2,46
812,63	-2,03
813,062	-1,8
813,494	-1,69
813,926	-1,61
814,358	-1,55
814,79	-1,47
815,222	-1,41
815,654	-1,36
816,086	-1,3
816,518	-1,24
816,949	-1,19
817,381	-1,15
817,813	-1,13
818,245	-1,09
818,676	-1,05
819,108	-1,01
819,54	-1
819,971	-0,97
820,403	-0,92
820,834	-0,91
821,266	-0,86
821,697	-0,84
822,129	-0,82
822,56	-0,8
822,991	-0,77
823,423	-0,75
823,854	-0,74
824,286	-0,71
824,717	-0,7
825,148	-0,69
825,579	-0,68
826,01	-0,67
826,442	-0,66
826,873	-0,63
827,304	-0,6
827,735	-0,6
828,166	-0,6
828,597	-0,59
829,028	-0,59
829,459	-0,59
829,89	-0,6
830,321	-0,55
830,752	-0,56
831,183	-0,54
831,613	-0,54
832,044	-0,53
832,475	-0,52
832,906	-0,53
833,336	-0,54
833,767	-0,54
834,198	-0,53
834,628	-0,51
835,059	-0,54
835,49	-0,55
835,92	-0,52
836,351	-0,52
836,781	-0,53
837,212	-0,54
837,642	-0,54
838,072	-0,52
838,503	-0,52
838,933	-0,5
839,364	-0,51
839,794	-0,49
840,224	-0,48
840,654	-0,52
841,085	-0,52
841,515	-0,5
841,945	-0,51
842,375	-0,47
842,805	-0,46
843,235	-0,45
843,665	-0,46
844,095	-0,44
844,525	-0,46
844,955	-0,46
845,385	-0,44
845,815	-0,43
846,245	-0,45
846,675	-0,46
847,105	-0,47
847,534	-0,48
847,964	-0,47
848,394	-0,46
848,824	-0,5
849,253	-0,49
849,683	-0,49
850,112	-0,5
850,542	-0,53
850,972	-0,53
851,401	-0,51
851,831	-0,49
852,26	-0,49
852,69	-0,53
853,119	-0,52
853,548	-0,52
853,978	-0,52
854,407	-0,5
854,836	-0,5
855,266	-0,49
855,695	-0,51
856,124	-0,52
856,553	-0,54
856,983	-0,56
857,412	-0,54
857,841	-0,56
858,27	-0,56
858,699	-0,56
859,128	-0,6
859,557	-0,61
859,986	-0,62
860,415	-0,59
860,844	-0,56
861,273	-0,57
861,702	-0,57
862,13	-0,55
862,559	-0,57
862,988	-0,54
863,417	-0,52
863,845	-0,51
864,274	-0,52
864,703	-0,52
865,131	-0,53
865,56	-0,53
865,989	-0,55
866,417	-0,52
866,846	-0,52
867,274	-0,52
867,703	-0,53
868,131	-0,55
868,559	-0,56
868,988	-0,58
869,416	-0,57
869,844	-0,57
870,273	-0,61
870,701	-0,6
871,129	-0,64
871,557	-0,66
871,986	-0,66
872,414	-0,69
872,842	-0,65
873,27	-0,62
873,698	-0,59
874,126	-0,64
874,554	-0,62
874,982	-0,62
875,41	-0,63
875,838	-0,59
876,266	-0,56
876,694	-0,56
877,122	-0,55
877,549	-0,6
877,977	-0,58
878,405	-0,61
878,833	-0,57
879,26	-0,55
879,688	-0,56
880,116	-0,54
880,543	-0,52
880,971	-0,51
881,399	-0,55
881,826	-0,56
882,254	-0,54
882,681	-0,57
883,109	-0,52
883,536	-0,53
883,963	-0,56
884,391	-0,53
884,818	-0,52
885,245	-0,54
885,673	-0,57
886,1	-0,53
886,527	-0,53
886,954	-0,51
887,381	-0,52
887,809	-0,54
888,236	-0,56
888,663	-0,56
889,09	-0,62
889,517	-0,64
889,944	-0,64
890,371	-0,62
890,798	-0,64
891,225	-0,63
891,652	-0,66
892,078	-0,63
892,505	-0,67
892,932	-0,62
893,359	-0,62
893,786	-0,61
894,212	-0,57
894,639	-0,59
895,066	-0,61
895,492	-0,54
895,919	-0,55
896,346	-0,55
896,772	-0,56
897,199	-0,52
897,625	-0,55
898,052	-0,52
898,478	-0,5
898,904	-0,52
899,331	-0,51
899,757	-0,53
900,183	-0,55
900,61	-0,53
901,036	-0,53
901,462	-0,53
901,888	-0,52
902,315	-0,51
902,741	-0,56
903,167	-0,54
903,593	-0,58
904,019	-0,56
904,445	-0,54
904,871	-0,56
905,297	-0,59
905,723	-0,57
906,149	-0,57
906,575	-0,57
907,001	-0,57
907,427	-0,54
907,852	-0,54
908,278	-0,53
908,704	-0,51
909,13	-0,5
909,555	-0,49
909,981	-0,49
910,407	-0,5
910,832	-0,49
911,258	-0,49
911,684	-0,49
912,109	-0,5
912,535	-0,52
912,96	-0,48
913,386	-0,53
913,811	-0,52
914,236	-0,53
914,662	-0,5
915,087	-0,54
915,512	-0,54
915,938	-0,55
916,363	-0,54
916,788	-0,55
917,213	-0,53
917,639	-0,59
918,064	-0,56
918,489	-0,57
918,914	-0,58
919,339	-0,59
919,764	-0,56
920,189	-0,56
920,614	-0,58
921,039	-0,59
921,464	-0,55
921,889	-0,58
922,314	-0,59
922,738	-0,61
923,163	-0,62
923,588	-0,63
924,013	-0,63
924,437	-0,63
924,862	-0,63
925,287	-0,59
925,711	-0,6
926,136	-0,62
926,561	-0,6
926,985	-0,59
927,41	-0,58
927,834	-0,55
928,259	-0,52
928,683	-0,5
929,108	-0,47
929,532	-0,48
929,956	-0,47
930,381	-0,46
930,805	-0,46
931,229	-0,45
931,653	-0,43
932,078	-0,43
932,502	-0,44
932,926	-0,46
933,35	-0,46
933,774	-0,45
934,198	-0,43
934,622	-0,42
935,046	-0,43
935,47	-0,43
935,894	-0,43
936,318	-0,42
936,742	-0,42
937,166	-0,42
937,59	-0,41
938,014	-0,43
938,437	-0,44
938,861	-0,47
939,285	-0,48
939,709	-0,47
940,132	-0,47
940,556	-0,48
940,98	-0,48
941,403	-0,47
941,827	-0,47
942,25	-0,48
942,674	-0,47
943,097	-0,47
943,521	-0,46
943,944	-0,47
944,368	-0,46
944,791	-0,45
945,214	-0,48
945,638	-0,47
946,061	-0,5
946,484	-0,5
946,907	-0,49
947,331	-0,49
947,754	-0,53
948,177	-0,51
948,6	-0,51
949,023	-0,51
949,446	-0,51
949,869	-0,5
950,292	-0,5
950,715	-0,47
951,138	-0,46
951,561	-0,45
951,984	-0,45
952,407	-0,43
952,83	-0,41
953,252	-0,36
953,675	-0,36
954,098	-0,37
954,521	-0,35
954,943	-0,35
955,366	-0,35
955,789	-0,33
956,211	-0,35
956,634	-0,36
957,056	-0,33
957,479	-0,34
957,902	-0,37
958,324	-0,36
958,746	-0,36
959,169	-0,37
959,591	-0,37
960,014	-0,38
960,436	-0,37
960,858	-0,36
961,281	-0,36
961,703	-0,37
962,125	-0,37
962,547	-0,35
962,969	-0,35
963,391	-0,35
963,814	-0,37
964,236	-0,35
964,658	-0,32
965,08	-0,33
965,502	-0,32
965,924	-0,3
966,346	-0,3
966,768	-0,29
967,189	-0,32
967,611	-0,31
968,033	-0,31
968,455	-0,29
968,877	-0,3
969,298	-0,32
969,72	-0,33
970,142	-0,33
970,563	-0,33
970,985	-0,31
971,407	-0,3
971,828	-0,28
972,25	-0,27
972,671	-0,25
973,093	-0,26
973,514	-0,24
973,936	-0,22
974,357	-0,2
974,778	-0,21
975,2	-0,21
975,621	-0,2
976,042	-0,19
976,464	-0,19
976,885	-0,19
977,306	-0,19
977,727	-0,18
978,148	-0,18
978,57	-0,17
978,991	-0,16
979,412	-0,14
979,833	-0,13
980,254	-0,12
980,675	-0,13
981,096	-0,12
981,517	-0,11
981,937	-0,1
982,358	-0,08
982,779	-0,07
983,2	-0,07
983,621	-0,06
984,042	-0,05
984,462	-0,04
984,883	-0,03
985,304	-0,02
985,724	-0,01
986,145	-0
986,565	0,01
986,986	0,02
987,407	0,02
987,827	0,04
988,248	0,05
988,668	0,06
989,088	0,07
989,509	0,08
989,929	0,09
990,35	0,1
990,77	0,11
991,19	0,11
991,61	0,12
992,031	0,13
992,451	0,14
992,871	0,14
993,291	0,15
993,711	0,15
994,131	0,16
994,551	0,17
994,971	0,17
995,391	0,18
995,811	0,18
996,231	0,18
996,651	0,19
997,071	0,19
997,491	0,2
997,911	0,2
998,331	0,21
998,75	0,21
999,17	0,22
999,59	0,22
1000,009	0,22
1000,429	0,23
1000,849	0,23
1001,268	0,23
1001,688	0,24
1002,107	0,24
1002,527	0,24
1002,946	0,24
1003,366	0,25
1003,785	0,25
1004,205	0,25
1004,624	0,25
1005,044	0,25
1005,463	0,25
1005,882	0,26
1006,301	0,26
1006,721	0,26
1007,14	0,26
1007,559	0,26
1007,978	0,26
1008,397	0,26
1008,816	0,26
1009,235	0,26
1009,655	0,26
1010,074	0,26
1010,492	0,26
1010,911	0,25
1011,33	0,25
1011,749	0,25
1012,168	0,25
1012,587	0,25
1013,006	0,25
1013,425	0,25
1013,843	0,25
1014,262	0,25
1014,681	0,25
1015,099	0,25
1015,518	0,25
1015,937	0,25
1016,355	0,25
1016,774	0,25
1017,192	0,25
1017,611	0,25
1018,029	0,25
1018,448	0,25
1018,866	0,25
1019,285	0,25
1019,703	0,25
1020,121	0,25
1020,54	0,25
1020,958	0,25
1021,376	0,25
1021,794	0,25
1022,213	0,25
1022,631	0,25
1023,049	0,25
1023,467	0,25
1023,885	0,25
1024,303	0,25
1024,721	0,25
1025,139	0,25
1025,557	0,24
1025,975	0,24
1026,393	0,24
1026,811	0,24
1027,229	0,24
1027,647	0,24
1028,065	0,24
1028,482	0,24
1028,9	0,24
1029,318	0,24
1029,735	0,24
1030,153	0,24
1030,571	0,24
1030,988	0,24
1031,406	0,24
1031,823	0,24
1032,241	0,24
1032,659	0,24
1033,076	0,24
1033,493	0,24
1033,911	0,24
1034,328	0,24
1034,746	0,24
1035,163	0,24
1035,58	0,24
1035,997	0,24
1036,415	0,24
1036,832	0,24
1037,249	0,24
1037,666	0,24
1038,083	0,24
1038,501	0,24
1038,918	0,24
1039,335	0,24
1039,752	0,24
1040,169	0,24
1040,586	0,24
1041,003	0,24
1041,419	0,24
1041,836	0,24
1042,253	0,24
1042,67	0,24
1043,087	0,24
1043,504	0,24
1043,92	0,24
1044,337	0,23
1044,754	0,23
1045,17	0,23
1045,587	0,23
1046,004	0,23
1046,42	0,23
1046,837	0,23
1047,253	0,23
1047,67	0,23
1048,086	0,23
1048,503	0,23
1048,919	0,23
1049,335	0,23
1049,752	0,23
1050,168	0,23
1050,584	0,23
1051,001	0,23
1051,417	0,23
1051,833	0,23
1052,249	0,23
1052,665	0,23
1053,081	0,23
1053,497	0,23
1053,914	0,23
1054,33	0,24
1054,746	0,24
1055,162	0,24
1055,578	0,24
1055,993	0,24
1056,409	0,24
1056,825	0,24
1057,241	0,24
1057,657	0,24
1058,073	0,24
1058,488	0,24
1058,904	0,24
1059,32	0,24
1059,736	0,24
1060,151	0,24
1060,567	0,24
1060,982	0,24
1061,398	0,24
1061,813	0,24
1062,229	0,24
1062,644	0,24
1063,06	0,24
1063,475	0,24
1063,891	0,24
1064,306	0,24
1064,721	0,24
1065,137	0,24
1065,552	0,24
1065,967	0,24
1066,382	0,24
1066,798	0,24
1067,213	0,24
1067,628	0,24
1068,043	0,24
1068,458	0,24
1068,873	0,24
1069,288	0,24
1069,703	0,24
1070,118	0,24
1070,533	0,24
1070,948	0,24
1071,363	0,24
1071,778	0,24
1072,193	0,24
1072,607	0,24
1073,022	0,24
1073,437	0,24
1073,852	0,24
1074,266	0,24
1074,681	0,24
1075,096	0,24
1075,51	0,24
1075,925	0,24
1076,339	0,24
1076,754	0,24
1077,168	0,24
1077,583	0,24
1077,997	0,24
1078,412	0,24
1078,826	0,24
1079,24	0,24
1079,655	0,24
1080,069	0,24
1080,483	0,24
1080,897	0,23
1081,312	0,23
1081,726	0,23
1082,14	0,23
1082,554	0,23
1082,968	0,23
1083,382	0,23
1083,796	0,23
1084,21	0,23
1084,624	0,23
1085,038	0,23
1085,452	0,23
1085,866	0,23
1086,28	0,22
1086,694	0,22
1087,108	0,22
1087,521	0,22
1087,935	0,22
1088,349	0,22
1088,763	0,22
1089,176	0,22
1089,59	0,21
1090,004	0,21
1090,417	0,21
1090,831	0,21
1091,244	0,21
1091,658	0,2
1092,071	0,2
1092,485	0,2
1092,898	0,2
1093,312	0,2
1093,725	0,2
1094,138	0,2
1094,552	0,19
1094,965	0,19
1095,378	0,19
1095,791	0,19
1096,205	0,19
1096,618	0,19
1097,031	0,19
1097,444	0,19
1097,857	0,18
1098,27	0,18
1098,683	0,18
1099,096	0,18
1099,509	0,18
1099,922	0,17
1100,335	0,17
1100,748	0,17
1101,161	0,16
1101,574	0,16
1101,986	0,16
1102,399	0,16
1102,812	0,16
1103,225	0,15
1103,637	0,15
1104,05	0,14
1104,463	0,14
1104,875	0,14
1105,288	0,14
1105,7	0,13
1106,113	0,13
1106,525	0,13
1106,938	0,12
1107,35	0,12
1107,763	0,12
1108,175	0,12
1108,588	0,12
1109	0,11
1109,412	0,11
1109,824	0,12
1110,237	0,11
1110,649	0,11
1111,061	0,09
