Data from 18C-808nm-8A_Absorbance__884__00884.txt Node

Date: Mon Jul 17 16:53:13 CEST 2023
User: Laser008
Spectrometer: MAYP115816
Trigger mode: 0
Integration Time (sec): 2,500000E-1
Scans to average: 10
Electric dark correction enabled: true
Nonlinearity correction enabled: true
Boxcar width: 5
XAxis mode: Wavelengths
Number of Pixels in Spectrum: 2068
>>>>>Begin Spectral Data<<<<<
198,914	-0,66
199,384	-0,45
199,855	-0,32
200,325	-0,27
200,796	-0,25
201,266	-0,21
201,737	-0,19
202,207	-0,18
202,677	-0,18
203,147	-0,17
203,618	-0,14
204,088	-0,13
204,558	-0,12
205,028	-0,12
205,498	-0,12
205,968	-0,12
206,439	-0,14
206,909	-0,13
207,379	-0,14
207,849	-0,14
208,319	-0,14
208,789	-0,15
209,258	-0,15
209,728	-0,17
210,198	-0,17
210,668	-0,17
211,138	-0,16
211,608	-0,15
212,077	-0,15
212,547	-0,15
213,017	-0,15
213,486	-0,15
213,956	-0,15
214,426	-0,16
214,895	-0,16
215,365	-0,16
215,834	-0,16
216,304	-0,17
216,773	-0,18
217,243	-0,19
217,712	-0,21
218,181	-0,21
218,651	-0,2
219,12	-0,2
219,589	-0,2
220,058	-0,19
220,528	-0,2
220,997	-0,2
221,466	-0,21
221,935	-0,21
222,404	-0,21
222,873	-0,2
223,342	-0,19
223,812	-0,19
224,281	-0,19
224,749	-0,19
225,218	-0,21
225,687	-0,2
226,156	-0,19
226,625	-0,18
227,094	-0,18
227,563	-0,18
228,031	-0,19
228,5	-0,2
228,969	-0,21
229,438	-0,2
229,906	-0,19
230,375	-0,18
230,844	-0,19
231,312	-0,19
231,781	-0,19
232,249	-0,18
232,718	-0,19
233,186	-0,18
233,655	-0,19
234,123	-0,18
234,591	-0,18
235,06	-0,19
235,528	-0,19
235,996	-0,18
236,465	-0,17
236,933	-0,17
237,401	-0,17
237,869	-0,16
238,337	-0,16
238,805	-0,15
239,274	-0,15
239,742	-0,14
240,21	-0,14
240,678	-0,13
241,146	-0,13
241,614	-0,14
242,081	-0,14
242,549	-0,14
243,017	-0,14
243,485	-0,14
243,953	-0,14
244,421	-0,14
244,888	-0,14
245,356	-0,15
245,824	-0,15
246,291	-0,15
246,759	-0,16
247,227	-0,16
247,694	-0,15
248,162	-0,14
248,629	-0,13
249,097	-0,14
249,564	-0,15
250,032	-0,16
250,499	-0,15
250,967	-0,15
251,434	-0,16
251,901	-0,16
252,369	-0,16
252,836	-0,18
253,303	-0,19
253,77	-0,2
254,237	-0,19
254,705	-0,19
255,172	-0,18
255,639	-0,18
256,106	-0,19
256,573	-0,19
257,04	-0,19
257,507	-0,19
257,974	-0,2
258,441	-0,18
258,908	-0,19
259,375	-0,2
259,841	-0,21
260,308	-0,22
260,775	-0,22
261,242	-0,21
261,709	-0,21
262,175	-0,22
262,642	-0,22
263,109	-0,2
263,575	-0,22
264,042	-0,21
264,508	-0,2
264,975	-0,22
265,441	-0,23
265,908	-0,23
266,374	-0,22
266,841	-0,22
267,307	-0,21
267,773	-0,21
268,24	-0,21
268,706	-0,21
269,172	-0,22
269,639	-0,23
270,105	-0,21
270,571	-0,21
271,037	-0,22
271,503	-0,22
271,969	-0,21
272,435	-0,21
272,902	-0,22
273,368	-0,24
273,834	-0,23
274,3	-0,24
274,765	-0,23
275,231	-0,23
275,697	-0,23
276,163	-0,23
276,629	-0,23
277,095	-0,25
277,56	-0,24
278,026	-0,25
278,492	-0,22
278,958	-0,23
279,423	-0,22
279,889	-0,23
280,354	-0,24
280,82	-0,24
281,286	-0,25
281,751	-0,25
282,217	-0,23
282,682	-0,24
283,147	-0,24
283,613	-0,24
284,078	-0,24
284,544	-0,26
285,009	-0,27
285,474	-0,25
285,939	-0,26
286,405	-0,25
286,87	-0,24
287,335	-0,24
287,8	-0,24
288,265	-0,23
288,73	-0,25
289,195	-0,26
289,66	-0,26
290,125	-0,24
290,59	-0,25
291,055	-0,23
291,52	-0,24
291,985	-0,24
292,45	-0,25
292,915	-0,25
293,38	-0,24
293,844	-0,22
294,309	-0,22
294,774	-0,2
295,239	-0,22
295,703	-0,22
296,168	-0,22
296,632	-0,21
297,097	-0,2
297,562	-0,18
298,026	-0,18
298,491	-0,19
298,955	-0,19
299,419	-0,18
299,884	-0,18
300,348	-0,17
300,813	-0,17
301,277	-0,16
301,741	-0,16
302,205	-0,17
302,67	-0,17
303,134	-0,17
303,598	-0,16
304,062	-0,16
304,526	-0,15
304,99	-0,17
305,454	-0,16
305,919	-0,16
306,383	-0,16
306,847	-0,16
307,31	-0,17
307,774	-0,18
308,238	-0,18
308,702	-0,17
309,166	-0,18
309,63	-0,18
310,094	-0,15
310,557	-0,16
311,021	-0,15
311,485	-0,16
311,948	-0,16
312,412	-0,15
312,876	-0,14
313,339	-0,15
313,803	-0,15
314,266	-0,15
314,73	-0,15
315,193	-0,16
315,657	-0,14
316,12	-0,14
316,584	-0,13
317,047	-0,13
317,51	-0,12
317,973	-0,12
318,437	-0,11
318,9	-0,1
319,363	-0,09
319,826	-0,08
320,29	-0,09
320,753	-0,09
321,216	-0,09
321,679	-0,1
322,142	-0,09
322,605	-0,11
323,068	-0,1
323,531	-0,1
323,994	-0,09
324,457	-0,1
324,92	-0,09
325,382	-0,09
325,845	-0,08
326,308	-0,07
326,771	-0,07
327,233	-0,06
327,696	-0,05
328,159	-0,05
328,622	-0,04
329,084	-0,05
329,547	-0,04
330,009	-0,05
330,472	-0,04
330,934	-0,04
331,397	-0,04
331,859	-0,03
332,322	-0,03
332,784	-0,02
333,246	-0,01
333,709	-0,01
334,171	-0,01
334,633	-0,01
335,096	-0,01
335,558	-0,01
336,02	-0,01
336,482	-0
336,944	0
337,406	0,01
337,868	0,01
338,331	0
338,793	0,01
339,255	0,02
339,717	0,02
340,178	0,03
340,64	0,04
341,102	0,04
341,564	0,04
342,026	0,05
342,488	0,06
342,949	0,07
343,411	0,08
343,873	0,1
344,335	0,12
344,796	0,15
345,258	0,17
345,719	0,19
346,181	0,22
346,643	0,24
347,104	0,25
347,566	0,27
348,027	0,28
348,488	0,29
348,95	0,3
349,411	0,31
349,873	0,32
350,334	0,33
350,795	0,33
351,256	0,34
351,718	0,34
352,179	0,34
352,64	0,34
353,101	0,34
353,562	0,35
354,023	0,35
354,484	0,35
354,945	0,35
355,406	0,35
355,867	0,35
356,328	0,35
356,789	0,35
357,25	0,35
357,711	0,35
358,172	0,36
358,633	0,36
359,093	0,36
359,554	0,36
360,015	0,36
360,476	0,36
360,936	0,36
361,397	0,36
361,858	0,36
362,318	0,36
362,779	0,36
363,239	0,36
363,7	0,36
364,16	0,36
364,621	0,36
365,081	0,36
365,541	0,36
366,002	0,36
366,462	0,36
366,922	0,36
367,383	0,36
367,843	0,36
368,303	0,36
368,763	0,36
369,223	0,36
369,684	0,36
370,144	0,36
370,604	0,36
371,064	0,36
371,524	0,36
371,984	0,36
372,444	0,36
372,904	0,36
373,363	0,36
373,823	0,36
374,283	0,36
374,743	0,36
375,203	0,36
375,663	0,36
376,122	0,36
376,582	0,36
377,042	0,36
377,501	0,36
377,961	0,36
378,42	0,36
378,88	0,35
379,34	0,35
379,799	0,35
380,259	0,35
380,718	0,35
381,177	0,35
381,637	0,35
382,096	0,35
382,555	0,35
383,015	0,35
383,474	0,35
383,933	0,35
384,393	0,35
384,852	0,35
385,311	0,35
385,77	0,35
386,229	0,35
386,688	0,35
387,147	0,35
387,606	0,35
388,065	0,35
388,524	0,35
388,983	0,35
389,442	0,35
389,901	0,35
390,36	0,35
390,819	0,35
391,277	0,35
391,736	0,35
392,195	0,35
392,654	0,35
393,112	0,35
393,571	0,35
394,03	0,35
394,488	0,35
394,947	0,35
395,405	0,35
395,864	0,35
396,322	0,35
396,781	0,35
397,239	0,35
397,698	0,35
398,156	0,35
398,614	0,35
399,073	0,35
399,531	0,35
399,989	0,35
400,447	0,35
400,905	0,35
401,364	0,35
401,822	0,34
402,28	0,34
402,738	0,34
403,196	0,34
403,654	0,34
404,112	0,34
404,57	0,34
405,028	0,34
405,486	0,34
405,944	0,34
406,402	0,34
406,859	0,34
407,317	0,34
407,775	0,34
408,233	0,34
408,691	0,34
409,148	0,34
409,606	0,34
410,064	0,34
410,521	0,34
410,979	0,34
411,436	0,34
411,894	0,34
412,351	0,34
412,809	0,34
413,266	0,34
413,724	0,34
414,181	0,34
414,638	0,34
415,096	0,34
415,553	0,34
416,01	0,34
416,467	0,34
416,925	0,34
417,382	0,34
417,839	0,34
418,296	0,34
418,753	0,34
419,21	0,34
419,667	0,34
420,124	0,34
420,581	0,34
421,038	0,34
421,495	0,34
421,952	0,34
422,409	0,34
422,866	0,34
423,322	0,34
423,779	0,34
424,236	0,34
424,693	0,34
425,149	0,34
425,606	0,34
426,063	0,34
426,519	0,34
426,976	0,34
427,433	0,34
427,889	0,34
428,346	0,34
428,802	0,34
429,258	0,34
429,715	0,34
430,171	0,34
430,628	0,33
431,084	0,33
431,54	0,33
431,997	0,33
432,453	0,33
432,909	0,33
433,365	0,33
433,821	0,33
434,277	0,33
434,734	0,33
435,19	0,33
435,646	0,33
436,102	0,33
436,558	0,33
437,014	0,33
437,47	0,33
437,925	0,33
438,381	0,33
438,837	0,33
439,293	0,33
439,749	0,33
440,205	0,33
440,66	0,33
441,116	0,33
441,572	0,33
442,027	0,33
442,483	0,33
442,939	0,33
443,394	0,33
443,85	0,33
444,305	0,33
444,761	0,33
445,216	0,33
445,672	0,33
446,127	0,33
446,582	0,33
447,038	0,33
447,493	0,33
447,948	0,33
448,403	0,33
448,859	0,33
449,314	0,33
449,769	0,33
450,224	0,33
450,679	0,33
451,134	0,33
451,589	0,33
452,044	0,33
452,499	0,33
452,954	0,33
453,409	0,33
453,864	0,33
454,319	0,33
454,774	0,33
455,229	0,33
455,684	0,33
456,138	0,33
456,593	0,33
457,048	0,33
457,503	0,33
457,957	0,33
458,412	0,33
458,866	0,33
459,321	0,33
459,776	0,33
460,23	0,33
460,685	0,33
461,139	0,33
461,593	0,33
462,048	0,33
462,502	0,33
462,957	0,33
463,411	0,34
463,865	0,34
464,319	0,34
464,774	0,34
465,228	0,34
465,682	0,34
466,136	0,34
466,59	0,34
467,044	0,34
467,499	0,34
467,953	0,34
468,407	0,34
468,861	0,34
469,315	0,34
469,768	0,34
470,222	0,34
470,676	0,34
471,13	0,34
471,584	0,34
472,038	0,34
472,491	0,34
472,945	0,34
473,399	0,34
473,852	0,34
474,306	0,34
474,76	0,34
475,213	0,34
475,667	0,34
476,12	0,34
476,574	0,34
477,027	0,34
477,481	0,34
477,934	0,35
478,388	0,35
478,841	0,35
479,294	0,35
479,748	0,35
480,201	0,35
480,654	0,35
481,107	0,35
481,561	0,35
482,014	0,35
482,467	0,35
482,92	0,35
483,373	0,35
483,826	0,36
484,279	0,36
484,732	0,36
485,185	0,36
485,638	0,36
486,091	0,36
486,544	0,36
486,997	0,36
487,449	0,36
487,902	0,36
488,355	0,36
488,808	0,36
489,26	0,37
489,713	0,37
490,166	0,37
490,618	0,37
491,071	0,37
491,523	0,37
491,976	0,37
492,429	0,38
492,881	0,38
493,333	0,38
493,786	0,38
494,238	0,38
494,691	0,38
495,143	0,38
495,595	0,39
496,048	0,39
496,5	0,39
496,952	0,39
497,404	0,39
497,856	0,39
498,309	0,39
498,761	0,4
499,213	0,4
499,665	0,4
500,117	0,4
500,569	0,4
501,021	0,41
501,473	0,41
501,925	0,41
502,377	0,41
502,828	0,41
503,28	0,42
503,732	0,42
504,184	0,42
504,636	0,42
505,087	0,42
505,539	0,43
505,991	0,43
506,442	0,43
506,894	0,43
507,345	0,43
507,797	0,43
508,249	0,44
508,7	0,44
509,151	0,44
509,603	0,44
510,054	0,44
510,506	0,45
510,957	0,45
511,408	0,45
511,86	0,45
512,311	0,45
512,762	0,45
513,213	0,46
513,665	0,46
514,116	0,46
514,567	0,46
515,018	0,46
515,469	0,46
515,92	0,47
516,371	0,47
516,822	0,47
517,273	0,47
517,724	0,47
518,175	0,48
518,626	0,48
519,076	0,48
519,527	0,48
519,978	0,48
520,429	0,48
520,88	0,48
521,33	0,48
521,781	0,48
522,232	0,49
522,682	0,49
523,133	0,49
523,583	0,49
524,034	0,49
524,484	0,49
524,935	0,49
525,385	0,49
525,836	0,49
526,286	0,49
526,736	0,49
527,187	0,49
527,637	0,49
528,087	0,49
528,538	0,49
528,988	0,49
529,438	0,49
529,888	0,49
530,338	0,49
530,788	0,49
531,238	0,49
531,688	0,49
532,139	0,49
532,589	0,49
533,038	0,49
533,488	0,49
533,938	0,49
534,388	0,49
534,838	0,49
535,288	0,49
535,738	0,49
536,187	0,49
536,637	0,49
537,087	0,48
537,537	0,48
537,986	0,48
538,436	0,48
538,885	0,48
539,335	0,48
539,785	0,47
540,234	0,47
540,684	0,47
541,133	0,47
541,582	0,47
542,032	0,47
542,481	0,46
542,931	0,46
543,38	0,46
543,829	0,46
544,278	0,46
544,728	0,45
545,177	0,45
545,626	0,45
546,075	0,45
546,524	0,45
546,973	0,45
547,422	0,44
547,871	0,44
548,32	0,44
548,769	0,44
549,218	0,44
549,667	0,44
550,116	0,44
550,565	0,44
551,014	0,44
551,463	0,44
551,911	0,44
552,36	0,44
552,809	0,43
553,258	0,43
553,706	0,43
554,155	0,43
554,603	0,43
555,052	0,43
555,501	0,42
555,949	0,42
556,398	0,42
556,846	0,42
557,294	0,42
557,743	0,42
558,191	0,42
558,64	0,41
559,088	0,41
559,536	0,41
559,985	0,41
560,433	0,41
560,881	0,41
561,329	0,4
561,777	0,4
562,225	0,4
562,674	0,4
563,122	0,4
563,57	0,4
564,018	0,4
564,466	0,39
564,914	0,39
565,362	0,39
565,809	0,39
566,257	0,39
566,705	0,39
567,153	0,38
567,601	0,38
568,048	0,38
568,496	0,38
568,944	0,38
569,392	0,38
569,839	0,38
570,287	0,37
570,734	0,37
571,182	0,37
571,63	0,37
572,077	0,37
572,525	0,37
572,972	0,37
573,419	0,37
573,867	0,36
574,314	0,36
574,761	0,36
575,209	0,36
575,656	0,36
576,103	0,36
576,551	0,36
576,998	0,36
577,445	0,36
577,892	0,36
578,339	0,36
578,786	0,35
579,233	0,35
579,68	0,35
580,127	0,35
580,574	0,35
581,021	0,35
581,468	0,35
581,915	0,35
582,362	0,35
582,809	0,34
583,255	0,34
583,702	0,34
584,149	0,34
584,596	0,34
585,042	0,34
585,489	0,34
585,936	0,34
586,382	0,34
586,829	0,34
587,275	0,34
587,722	0,34
588,168	0,34
588,615	0,33
589,061	0,33
589,508	0,33
589,954	0,33
590,4	0,33
590,847	0,33
591,293	0,33
591,739	0,33
592,185	0,33
592,632	0,33
593,078	0,33
593,524	0,33
593,97	0,33
594,416	0,33
594,862	0,33
595,308	0,33
595,754	0,33
596,2	0,32
596,646	0,32
597,092	0,32
597,538	0,32
597,984	0,32
598,43	0,32
598,876	0,32
599,321	0,32
599,767	0,32
600,213	0,32
600,659	0,32
601,104	0,32
601,55	0,32
601,995	0,32
602,441	0,32
602,887	0,32
603,332	0,32
603,778	0,32
604,223	0,31
604,668	0,32
605,114	0,31
605,559	0,31
606,005	0,32
606,45	0,32
606,895	0,31
607,341	0,31
607,786	0,31
608,231	0,31
608,676	0,31
609,121	0,31
609,566	0,3
610,012	0,3
610,457	0,3
610,902	0,3
611,347	0,3
611,792	0,29
612,237	0,29
612,682	0,29
613,127	0,29
613,571	0,29
614,016	0,3
614,461	0,3
614,906	0,3
615,351	0,3
615,795	0,3
616,24	0,3
616,685	0,3
617,129	0,3
617,574	0,3
618,019	0,3
618,463	0,3
618,908	0,3
619,352	0,3
619,797	0,3
620,241	0,3
620,686	0,3
621,13	0,3
621,574	0,3
622,019	0,3
622,463	0,3
622,907	0,3
623,352	0,3
623,796	0,3
624,24	0,3
624,684	0,3
625,128	0,3
625,572	0,3
626,016	0,3
626,461	0,3
626,905	0,3
627,349	0,3
627,793	0,3
628,236	0,3
628,68	0,3
629,124	0,3
629,568	0,3
630,012	0,3
630,456	0,3
630,9	0,3
631,343	0,3
631,787	0,3
632,231	0,3
632,674	0,3
633,118	0,3
633,562	0,3
634,005	0,3
634,449	0,3
634,892	0,3
635,336	0,3
635,779	0,3
636,223	0,3
636,666	0,3
637,109	0,3
637,553	0,29
637,996	0,29
638,439	0,29
638,883	0,29
639,326	0,29
639,769	0,29
640,212	0,29
640,655	0,29
641,099	0,29
641,542	0,29
641,985	0,29
642,428	0,29
642,871	0,29
643,314	0,29
643,757	0,29
644,2	0,29
644,643	0,29
645,085	0,29
645,528	0,29
645,971	0,29
646,414	0,29
646,857	0,29
647,299	0,29
647,742	0,29
648,185	0,29
648,627	0,29
649,07	0,29
649,513	0,29
649,955	0,29
650,398	0,29
650,84	0,29
651,283	0,29
651,725	0,29
652,168	0,29
652,61	0,29
653,052	0,29
653,495	0,28
653,937	0,23
654,379	0,18
654,821	0,19
655,264	0,19
655,706	0,19
656,148	0,19
656,59	0,19
657,032	0,19
657,474	0,19
657,916	0,19
658,358	0,18
658,8	0,22
659,242	0,28
659,684	0,29
660,126	0,29
660,568	0,29
661,01	0,29
661,452	0,29
661,894	0,29
662,335	0,28
662,777	0,28
663,219	0,28
663,661	0,28
664,102	0,28
664,544	0,28
664,985	0,28
665,427	0,28
665,869	0,28
666,31	0,28
666,752	0,28
667,193	0,28
667,634	0,28
668,076	0,28
668,517	0,28
668,959	0,28
669,4	0,28
669,841	0,28
670,282	0,28
670,724	0,28
671,165	0,28
671,606	0,28
672,047	0,28
672,488	0,28
672,929	0,28
673,37	0,28
673,811	0,28
674,252	0,28
674,693	0,28
675,134	0,28
675,575	0,28
676,016	0,28
676,457	0,28
676,898	0,28
677,339	0,28
677,78	0,28
678,22	0,28
678,661	0,28
679,102	0,28
679,542	0,28
679,983	0,28
680,424	0,28
680,864	0,28
681,305	0,28
681,745	0,28
682,186	0,28
682,626	0,28
683,067	0,28
683,507	0,28
683,948	0,28
684,388	0,28
684,828	0,28
685,269	0,28
685,709	0,28
686,149	0,28
686,589	0,28
687,029	0,28
687,47	0,27
687,91	0,27
688,35	0,27
688,79	0,27
689,23	0,27
689,67	0,27
690,11	0,27
690,55	0,27
690,99	0,27
691,43	0,27
691,87	0,27
692,31	0,27
692,749	0,27
693,189	0,27
693,629	0,27
694,069	0,27
694,508	0,27
694,948	0,27
695,388	0,27
695,827	0,27
696,267	0,27
696,706	0,27
697,146	0,27
697,586	0,27
698,025	0,27
698,464	0,27
698,904	0,27
699,343	0,27
699,783	0,27
700,222	0,27
700,661	0,27
701,101	0,27
701,54	0,27
701,979	0,27
702,418	0,27
702,857	0,27
703,297	0,27
703,736	0,27
704,175	0,27
704,614	0,27
705,053	0,27
705,492	0,27
705,931	0,27
706,37	0,27
706,809	0,27
707,248	0,26
707,687	0,26
708,125	0,26
708,564	0,26
709,003	0,26
709,442	0,26
709,88	0,26
710,319	0,26
710,758	0,26
711,196	0,26
711,635	0,26
712,074	0,26
712,512	0,26
712,951	0,26
713,389	0,26
713,828	0,26
714,266	0,26
714,705	0,26
715,143	0,26
715,581	0,26
716,02	0,26
716,458	0,26
716,896	0,26
717,334	0,26
717,773	0,25
718,211	0,25
718,649	0,25
719,087	0,25
719,525	0,26
719,963	0,26
720,401	0,26
720,839	0,26
721,277	0,26
721,715	0,26
722,153	0,26
722,591	0,26
723,029	0,26
723,467	0,26
723,905	0,26
724,342	0,26
724,78	0,26
725,218	0,26
725,656	0,26
726,093	0,26
726,531	0,25
726,969	0,26
727,406	0,26
727,844	0,25
728,281	0,25
728,719	0,25
729,156	0,25
729,594	0,25
730,031	0,25
730,469	0,25
730,906	0,25
731,343	0,25
731,781	0,25
732,218	0,25
732,655	0,25
733,092	0,25
733,53	0,25
733,967	0,25
734,404	0,25
734,841	0,25
735,278	0,25
735,715	0,25
736,152	0,25
736,589	0,25
737,026	0,25
737,463	0,25
737,9	0,25
738,337	0,24
738,774	0,24
739,211	0,24
739,647	0,24
740,084	0,24
740,521	0,24
740,958	0,24
741,394	0,24
741,831	0,24
742,268	0,24
742,704	0,24
743,141	0,24
743,577	0,24
744,014	0,24
744,45	0,24
744,887	0,23
745,323	0,23
745,76	0,23
746,196	0,23
746,632	0,23
747,069	0,23
747,505	0,23
747,941	0,23
748,378	0,23
748,814	0,23
749,25	0,23
749,686	0,23
750,122	0,24
750,558	0,24
750,994	0,24
751,43	0,24
751,866	0,24
752,302	0,24
752,738	0,24
753,174	0,24
753,61	0,24
754,046	0,24
754,482	0,24
754,918	0,25
755,354	0,25
755,789	0,25
756,225	0,25
756,661	0,25
757,096	0,24
757,532	0,24
757,968	0,24
758,403	0,24
758,839	0,24
759,274	0,24
759,71	0,24
760,145	0,23
760,581	0,23
761,016	0,23
761,452	0,22
761,887	0,22
762,322	0,22
762,758	0,21
763,193	0,21
763,628	0,21
764,063	0,2
764,499	0,2
764,934	0,19
765,369	0,19
765,804	0,18
766,239	0,18
766,674	0,17
767,109	0,17
767,544	0,16
767,979	0,15
768,414	0,15
768,849	0,14
769,284	0,14
769,719	0,13
770,154	0,12
770,588	0,12
771,023	0,11
771,458	0,1
771,893	0,09
772,327	0,08
772,762	0,07
773,197	0,07
773,631	0,06
774,066	0,06
774,5	0,05
774,935	0,04
775,369	0,03
775,804	0,02
776,238	0,02
776,673	0,01
777,107	-0
777,541	-0,01
777,976	-0,01
778,41	-0,02
778,844	-0,03
779,279	-0,03
779,713	-0,04
780,147	-0,05
780,581	-0,05
781,015	-0,06
781,449	-0,07
781,883	-0,07
782,317	-0,09
782,751	-0,1
783,185	-0,1
783,619	-0,11
784,053	-0,12
784,487	-0,13
784,921	-0,13
785,355	-0,14
785,789	-0,15
786,223	-0,16
786,656	-0,17
787,09	-0,17
787,524	-0,18
787,957	-0,19
788,391	-0,21
788,825	-0,22
789,258	-0,23
789,692	-0,24
790,125	-0,26
790,559	-0,28
790,992	-0,29
791,426	-0,32
791,859	-0,34
792,293	-0,37
792,726	-0,39
793,159	-0,41
793,593	-0,43
794,026	-0,45
794,459	-0,48
794,892	-0,51
795,326	-0,53
795,759	-0,57
796,192	-0,62
796,625	-0,66
797,058	-0,69
797,491	-0,73
797,924	-0,77
798,357	-0,83
798,79	-0,87
799,223	-0,91
799,656	-0,97
800,089	-1,02
800,522	-1,06
800,955	-1,11
801,387	-1,16
801,82	-1,22
802,253	-1,28
802,686	-1,36
803,118	-1,41
803,551	-1,47
803,984	-1,52
804,416	-1,56
804,849	-1,6
805,281	-1,76
805,714	-2,15
806,146	-2,52
806,579	-2,76
807,011	-2,9
807,444	-2,99
807,876	-3,06
808,308	-3,09
808,741	-3,12
809,173	-3,17
809,605	-3,19
810,037	-3,26
810,47	-3,17
810,902	-2,96
811,334	-2,81
811,766	-2,64
812,198	-2,36
812,63	-1,98
813,062	-1,81
813,494	-1,72
813,926	-1,64
814,358	-1,59
814,79	-1,5
815,222	-1,45
815,654	-1,4
816,086	-1,33
816,518	-1,28
816,949	-1,23
817,381	-1,18
817,813	-1,16
818,245	-1,12
818,676	-1,08
819,108	-1,05
819,54	-1,03
819,971	-1,01
820,403	-0,95
820,834	-0,94
821,266	-0,9
821,697	-0,87
822,129	-0,86
822,56	-0,83
822,991	-0,81
823,423	-0,78
823,854	-0,77
824,286	-0,74
824,717	-0,73
825,148	-0,71
825,579	-0,7
826,01	-0,68
826,442	-0,67
826,873	-0,65
827,304	-0,61
827,735	-0,6
828,166	-0,61
828,597	-0,6
829,028	-0,59
829,459	-0,6
829,89	-0,6
830,321	-0,56
830,752	-0,57
831,183	-0,56
831,613	-0,55
832,044	-0,56
832,475	-0,54
832,906	-0,55
833,336	-0,55
833,767	-0,55
834,198	-0,54
834,628	-0,52
835,059	-0,55
835,49	-0,56
835,92	-0,52
836,351	-0,53
836,781	-0,54
837,212	-0,55
837,642	-0,56
838,072	-0,53
838,503	-0,55
838,933	-0,52
839,364	-0,53
839,794	-0,52
840,224	-0,5
840,654	-0,54
841,085	-0,54
841,515	-0,51
841,945	-0,51
842,375	-0,46
842,805	-0,45
843,235	-0,43
843,665	-0,45
844,095	-0,43
844,525	-0,44
844,955	-0,45
845,385	-0,44
845,815	-0,42
846,245	-0,44
846,675	-0,46
847,105	-0,47
847,534	-0,48
847,964	-0,47
848,394	-0,46
848,824	-0,5
849,253	-0,49
849,683	-0,49
850,112	-0,49
850,542	-0,53
850,972	-0,54
851,401	-0,5
851,831	-0,49
852,26	-0,5
852,69	-0,54
853,119	-0,53
853,548	-0,53
853,978	-0,53
854,407	-0,5
854,836	-0,5
855,266	-0,49
855,695	-0,5
856,124	-0,51
856,553	-0,52
856,983	-0,53
857,412	-0,53
857,841	-0,54
858,27	-0,54
858,699	-0,55
859,128	-0,6
859,557	-0,6
859,986	-0,6
860,415	-0,59
860,844	-0,57
861,273	-0,57
861,702	-0,58
862,13	-0,56
862,559	-0,58
862,988	-0,56
863,417	-0,54
863,845	-0,53
864,274	-0,55
864,703	-0,55
865,131	-0,55
865,56	-0,56
865,989	-0,59
866,417	-0,56
866,846	-0,56
867,274	-0,55
867,703	-0,58
868,131	-0,59
868,559	-0,59
868,988	-0,62
869,416	-0,6
869,844	-0,6
870,273	-0,63
870,701	-0,61
871,129	-0,63
871,557	-0,66
871,986	-0,66
872,414	-0,67
872,842	-0,63
873,27	-0,62
873,698	-0,59
874,126	-0,63
874,554	-0,61
874,982	-0,61
875,41	-0,63
875,838	-0,59
876,266	-0,56
876,694	-0,56
877,122	-0,55
877,549	-0,6
877,977	-0,57
878,405	-0,6
878,833	-0,56
879,26	-0,55
879,688	-0,55
880,116	-0,53
880,543	-0,52
880,971	-0,51
881,399	-0,54
881,826	-0,55
882,254	-0,54
882,681	-0,56
883,109	-0,53
883,536	-0,54
883,963	-0,57
884,391	-0,54
884,818	-0,54
885,245	-0,57
885,673	-0,59
886,1	-0,55
886,527	-0,56
886,954	-0,53
887,381	-0,55
887,809	-0,55
888,236	-0,57
888,663	-0,57
889,09	-0,6
889,517	-0,62
889,944	-0,61
890,371	-0,6
890,798	-0,61
891,225	-0,6
891,652	-0,62
892,078	-0,59
892,505	-0,62
892,932	-0,57
893,359	-0,58
893,786	-0,58
894,212	-0,56
894,639	-0,57
895,066	-0,6
895,492	-0,54
895,919	-0,54
896,346	-0,54
896,772	-0,54
897,199	-0,51
897,625	-0,54
898,052	-0,51
898,478	-0,51
898,904	-0,52
899,331	-0,51
899,757	-0,52
900,183	-0,54
900,61	-0,53
901,036	-0,53
901,462	-0,53
901,888	-0,52
902,315	-0,5
902,741	-0,55
903,167	-0,53
903,593	-0,57
904,019	-0,55
904,445	-0,52
904,871	-0,55
905,297	-0,57
905,723	-0,56
906,149	-0,55
906,575	-0,57
907,001	-0,57
907,427	-0,54
907,852	-0,54
908,278	-0,54
908,704	-0,52
909,13	-0,51
909,555	-0,5
909,981	-0,5
910,407	-0,5
910,832	-0,49
911,258	-0,49
911,684	-0,48
912,109	-0,49
912,535	-0,51
912,96	-0,46
913,386	-0,5
913,811	-0,51
914,236	-0,53
914,662	-0,51
915,087	-0,54
915,512	-0,54
915,938	-0,56
916,363	-0,55
916,788	-0,56
917,213	-0,53
917,639	-0,58
918,064	-0,57
918,489	-0,57
918,914	-0,57
919,339	-0,58
919,764	-0,55
920,189	-0,55
920,614	-0,57
921,039	-0,57
921,464	-0,53
921,889	-0,57
922,314	-0,58
922,738	-0,61
923,163	-0,63
923,588	-0,62
924,013	-0,62
924,437	-0,62
924,862	-0,63
925,287	-0,6
925,711	-0,61
926,136	-0,63
926,561	-0,61
926,985	-0,6
927,41	-0,57
927,834	-0,54
928,259	-0,51
928,683	-0,51
929,108	-0,48
929,532	-0,49
929,956	-0,48
930,381	-0,47
930,805	-0,48
931,229	-0,47
931,653	-0,45
932,078	-0,45
932,502	-0,46
932,926	-0,47
933,35	-0,47
933,774	-0,46
934,198	-0,44
934,622	-0,43
935,046	-0,44
935,47	-0,43
935,894	-0,43
936,318	-0,44
936,742	-0,44
937,166	-0,44
937,59	-0,44
938,014	-0,46
938,437	-0,46
938,861	-0,49
939,285	-0,49
939,709	-0,48
940,132	-0,48
940,556	-0,48
940,98	-0,47
941,403	-0,46
941,827	-0,46
942,25	-0,47
942,674	-0,45
943,097	-0,44
943,521	-0,43
943,944	-0,45
944,368	-0,45
944,791	-0,45
945,214	-0,47
945,638	-0,48
946,061	-0,51
946,484	-0,52
946,907	-0,51
947,331	-0,51
947,754	-0,55
948,177	-0,53
948,6	-0,52
949,023	-0,52
949,446	-0,51
949,869	-0,49
950,292	-0,49
950,715	-0,46
951,138	-0,45
951,561	-0,43
951,984	-0,43
952,407	-0,41
952,83	-0,4
953,252	-0,36
953,675	-0,36
954,098	-0,37
954,521	-0,35
954,943	-0,34
955,366	-0,34
955,789	-0,33
956,211	-0,35
956,634	-0,35
957,056	-0,33
957,479	-0,35
957,902	-0,37
958,324	-0,37
958,746	-0,35
959,169	-0,37
959,591	-0,37
960,014	-0,38
960,436	-0,37
960,858	-0,37
961,281	-0,37
961,703	-0,38
962,125	-0,38
962,547	-0,36
962,969	-0,37
963,391	-0,38
963,814	-0,39
964,236	-0,39
964,658	-0,36
965,08	-0,37
965,502	-0,37
965,924	-0,34
966,346	-0,34
966,768	-0,34
967,189	-0,36
967,611	-0,35
968,033	-0,34
968,455	-0,32
968,877	-0,33
969,298	-0,34
969,72	-0,35
970,142	-0,33
970,563	-0,33
970,985	-0,32
971,407	-0,31
971,828	-0,29
972,25	-0,28
972,671	-0,28
973,093	-0,28
973,514	-0,26
973,936	-0,25
974,357	-0,23
974,778	-0,24
975,2	-0,23
975,621	-0,23
976,042	-0,21
976,464	-0,19
976,885	-0,19
977,306	-0,18
977,727	-0,17
978,148	-0,16
978,57	-0,16
978,991	-0,15
979,412	-0,14
979,833	-0,14
980,254	-0,13
980,675	-0,14
981,096	-0,14
981,517	-0,12
981,937	-0,12
982,358	-0,11
982,779	-0,1
983,2	-0,1
983,621	-0,1
984,042	-0,08
984,462	-0,07
984,883	-0,06
985,304	-0,05
985,724	-0,04
986,145	-0,03
986,565	-0,02
986,986	-0,01
987,407	-0,01
987,827	0
988,248	0,02
988,668	0,02
989,088	0,03
989,509	0,04
989,929	0,04
990,35	0,05
990,77	0,06
991,19	0,07
991,61	0,08
992,031	0,08
992,451	0,09
992,871	0,09
993,291	0,1
993,711	0,11
994,131	0,11
994,551	0,11
994,971	0,12
995,391	0,12
995,811	0,12
996,231	0,13
996,651	0,13
997,071	0,13
997,491	0,14
997,911	0,14
998,331	0,15
998,75	0,15
999,17	0,16
999,59	0,16
1000,009	0,16
1000,429	0,16
1000,849	0,17
1001,268	0,17
1001,688	0,17
1002,107	0,18
1002,527	0,18
1002,946	0,18
1003,366	0,18
1003,785	0,18
1004,205	0,18
1004,624	0,18
1005,044	0,19
1005,463	0,19
1005,882	0,19
1006,301	0,19
1006,721	0,19
1007,14	0,19
1007,559	0,19
1007,978	0,19
1008,397	0,19
1008,816	0,19
1009,235	0,19
1009,655	0,19
1010,074	0,19
1010,492	0,19
1010,911	0,18
1011,33	0,18
1011,749	0,18
1012,168	0,18
1012,587	0,18
1013,006	0,18
1013,425	0,18
1013,843	0,18
1014,262	0,18
1014,681	0,18
1015,099	0,18
1015,518	0,18
1015,937	0,18
1016,355	0,18
1016,774	0,18
1017,192	0,18
1017,611	0,18
1018,029	0,18
1018,448	0,18
1018,866	0,18
1019,285	0,18
1019,703	0,18
1020,121	0,18
1020,54	0,18
1020,958	0,18
1021,376	0,18
1021,794	0,18
1022,213	0,18
1022,631	0,18
1023,049	0,18
1023,467	0,18
1023,885	0,18
1024,303	0,18
1024,721	0,18
1025,139	0,18
1025,557	0,18
1025,975	0,18
1026,393	0,18
1026,811	0,18
1027,229	0,18
1027,647	0,18
1028,065	0,17
1028,482	0,17
1028,9	0,17
1029,318	0,17
1029,735	0,17
1030,153	0,17
1030,571	0,17
1030,988	0,17
1031,406	0,17
1031,823	0,17
1032,241	0,17
1032,659	0,17
1033,076	0,18
1033,493	0,18
1033,911	0,17
1034,328	0,18
1034,746	0,17
1035,163	0,17
1035,58	0,17
1035,997	0,17
1036,415	0,17
1036,832	0,17
1037,249	0,17
1037,666	0,17
1038,083	0,17
1038,501	0,17
1038,918	0,17
1039,335	0,17
1039,752	0,17
1040,169	0,17
1040,586	0,17
1041,003	0,17
1041,419	0,17
1041,836	0,17
1042,253	0,17
1042,67	0,17
1043,087	0,17
1043,504	0,17
1043,92	0,17
1044,337	0,16
1044,754	0,16
1045,17	0,16
1045,587	0,16
1046,004	0,16
1046,42	0,16
1046,837	0,16
1047,253	0,16
1047,67	0,16
1048,086	0,16
1048,503	0,16
1048,919	0,16
1049,335	0,16
1049,752	0,16
1050,168	0,16
1050,584	0,16
1051,001	0,16
1051,417	0,16
1051,833	0,16
1052,249	0,16
1052,665	0,16
1053,081	0,16
1053,497	0,16
1053,914	0,16
1054,33	0,16
1054,746	0,16
1055,162	0,16
1055,578	0,16
1055,993	0,16
1056,409	0,16
1056,825	0,16
1057,241	0,16
1057,657	0,16
1058,073	0,16
1058,488	0,16
1058,904	0,16
1059,32	0,16
1059,736	0,16
1060,151	0,16
1060,567	0,16
1060,982	0,16
1061,398	0,16
1061,813	0,16
1062,229	0,16
1062,644	0,16
1063,06	0,16
1063,475	0,16
1063,891	0,16
1064,306	0,16
1064,721	0,16
1065,137	0,16
1065,552	0,16
1065,967	0,16
1066,382	0,16
1066,798	0,16
1067,213	0,16
1067,628	0,16
1068,043	0,16
1068,458	0,16
1068,873	0,16
1069,288	0,16
1069,703	0,16
1070,118	0,17
1070,533	0,17
1070,948	0,17
1071,363	0,17
1071,778	0,17
1072,193	0,17
1072,607	0,17
1073,022	0,17
1073,437	0,17
1073,852	0,17
1074,266	0,17
1074,681	0,17
1075,096	0,17
1075,51	0,17
1075,925	0,17
1076,339	0,17
1076,754	0,17
1077,168	0,17
1077,583	0,17
1077,997	0,17
1078,412	0,17
1078,826	0,17
1079,24	0,17
1079,655	0,17
1080,069	0,16
1080,483	0,16
1080,897	0,16
1081,312	0,16
1081,726	0,16
1082,14	0,16
1082,554	0,16
1082,968	0,16
1083,382	0,16
1083,796	0,16
1084,21	0,16
1084,624	0,16
1085,038	0,16
1085,452	0,16
1085,866	0,16
1086,28	0,16
1086,694	0,16
1087,108	0,16
1087,521	0,15
1087,935	0,15
1088,349	0,15
1088,763	0,15
1089,176	0,15
1089,59	0,15
1090,004	0,14
1090,417	0,14
1090,831	0,14
1091,244	0,14
1091,658	0,13
1092,071	0,13
1092,485	0,13
1092,898	0,13
1093,312	0,13
1093,725	0,13
1094,138	0,13
1094,552	0,13
1094,965	0,13
1095,378	0,13
1095,791	0,13
1096,205	0,13
1096,618	0,13
1097,031	0,12
1097,444	0,12
1097,857	0,12
1098,27	0,12
1098,683	0,12
1099,096	0,12
1099,509	0,12
1099,922	0,11
1100,335	0,11
1100,748	0,11
1101,161	0,11
1101,574	0,1
1101,986	0,1
1102,399	0,1
1102,812	0,1
1103,225	0,1
1103,637	0,09
1104,05	0,09
1104,463	0,09
1104,875	0,09
1105,288	0,09
1105,7	0,08
1106,113	0,08
1106,525	0,08
1106,938	0,08
1107,35	0,07
1107,763	0,07
1108,175	0,07
1108,588	0,07
1109	0,06
1109,412	0,06
1109,824	0,05
1110,237	0,06
1110,649	0,06
1111,061	0,05
