Data from 18C-808nm-8A_Absorbance__1076__01076.txt Node

Date: Mon Jul 17 17:01:13 CEST 2023
User: Laser008
Spectrometer: MAYP115816
Trigger mode: 0
Integration Time (sec): 2,500000E-1
Scans to average: 10
Electric dark correction enabled: true
Nonlinearity correction enabled: true
Boxcar width: 5
XAxis mode: Wavelengths
Number of Pixels in Spectrum: 2068
>>>>>Begin Spectral Data<<<<<
198,914	-0,72
199,384	-0,5
199,855	-0,38
200,325	-0,31
200,796	-0,27
201,266	-0,22
201,737	-0,2
202,207	-0,19
202,677	-0,19
203,147	-0,18
203,618	-0,14
204,088	-0,13
204,558	-0,12
205,028	-0,11
205,498	-0,12
205,968	-0,12
206,439	-0,14
206,909	-0,14
207,379	-0,14
207,849	-0,14
208,319	-0,14
208,789	-0,15
209,258	-0,14
209,728	-0,16
210,198	-0,16
210,668	-0,16
211,138	-0,15
211,608	-0,15
212,077	-0,15
212,547	-0,15
213,017	-0,15
213,486	-0,16
213,956	-0,16
214,426	-0,17
214,895	-0,16
215,365	-0,17
215,834	-0,17
216,304	-0,18
216,773	-0,17
217,243	-0,19
217,712	-0,2
218,181	-0,19
218,651	-0,19
219,12	-0,19
219,589	-0,2
220,058	-0,18
220,528	-0,19
220,997	-0,2
221,466	-0,22
221,935	-0,23
222,404	-0,23
222,873	-0,21
223,342	-0,22
223,812	-0,22
224,281	-0,22
224,749	-0,22
225,218	-0,24
225,687	-0,24
226,156	-0,23
226,625	-0,21
227,094	-0,21
227,563	-0,21
228,031	-0,22
228,5	-0,21
228,969	-0,22
229,438	-0,21
229,906	-0,2
230,375	-0,19
230,844	-0,19
231,312	-0,18
231,781	-0,19
232,249	-0,17
232,718	-0,17
233,186	-0,15
233,655	-0,17
234,123	-0,16
234,591	-0,17
235,06	-0,17
235,528	-0,18
235,996	-0,17
236,465	-0,18
236,933	-0,18
237,401	-0,19
237,869	-0,18
238,337	-0,18
238,805	-0,17
239,274	-0,16
239,742	-0,16
240,21	-0,15
240,678	-0,15
241,146	-0,14
241,614	-0,14
242,081	-0,13
242,549	-0,13
243,017	-0,13
243,485	-0,13
243,953	-0,12
244,421	-0,12
244,888	-0,12
245,356	-0,13
245,824	-0,12
246,291	-0,12
246,759	-0,13
247,227	-0,13
247,694	-0,12
248,162	-0,11
248,629	-0,11
249,097	-0,11
249,564	-0,12
250,032	-0,13
250,499	-0,13
250,967	-0,13
251,434	-0,14
251,901	-0,13
252,369	-0,13
252,836	-0,15
253,303	-0,16
253,77	-0,17
254,237	-0,16
254,705	-0,16
255,172	-0,15
255,639	-0,15
256,106	-0,16
256,573	-0,16
257,04	-0,17
257,507	-0,18
257,974	-0,18
258,441	-0,17
258,908	-0,17
259,375	-0,19
259,841	-0,2
260,308	-0,2
260,775	-0,2
261,242	-0,19
261,709	-0,19
262,175	-0,21
262,642	-0,2
263,109	-0,19
263,575	-0,2
264,042	-0,19
264,508	-0,18
264,975	-0,2
265,441	-0,2
265,908	-0,21
266,374	-0,21
266,841	-0,21
267,307	-0,21
267,773	-0,2
268,24	-0,2
268,706	-0,21
269,172	-0,22
269,639	-0,24
270,105	-0,21
270,571	-0,22
271,037	-0,22
271,503	-0,23
271,969	-0,23
272,435	-0,23
272,902	-0,24
273,368	-0,25
273,834	-0,24
274,3	-0,25
274,765	-0,24
275,231	-0,25
275,697	-0,25
276,163	-0,24
276,629	-0,24
277,095	-0,24
277,56	-0,23
278,026	-0,24
278,492	-0,23
278,958	-0,23
279,423	-0,23
279,889	-0,23
280,354	-0,24
280,82	-0,23
281,286	-0,24
281,751	-0,25
282,217	-0,24
282,682	-0,25
283,147	-0,24
283,613	-0,25
284,078	-0,25
284,544	-0,26
285,009	-0,26
285,474	-0,26
285,939	-0,27
286,405	-0,25
286,87	-0,25
287,335	-0,24
287,8	-0,23
288,265	-0,22
288,73	-0,24
289,195	-0,25
289,66	-0,25
290,125	-0,23
290,59	-0,23
291,055	-0,22
291,52	-0,23
291,985	-0,24
292,45	-0,26
292,915	-0,26
293,38	-0,26
293,844	-0,24
294,309	-0,22
294,774	-0,21
295,239	-0,23
295,703	-0,22
296,168	-0,22
296,632	-0,21
297,097	-0,2
297,562	-0,18
298,026	-0,19
298,491	-0,19
298,955	-0,18
299,419	-0,18
299,884	-0,19
300,348	-0,18
300,813	-0,18
301,277	-0,19
301,741	-0,19
302,205	-0,19
302,67	-0,18
303,134	-0,18
303,598	-0,18
304,062	-0,18
304,526	-0,17
304,99	-0,18
305,454	-0,17
305,919	-0,18
306,383	-0,17
306,847	-0,17
307,31	-0,18
307,774	-0,19
308,238	-0,18
308,702	-0,18
309,166	-0,19
309,63	-0,2
310,094	-0,17
310,557	-0,17
311,021	-0,17
311,485	-0,17
311,948	-0,16
312,412	-0,15
312,876	-0,14
313,339	-0,15
313,803	-0,15
314,266	-0,15
314,73	-0,15
315,193	-0,16
315,657	-0,15
316,12	-0,15
316,584	-0,13
317,047	-0,14
317,51	-0,13
317,973	-0,13
318,437	-0,11
318,9	-0,1
319,363	-0,09
319,826	-0,08
320,29	-0,08
320,753	-0,08
321,216	-0,07
321,679	-0,07
322,142	-0,07
322,605	-0,08
323,068	-0,08
323,531	-0,09
323,994	-0,09
324,457	-0,1
324,92	-0,09
325,382	-0,09
325,845	-0,09
326,308	-0,09
326,771	-0,09
327,233	-0,08
327,696	-0,07
328,159	-0,07
328,622	-0,06
329,084	-0,06
329,547	-0,04
330,009	-0,04
330,472	-0,03
330,934	-0,02
331,397	-0,02
331,859	-0,01
332,322	-0
332,784	0
333,246	0,01
333,709	0
334,171	0,01
334,633	0,01
335,096	0,01
335,558	0,01
336,02	0,02
336,482	0,02
336,944	0,02
337,406	0,03
337,868	0,03
338,331	0,03
338,793	0,05
339,255	0,05
339,717	0,05
340,178	0,06
340,64	0,06
341,102	0,05
341,564	0,06
342,026	0,07
342,488	0,08
342,949	0,09
343,411	0,11
343,873	0,13
344,335	0,15
344,796	0,17
345,258	0,19
345,719	0,22
346,181	0,25
346,643	0,27
347,104	0,29
347,566	0,31
348,027	0,32
348,488	0,33
348,95	0,34
349,411	0,36
349,873	0,37
350,334	0,38
350,795	0,39
351,256	0,39
351,718	0,4
352,179	0,4
352,64	0,4
353,101	0,4
353,562	0,41
354,023	0,41
354,484	0,41
354,945	0,41
355,406	0,41
355,867	0,41
356,328	0,41
356,789	0,41
357,25	0,41
357,711	0,41
358,172	0,41
358,633	0,42
359,093	0,42
359,554	0,42
360,015	0,42
360,476	0,42
360,936	0,42
361,397	0,42
361,858	0,42
362,318	0,42
362,779	0,42
363,239	0,42
363,7	0,42
364,16	0,42
364,621	0,42
365,081	0,42
365,541	0,42
366,002	0,42
366,462	0,42
366,922	0,42
367,383	0,42
367,843	0,42
368,303	0,42
368,763	0,42
369,223	0,42
369,684	0,42
370,144	0,42
370,604	0,42
371,064	0,42
371,524	0,42
371,984	0,42
372,444	0,42
372,904	0,42
373,363	0,42
373,823	0,42
374,283	0,42
374,743	0,42
375,203	0,42
375,663	0,42
376,122	0,42
376,582	0,42
377,042	0,42
377,501	0,42
377,961	0,42
378,42	0,42
378,88	0,42
379,34	0,42
379,799	0,42
380,259	0,41
380,718	0,41
381,177	0,41
381,637	0,41
382,096	0,41
382,555	0,41
383,015	0,41
383,474	0,41
383,933	0,41
384,393	0,41
384,852	0,41
385,311	0,41
385,77	0,41
386,229	0,41
386,688	0,41
387,147	0,41
387,606	0,41
388,065	0,41
388,524	0,41
388,983	0,41
389,442	0,41
389,901	0,41
390,36	0,41
390,819	0,41
391,277	0,41
391,736	0,41
392,195	0,41
392,654	0,41
393,112	0,41
393,571	0,41
394,03	0,41
394,488	0,41
394,947	0,41
395,405	0,41
395,864	0,41
396,322	0,41
396,781	0,41
397,239	0,41
397,698	0,41
398,156	0,41
398,614	0,41
399,073	0,41
399,531	0,41
399,989	0,4
400,447	0,4
400,905	0,4
401,364	0,4
401,822	0,4
402,28	0,4
402,738	0,4
403,196	0,4
403,654	0,4
404,112	0,4
404,57	0,4
405,028	0,4
405,486	0,4
405,944	0,4
406,402	0,4
406,859	0,4
407,317	0,4
407,775	0,4
408,233	0,4
408,691	0,4
409,148	0,4
409,606	0,4
410,064	0,4
410,521	0,4
410,979	0,4
411,436	0,4
411,894	0,4
412,351	0,4
412,809	0,4
413,266	0,4
413,724	0,4
414,181	0,4
414,638	0,4
415,096	0,4
415,553	0,4
416,01	0,4
416,467	0,4
416,925	0,4
417,382	0,4
417,839	0,4
418,296	0,4
418,753	0,4
419,21	0,4
419,667	0,4
420,124	0,4
420,581	0,39
421,038	0,39
421,495	0,39
421,952	0,39
422,409	0,39
422,866	0,39
423,322	0,39
423,779	0,4
424,236	0,4
424,693	0,4
425,149	0,4
425,606	0,4
426,063	0,4
426,519	0,4
426,976	0,4
427,433	0,39
427,889	0,39
428,346	0,39
428,802	0,39
429,258	0,39
429,715	0,39
430,171	0,39
430,628	0,39
431,084	0,39
431,54	0,39
431,997	0,39
432,453	0,39
432,909	0,39
433,365	0,39
433,821	0,39
434,277	0,39
434,734	0,39
435,19	0,39
435,646	0,39
436,102	0,39
436,558	0,39
437,014	0,39
437,47	0,39
437,925	0,39
438,381	0,39
438,837	0,39
439,293	0,39
439,749	0,39
440,205	0,39
440,66	0,39
441,116	0,39
441,572	0,39
442,027	0,39
442,483	0,39
442,939	0,39
443,394	0,39
443,85	0,39
444,305	0,39
444,761	0,39
445,216	0,39
445,672	0,39
446,127	0,39
446,582	0,39
447,038	0,39
447,493	0,39
447,948	0,39
448,403	0,39
448,859	0,39
449,314	0,39
449,769	0,39
450,224	0,39
450,679	0,39
451,134	0,39
451,589	0,39
452,044	0,39
452,499	0,39
452,954	0,39
453,409	0,39
453,864	0,39
454,319	0,39
454,774	0,39
455,229	0,39
455,684	0,39
456,138	0,39
456,593	0,39
457,048	0,39
457,503	0,39
457,957	0,39
458,412	0,39
458,866	0,39
459,321	0,39
459,776	0,39
460,23	0,39
460,685	0,39
461,139	0,39
461,593	0,39
462,048	0,39
462,502	0,39
462,957	0,39
463,411	0,4
463,865	0,4
464,319	0,4
464,774	0,4
465,228	0,4
465,682	0,4
466,136	0,4
466,59	0,4
467,044	0,4
467,499	0,4
467,953	0,4
468,407	0,4
468,861	0,4
469,315	0,4
469,768	0,4
470,222	0,4
470,676	0,4
471,13	0,4
471,584	0,4
472,038	0,4
472,491	0,4
472,945	0,4
473,399	0,4
473,852	0,4
474,306	0,4
474,76	0,4
475,213	0,4
475,667	0,4
476,12	0,4
476,574	0,41
477,027	0,41
477,481	0,41
477,934	0,41
478,388	0,41
478,841	0,41
479,294	0,41
479,748	0,41
480,201	0,41
480,654	0,41
481,107	0,42
481,561	0,42
482,014	0,42
482,467	0,42
482,92	0,42
483,373	0,42
483,826	0,42
484,279	0,42
484,732	0,42
485,185	0,42
485,638	0,42
486,091	0,43
486,544	0,43
486,997	0,43
487,449	0,43
487,902	0,43
488,355	0,43
488,808	0,43
489,26	0,43
489,713	0,43
490,166	0,44
490,618	0,44
491,071	0,44
491,523	0,44
491,976	0,44
492,429	0,44
492,881	0,45
493,333	0,45
493,786	0,45
494,238	0,45
494,691	0,45
495,143	0,46
495,595	0,46
496,048	0,46
496,5	0,46
496,952	0,46
497,404	0,46
497,856	0,47
498,309	0,47
498,761	0,47
499,213	0,47
499,665	0,47
500,117	0,48
500,569	0,48
501,021	0,48
501,473	0,48
501,925	0,49
502,377	0,49
502,828	0,49
503,28	0,49
503,732	0,5
504,184	0,5
504,636	0,5
505,087	0,5
505,539	0,5
505,991	0,51
506,442	0,51
506,894	0,51
507,345	0,51
507,797	0,52
508,249	0,52
508,7	0,52
509,151	0,52
509,603	0,52
510,054	0,53
510,506	0,53
510,957	0,53
511,408	0,53
511,86	0,54
512,311	0,54
512,762	0,54
513,213	0,54
513,665	0,54
514,116	0,54
514,567	0,55
515,018	0,55
515,469	0,55
515,92	0,55
516,371	0,55
516,822	0,56
517,273	0,56
517,724	0,56
518,175	0,56
518,626	0,56
519,076	0,56
519,527	0,57
519,978	0,57
520,429	0,57
520,88	0,57
521,33	0,57
521,781	0,57
522,232	0,57
522,682	0,58
523,133	0,58
523,583	0,58
524,034	0,58
524,484	0,58
524,935	0,58
525,385	0,58
525,836	0,58
526,286	0,58
526,736	0,58
527,187	0,58
527,637	0,58
528,087	0,58
528,538	0,58
528,988	0,58
529,438	0,58
529,888	0,58
530,338	0,58
530,788	0,58
531,238	0,58
531,688	0,58
532,139	0,58
532,589	0,58
533,038	0,58
533,488	0,58
533,938	0,58
534,388	0,58
534,838	0,58
535,288	0,57
535,738	0,57
536,187	0,57
536,637	0,57
537,087	0,57
537,537	0,57
537,986	0,56
538,436	0,56
538,885	0,56
539,335	0,56
539,785	0,55
540,234	0,55
540,684	0,55
541,133	0,55
541,582	0,55
542,032	0,54
542,481	0,54
542,931	0,54
543,38	0,54
543,829	0,53
544,278	0,53
544,728	0,53
545,177	0,53
545,626	0,52
546,075	0,52
546,524	0,52
546,973	0,52
547,422	0,52
547,871	0,52
548,32	0,51
548,769	0,51
549,218	0,51
549,667	0,51
550,116	0,51
550,565	0,51
551,014	0,51
551,463	0,51
551,911	0,51
552,36	0,5
552,809	0,5
553,258	0,5
553,706	0,5
554,155	0,5
554,603	0,49
555,052	0,49
555,501	0,49
555,949	0,49
556,398	0,49
556,846	0,48
557,294	0,48
557,743	0,48
558,191	0,48
558,64	0,48
559,088	0,47
559,536	0,47
559,985	0,47
560,433	0,47
560,881	0,47
561,329	0,46
561,777	0,46
562,225	0,46
562,674	0,46
563,122	0,46
563,57	0,45
564,018	0,45
564,466	0,45
564,914	0,45
565,362	0,45
565,809	0,44
566,257	0,44
566,705	0,44
567,153	0,44
567,601	0,44
568,048	0,43
568,496	0,43
568,944	0,43
569,392	0,43
569,839	0,43
570,287	0,43
570,734	0,42
571,182	0,42
571,63	0,42
572,077	0,42
572,525	0,42
572,972	0,42
573,419	0,41
573,867	0,41
574,314	0,41
574,761	0,41
575,209	0,41
575,656	0,41
576,103	0,41
576,551	0,4
576,998	0,4
577,445	0,4
577,892	0,4
578,339	0,4
578,786	0,4
579,233	0,4
579,68	0,4
580,127	0,4
580,574	0,39
581,021	0,39
581,468	0,39
581,915	0,39
582,362	0,39
582,809	0,39
583,255	0,39
583,702	0,38
584,149	0,38
584,596	0,38
585,042	0,38
585,489	0,38
585,936	0,38
586,382	0,38
586,829	0,38
587,275	0,38
587,722	0,38
588,168	0,37
588,615	0,37
589,061	0,37
589,508	0,37
589,954	0,37
590,4	0,37
590,847	0,37
591,293	0,37
591,739	0,37
592,185	0,37
592,632	0,37
593,078	0,37
593,524	0,37
593,97	0,37
594,416	0,37
594,862	0,36
595,308	0,36
595,754	0,36
596,2	0,36
596,646	0,36
597,092	0,36
597,538	0,36
597,984	0,36
598,43	0,36
598,876	0,36
599,321	0,36
599,767	0,36
600,213	0,36
600,659	0,35
601,104	0,35
601,55	0,35
601,995	0,35
602,441	0,35
602,887	0,35
603,332	0,35
603,778	0,35
604,223	0,35
604,668	0,35
605,114	0,35
605,559	0,35
606,005	0,35
606,45	0,35
606,895	0,35
607,341	0,35
607,786	0,35
608,231	0,35
608,676	0,34
609,121	0,34
609,566	0,34
610,012	0,33
610,457	0,33
610,902	0,33
611,347	0,33
611,792	0,33
612,237	0,32
612,682	0,32
613,127	0,32
613,571	0,33
614,016	0,33
614,461	0,33
614,906	0,33
615,351	0,33
615,795	0,33
616,24	0,33
616,685	0,33
617,129	0,33
617,574	0,33
618,019	0,33
618,463	0,33
618,908	0,33
619,352	0,33
619,797	0,33
620,241	0,33
620,686	0,33
621,13	0,33
621,574	0,33
622,019	0,33
622,463	0,33
622,907	0,33
623,352	0,33
623,796	0,33
624,24	0,33
624,684	0,33
625,128	0,33
625,572	0,33
626,016	0,33
626,461	0,33
626,905	0,33
627,349	0,33
627,793	0,33
628,236	0,33
628,68	0,33
629,124	0,33
629,568	0,32
630,012	0,32
630,456	0,32
630,9	0,32
631,343	0,32
631,787	0,32
632,231	0,33
632,674	0,32
633,118	0,32
633,562	0,32
634,005	0,32
634,449	0,33
634,892	0,33
635,336	0,33
635,779	0,33
636,223	0,32
636,666	0,32
637,109	0,32
637,553	0,32
637,996	0,32
638,439	0,32
638,883	0,32
639,326	0,32
639,769	0,32
640,212	0,32
640,655	0,32
641,099	0,32
641,542	0,32
641,985	0,32
642,428	0,32
642,871	0,32
643,314	0,32
643,757	0,32
644,2	0,32
644,643	0,32
645,085	0,32
645,528	0,32
645,971	0,32
646,414	0,32
646,857	0,32
647,299	0,32
647,742	0,32
648,185	0,31
648,627	0,31
649,07	0,31
649,513	0,31
649,955	0,31
650,398	0,31
650,84	0,31
651,283	0,31
651,725	0,31
652,168	0,31
652,61	0,31
653,052	0,31
653,495	0,31
653,937	0,24
654,379	0,2
654,821	0,2
655,264	0,2
655,706	0,2
656,148	0,2
656,59	0,2
657,032	0,2
657,474	0,2
657,916	0,2
658,358	0,19
658,8	0,24
659,242	0,31
659,684	0,31
660,126	0,31
660,568	0,31
661,01	0,31
661,452	0,31
661,894	0,31
662,335	0,31
662,777	0,31
663,219	0,31
663,661	0,31
664,102	0,31
664,544	0,31
664,985	0,31
665,427	0,31
665,869	0,31
666,31	0,31
666,752	0,31
667,193	0,31
667,634	0,31
668,076	0,31
668,517	0,31
668,959	0,31
669,4	0,31
669,841	0,31
670,282	0,31
670,724	0,31
671,165	0,31
671,606	0,31
672,047	0,31
672,488	0,31
672,929	0,31
673,37	0,31
673,811	0,31
674,252	0,3
674,693	0,3
675,134	0,3
675,575	0,3
676,016	0,3
676,457	0,3
676,898	0,3
677,339	0,3
677,78	0,3
678,22	0,3
678,661	0,3
679,102	0,3
679,542	0,3
679,983	0,3
680,424	0,31
680,864	0,31
681,305	0,31
681,745	0,31
682,186	0,31
682,626	0,31
683,067	0,31
683,507	0,31
683,948	0,31
684,388	0,3
684,828	0,3
685,269	0,3
685,709	0,3
686,149	0,3
686,589	0,3
687,029	0,3
687,47	0,3
687,91	0,3
688,35	0,3
688,79	0,3
689,23	0,3
689,67	0,29
690,11	0,29
690,55	0,29
690,99	0,29
691,43	0,29
691,87	0,29
692,31	0,29
692,749	0,29
693,189	0,29
693,629	0,29
694,069	0,29
694,508	0,29
694,948	0,29
695,388	0,29
695,827	0,29
696,267	0,29
696,706	0,29
697,146	0,3
697,586	0,3
698,025	0,3
698,464	0,3
698,904	0,3
699,343	0,3
699,783	0,3
700,222	0,3
700,661	0,3
701,101	0,3
701,54	0,3
701,979	0,3
702,418	0,3
702,857	0,3
703,297	0,29
703,736	0,29
704,175	0,29
704,614	0,29
705,053	0,29
705,492	0,29
705,931	0,29
706,37	0,29
706,809	0,29
707,248	0,29
707,687	0,29
708,125	0,29
708,564	0,29
709,003	0,29
709,442	0,29
709,88	0,29
710,319	0,29
710,758	0,29
711,196	0,29
711,635	0,29
712,074	0,29
712,512	0,29
712,951	0,29
713,389	0,28
713,828	0,28
714,266	0,28
714,705	0,28
715,143	0,28
715,581	0,28
716,02	0,28
716,458	0,28
716,896	0,28
717,334	0,28
717,773	0,28
718,211	0,28
718,649	0,28
719,087	0,28
719,525	0,28
719,963	0,28
720,401	0,28
720,839	0,28
721,277	0,28
721,715	0,28
722,153	0,28
722,591	0,28
723,029	0,28
723,467	0,28
723,905	0,28
724,342	0,28
724,78	0,28
725,218	0,28
725,656	0,28
726,093	0,28
726,531	0,28
726,969	0,28
727,406	0,28
727,844	0,28
728,281	0,28
728,719	0,28
729,156	0,28
729,594	0,28
730,031	0,28
730,469	0,28
730,906	0,28
731,343	0,28
731,781	0,28
732,218	0,28
732,655	0,28
733,092	0,28
733,53	0,28
733,967	0,28
734,404	0,28
734,841	0,27
735,278	0,27
735,715	0,27
736,152	0,27
736,589	0,27
737,026	0,27
737,463	0,27
737,9	0,27
738,337	0,27
738,774	0,27
739,211	0,27
739,647	0,27
740,084	0,27
740,521	0,27
740,958	0,27
741,394	0,27
741,831	0,27
742,268	0,27
742,704	0,26
743,141	0,26
743,577	0,26
744,014	0,26
744,45	0,26
744,887	0,26
745,323	0,26
745,76	0,26
746,196	0,25
746,632	0,25
747,069	0,25
747,505	0,25
747,941	0,25
748,378	0,25
748,814	0,26
749,25	0,26
749,686	0,26
750,122	0,26
750,558	0,26
750,994	0,26
751,43	0,26
751,866	0,26
752,302	0,26
752,738	0,26
753,174	0,27
753,61	0,27
754,046	0,27
754,482	0,27
754,918	0,27
755,354	0,27
755,789	0,27
756,225	0,27
756,661	0,27
757,096	0,27
757,532	0,27
757,968	0,26
758,403	0,26
758,839	0,26
759,274	0,26
759,71	0,26
760,145	0,25
760,581	0,25
761,016	0,25
761,452	0,24
761,887	0,24
762,322	0,24
762,758	0,23
763,193	0,23
763,628	0,23
764,063	0,22
764,499	0,22
764,934	0,21
765,369	0,21
765,804	0,2
766,239	0,2
766,674	0,19
767,109	0,18
767,544	0,18
767,979	0,17
768,414	0,17
768,849	0,16
769,284	0,15
769,719	0,14
770,154	0,14
770,588	0,14
771,023	0,13
771,458	0,12
771,893	0,11
772,327	0,1
772,762	0,1
773,197	0,09
773,631	0,08
774,066	0,08
774,5	0,07
774,935	0,06
775,369	0,05
775,804	0,04
776,238	0,03
776,673	0,03
777,107	0,02
777,541	0,01
777,976	-0
778,41	-0,01
778,844	-0,02
779,279	-0,02
779,713	-0,03
780,147	-0,04
780,581	-0,05
781,015	-0,06
781,449	-0,07
781,883	-0,07
782,317	-0,09
782,751	-0,1
783,185	-0,11
783,619	-0,11
784,053	-0,12
784,487	-0,13
784,921	-0,13
785,355	-0,14
785,789	-0,15
786,223	-0,16
786,656	-0,17
787,09	-0,17
787,524	-0,18
787,957	-0,19
788,391	-0,2
788,825	-0,21
789,258	-0,23
789,692	-0,23
790,125	-0,25
790,559	-0,26
790,992	-0,28
791,426	-0,3
791,859	-0,32
792,293	-0,35
792,726	-0,36
793,159	-0,39
793,593	-0,41
794,026	-0,43
794,459	-0,46
794,892	-0,49
795,326	-0,51
795,759	-0,55
796,192	-0,6
796,625	-0,64
797,058	-0,67
797,491	-0,71
797,924	-0,75
798,357	-0,8
798,79	-0,85
799,223	-0,89
799,656	-0,95
800,089	-0,99
800,522	-1,04
800,955	-1,08
801,387	-1,14
801,82	-1,19
802,253	-1,25
802,686	-1,33
803,118	-1,39
803,551	-1,44
803,984	-1,49
804,416	-1,53
804,849	-1,57
805,281	-1,7
805,714	-2,04
806,146	-2,47
806,579	-2,72
807,011	-2,88
807,444	-2,97
807,876	-3,06
808,308	-3,09
808,741	-3,12
809,173	-3,17
809,605	-3,19
810,037	-3,27
810,47	-3,19
810,902	-2,99
811,334	-2,84
811,766	-2,68
812,198	-2,45
812,63	-2,03
813,062	-1,83
813,494	-1,73
813,926	-1,64
814,358	-1,59
814,79	-1,51
815,222	-1,45
815,654	-1,4
816,086	-1,34
816,518	-1,28
816,949	-1,23
817,381	-1,18
817,813	-1,16
818,245	-1,12
818,676	-1,08
819,108	-1,05
819,54	-1,03
819,971	-1,01
820,403	-0,95
820,834	-0,94
821,266	-0,89
821,697	-0,87
822,129	-0,86
822,56	-0,83
822,991	-0,81
823,423	-0,78
823,854	-0,77
824,286	-0,74
824,717	-0,73
825,148	-0,71
825,579	-0,7
826,01	-0,69
826,442	-0,69
826,873	-0,66
827,304	-0,62
827,735	-0,62
828,166	-0,62
828,597	-0,62
829,028	-0,62
829,459	-0,62
829,89	-0,61
830,321	-0,57
830,752	-0,57
831,183	-0,56
831,613	-0,55
832,044	-0,55
832,475	-0,53
832,906	-0,54
833,336	-0,54
833,767	-0,54
834,198	-0,53
834,628	-0,52
835,059	-0,54
835,49	-0,55
835,92	-0,53
836,351	-0,53
836,781	-0,54
837,212	-0,54
837,642	-0,54
838,072	-0,52
838,503	-0,53
838,933	-0,5
839,364	-0,51
839,794	-0,5
840,224	-0,49
840,654	-0,53
841,085	-0,54
841,515	-0,52
841,945	-0,52
842,375	-0,47
842,805	-0,47
843,235	-0,46
843,665	-0,48
844,095	-0,46
844,525	-0,48
844,955	-0,48
845,385	-0,45
845,815	-0,43
846,245	-0,45
846,675	-0,46
847,105	-0,49
847,534	-0,49
847,964	-0,47
848,394	-0,45
848,824	-0,48
849,253	-0,46
849,683	-0,46
850,112	-0,48
850,542	-0,51
850,972	-0,51
851,401	-0,49
851,831	-0,47
852,26	-0,48
852,69	-0,51
853,119	-0,51
853,548	-0,51
853,978	-0,53
854,407	-0,5
854,836	-0,51
855,266	-0,5
855,695	-0,52
856,124	-0,53
856,553	-0,54
856,983	-0,56
857,412	-0,56
857,841	-0,57
858,27	-0,57
858,699	-0,57
859,128	-0,61
859,557	-0,63
859,986	-0,64
860,415	-0,62
860,844	-0,59
861,273	-0,58
861,702	-0,58
862,13	-0,56
862,559	-0,58
862,988	-0,56
863,417	-0,54
863,845	-0,53
864,274	-0,54
864,703	-0,54
865,131	-0,54
865,56	-0,55
865,989	-0,59
866,417	-0,56
866,846	-0,56
867,274	-0,55
867,703	-0,57
868,131	-0,58
868,559	-0,58
868,988	-0,59
869,416	-0,58
869,844	-0,6
870,273	-0,64
870,701	-0,62
871,129	-0,64
871,557	-0,67
871,986	-0,67
872,414	-0,68
872,842	-0,66
873,27	-0,63
873,698	-0,6
874,126	-0,65
874,554	-0,62
874,982	-0,61
875,41	-0,64
875,838	-0,59
876,266	-0,57
876,694	-0,58
877,122	-0,56
877,549	-0,61
877,977	-0,59
878,405	-0,61
878,833	-0,58
879,26	-0,56
879,688	-0,57
880,116	-0,54
880,543	-0,53
880,971	-0,52
881,399	-0,55
881,826	-0,56
882,254	-0,53
882,681	-0,57
883,109	-0,53
883,536	-0,54
883,963	-0,55
884,391	-0,54
884,818	-0,52
885,245	-0,56
885,673	-0,58
886,1	-0,55
886,527	-0,55
886,954	-0,52
887,381	-0,53
887,809	-0,56
888,236	-0,57
888,663	-0,58
889,09	-0,62
889,517	-0,65
889,944	-0,65
890,371	-0,64
890,798	-0,65
891,225	-0,65
891,652	-0,67
892,078	-0,65
892,505	-0,67
892,932	-0,63
893,359	-0,64
893,786	-0,63
894,212	-0,59
894,639	-0,6
895,066	-0,61
895,492	-0,55
895,919	-0,55
896,346	-0,55
896,772	-0,55
897,199	-0,52
897,625	-0,54
898,052	-0,51
898,478	-0,49
898,904	-0,5
899,331	-0,5
899,757	-0,52
900,183	-0,54
900,61	-0,52
901,036	-0,54
901,462	-0,54
901,888	-0,54
902,315	-0,53
902,741	-0,58
903,167	-0,57
903,593	-0,61
904,019	-0,59
904,445	-0,56
904,871	-0,6
905,297	-0,61
905,723	-0,6
906,149	-0,59
906,575	-0,6
907,001	-0,59
907,427	-0,56
907,852	-0,55
908,278	-0,55
908,704	-0,53
909,13	-0,53
909,555	-0,51
909,981	-0,51
910,407	-0,51
910,832	-0,51
911,258	-0,52
911,684	-0,52
912,109	-0,53
912,535	-0,55
912,96	-0,51
913,386	-0,55
913,811	-0,55
914,236	-0,56
914,662	-0,55
915,087	-0,58
915,512	-0,59
915,938	-0,59
916,363	-0,58
916,788	-0,59
917,213	-0,57
917,639	-0,62
918,064	-0,59
918,489	-0,59
918,914	-0,59
919,339	-0,6
919,764	-0,57
920,189	-0,57
920,614	-0,59
921,039	-0,6
921,464	-0,56
921,889	-0,59
922,314	-0,59
922,738	-0,62
923,163	-0,64
923,588	-0,64
924,013	-0,63
924,437	-0,63
924,862	-0,65
925,287	-0,61
925,711	-0,62
926,136	-0,63
926,561	-0,61
926,985	-0,6
927,41	-0,57
927,834	-0,55
928,259	-0,51
928,683	-0,49
929,108	-0,46
929,532	-0,48
929,956	-0,47
930,381	-0,46
930,805	-0,47
931,229	-0,46
931,653	-0,44
932,078	-0,44
932,502	-0,46
932,926	-0,46
933,35	-0,47
933,774	-0,46
934,198	-0,44
934,622	-0,44
935,046	-0,44
935,47	-0,44
935,894	-0,44
936,318	-0,44
936,742	-0,44
937,166	-0,44
937,59	-0,44
938,014	-0,46
938,437	-0,46
938,861	-0,48
939,285	-0,48
939,709	-0,47
940,132	-0,48
940,556	-0,49
940,98	-0,48
941,403	-0,47
941,827	-0,47
942,25	-0,49
942,674	-0,47
943,097	-0,47
943,521	-0,47
943,944	-0,49
944,368	-0,48
944,791	-0,47
945,214	-0,49
945,638	-0,5
946,061	-0,53
946,484	-0,54
946,907	-0,52
947,331	-0,52
947,754	-0,56
948,177	-0,53
948,6	-0,53
949,023	-0,53
949,446	-0,54
949,869	-0,51
950,292	-0,51
950,715	-0,48
951,138	-0,46
951,561	-0,44
951,984	-0,44
952,407	-0,43
952,83	-0,41
953,252	-0,37
953,675	-0,37
954,098	-0,37
954,521	-0,36
954,943	-0,35
955,366	-0,35
955,789	-0,34
956,211	-0,36
956,634	-0,37
957,056	-0,35
957,479	-0,35
957,902	-0,38
958,324	-0,38
958,746	-0,37
959,169	-0,38
959,591	-0,39
960,014	-0,4
960,436	-0,39
960,858	-0,39
961,281	-0,39
961,703	-0,4
962,125	-0,4
962,547	-0,38
962,969	-0,39
963,391	-0,39
963,814	-0,4
964,236	-0,38
964,658	-0,35
965,08	-0,36
965,502	-0,35
965,924	-0,33
966,346	-0,32
966,768	-0,31
967,189	-0,33
967,611	-0,33
968,033	-0,33
968,455	-0,32
968,877	-0,33
969,298	-0,33
969,72	-0,35
970,142	-0,34
970,563	-0,35
970,985	-0,34
971,407	-0,33
971,828	-0,31
972,25	-0,3
972,671	-0,28
973,093	-0,27
973,514	-0,26
973,936	-0,25
974,357	-0,23
974,778	-0,24
975,2	-0,24
975,621	-0,23
976,042	-0,21
976,464	-0,2
976,885	-0,19
977,306	-0,19
977,727	-0,18
978,148	-0,17
978,57	-0,16
978,991	-0,14
979,412	-0,13
979,833	-0,12
980,254	-0,12
980,675	-0,12
981,096	-0,11
981,517	-0,1
981,937	-0,1
982,358	-0,09
982,779	-0,07
983,2	-0,08
983,621	-0,07
984,042	-0,06
984,462	-0,06
984,883	-0,05
985,304	-0,04
985,724	-0,03
986,145	-0,02
986,565	-0,01
986,986	-0,01
987,407	-0
987,827	0,01
988,248	0,03
988,668	0,03
989,088	0,04
989,509	0,05
989,929	0,06
990,35	0,07
990,77	0,08
991,19	0,08
991,61	0,09
992,031	0,1
992,451	0,1
992,871	0,11
993,291	0,11
993,711	0,12
994,131	0,13
994,551	0,13
994,971	0,14
995,391	0,14
995,811	0,14
996,231	0,15
996,651	0,15
997,071	0,15
997,491	0,16
997,911	0,16
998,331	0,17
998,75	0,17
999,17	0,18
999,59	0,18
1000,009	0,19
1000,429	0,19
1000,849	0,19
1001,268	0,2
1001,688	0,2
1002,107	0,2
1002,527	0,21
1002,946	0,21
1003,366	0,21
1003,785	0,21
1004,205	0,21
1004,624	0,21
1005,044	0,21
1005,463	0,22
1005,882	0,22
1006,301	0,22
1006,721	0,22
1007,14	0,22
1007,559	0,22
1007,978	0,22
1008,397	0,22
1008,816	0,22
1009,235	0,22
1009,655	0,22
1010,074	0,22
1010,492	0,21
1010,911	0,21
1011,33	0,21
1011,749	0,21
1012,168	0,21
1012,587	0,21
1013,006	0,21
1013,425	0,21
1013,843	0,21
1014,262	0,21
1014,681	0,2
1015,099	0,2
1015,518	0,2
1015,937	0,2
1016,355	0,2
1016,774	0,21
1017,192	0,21
1017,611	0,21
1018,029	0,21
1018,448	0,21
1018,866	0,21
1019,285	0,21
1019,703	0,21
1020,121	0,21
1020,54	0,21
1020,958	0,21
1021,376	0,21
1021,794	0,21
1022,213	0,21
1022,631	0,21
1023,049	0,21
1023,467	0,21
1023,885	0,21
1024,303	0,21
1024,721	0,21
1025,139	0,21
1025,557	0,21
1025,975	0,21
1026,393	0,21
1026,811	0,21
1027,229	0,21
1027,647	0,21
1028,065	0,21
1028,482	0,21
1028,9	0,2
1029,318	0,2
1029,735	0,2
1030,153	0,2
1030,571	0,2
1030,988	0,2
1031,406	0,2
1031,823	0,2
1032,241	0,2
1032,659	0,2
1033,076	0,2
1033,493	0,2
1033,911	0,2
1034,328	0,2
1034,746	0,2
1035,163	0,2
1035,58	0,2
1035,997	0,2
1036,415	0,2
1036,832	0,2
1037,249	0,2
1037,666	0,2
1038,083	0,2
1038,501	0,2
1038,918	0,2
1039,335	0,2
1039,752	0,2
1040,169	0,2
1040,586	0,2
1041,003	0,2
1041,419	0,2
1041,836	0,2
1042,253	0,2
1042,67	0,19
1043,087	0,19
1043,504	0,19
1043,92	0,19
1044,337	0,19
1044,754	0,19
1045,17	0,19
1045,587	0,19
1046,004	0,19
1046,42	0,19
1046,837	0,19
1047,253	0,19
1047,67	0,19
1048,086	0,19
1048,503	0,19
1048,919	0,19
1049,335	0,19
1049,752	0,19
1050,168	0,19
1050,584	0,19
1051,001	0,19
1051,417	0,19
1051,833	0,19
1052,249	0,19
1052,665	0,19
1053,081	0,19
1053,497	0,19
1053,914	0,19
1054,33	0,19
1054,746	0,19
1055,162	0,19
1055,578	0,19
1055,993	0,19
1056,409	0,2
1056,825	0,2
1057,241	0,2
1057,657	0,2
1058,073	0,2
1058,488	0,2
1058,904	0,2
1059,32	0,2
1059,736	0,2
1060,151	0,2
1060,567	0,2
1060,982	0,2
1061,398	0,2
1061,813	0,2
1062,229	0,19
1062,644	0,19
1063,06	0,19
1063,475	0,19
1063,891	0,19
1064,306	0,19
1064,721	0,19
1065,137	0,19
1065,552	0,19
1065,967	0,19
1066,382	0,19
1066,798	0,19
1067,213	0,19
1067,628	0,19
1068,043	0,19
1068,458	0,19
1068,873	0,19
1069,288	0,19
1069,703	0,19
1070,118	0,19
1070,533	0,2
1070,948	0,2
1071,363	0,2
1071,778	0,2
1072,193	0,2
1072,607	0,2
1073,022	0,2
1073,437	0,2
1073,852	0,2
1074,266	0,2
1074,681	0,2
1075,096	0,2
1075,51	0,2
1075,925	0,2
1076,339	0,2
1076,754	0,2
1077,168	0,2
1077,583	0,2
1077,997	0,2
1078,412	0,2
1078,826	0,2
1079,24	0,2
1079,655	0,2
1080,069	0,2
1080,483	0,19
1080,897	0,19
1081,312	0,19
1081,726	0,19
1082,14	0,19
1082,554	0,19
1082,968	0,19
1083,382	0,19
1083,796	0,19
1084,21	0,19
1084,624	0,19
1085,038	0,19
1085,452	0,19
1085,866	0,18
1086,28	0,18
1086,694	0,18
1087,108	0,18
1087,521	0,18
1087,935	0,18
1088,349	0,18
1088,763	0,18
1089,176	0,17
1089,59	0,17
1090,004	0,17
1090,417	0,17
1090,831	0,17
1091,244	0,17
1091,658	0,16
1092,071	0,16
1092,485	0,16
1092,898	0,16
1093,312	0,16
1093,725	0,16
1094,138	0,16
1094,552	0,15
1094,965	0,15
1095,378	0,15
1095,791	0,15
1096,205	0,15
1096,618	0,15
1097,031	0,15
1097,444	0,15
1097,857	0,15
1098,27	0,15
1098,683	0,15
1099,096	0,14
1099,509	0,14
1099,922	0,14
1100,335	0,14
1100,748	0,13
1101,161	0,13
1101,574	0,13
1101,986	0,13
1102,399	0,13
1102,812	0,12
1103,225	0,12
1103,637	0,12
1104,05	0,11
1104,463	0,12
1104,875	0,11
1105,288	0,11
1105,7	0,11
1106,113	0,1
1106,525	0,1
1106,938	0,1
1107,35	0,09
1107,763	0,09
1108,175	0,09
1108,588	0,09
1109	0,08
1109,412	0,08
1109,824	0,08
1110,237	0,08
1110,649	0,09
1111,061	0,09
