Data from 18C-808nm-8A_Absorbance__1082__01082.txt Node

Date: Mon Jul 17 17:01:28 CEST 2023
User: Laser008
Spectrometer: MAYP115816
Trigger mode: 0
Integration Time (sec): 2,500000E-1
Scans to average: 10
Electric dark correction enabled: true
Nonlinearity correction enabled: true
Boxcar width: 5
XAxis mode: Wavelengths
Number of Pixels in Spectrum: 2068
>>>>>Begin Spectral Data<<<<<
198,914	-0,73
199,384	-0,5
199,855	-0,38
200,325	-0,3
200,796	-0,27
201,266	-0,22
201,737	-0,21
202,207	-0,2
202,677	-0,19
203,147	-0,17
203,618	-0,14
204,088	-0,13
204,558	-0,12
205,028	-0,11
205,498	-0,12
205,968	-0,12
206,439	-0,13
206,909	-0,12
207,379	-0,13
207,849	-0,12
208,319	-0,14
208,789	-0,14
209,258	-0,14
209,728	-0,15
210,198	-0,15
210,668	-0,15
211,138	-0,15
211,608	-0,15
212,077	-0,16
212,547	-0,15
213,017	-0,15
213,486	-0,15
213,956	-0,15
214,426	-0,17
214,895	-0,16
215,365	-0,17
215,834	-0,17
216,304	-0,18
216,773	-0,18
217,243	-0,2
217,712	-0,21
218,181	-0,21
218,651	-0,2
219,12	-0,2
219,589	-0,2
220,058	-0,19
220,528	-0,2
220,997	-0,2
221,466	-0,21
221,935	-0,21
222,404	-0,2
222,873	-0,19
223,342	-0,18
223,812	-0,19
224,281	-0,19
224,749	-0,19
225,218	-0,21
225,687	-0,21
226,156	-0,2
226,625	-0,18
227,094	-0,18
227,563	-0,18
228,031	-0,2
228,5	-0,2
228,969	-0,21
229,438	-0,21
229,906	-0,2
230,375	-0,19
230,844	-0,19
231,312	-0,19
231,781	-0,2
232,249	-0,19
232,718	-0,19
233,186	-0,18
233,655	-0,18
234,123	-0,17
234,591	-0,18
235,06	-0,18
235,528	-0,18
235,996	-0,17
236,465	-0,17
236,933	-0,16
237,401	-0,17
237,869	-0,16
238,337	-0,16
238,805	-0,14
239,274	-0,14
239,742	-0,13
240,21	-0,13
240,678	-0,13
241,146	-0,12
241,614	-0,12
242,081	-0,12
242,549	-0,11
243,017	-0,12
243,485	-0,13
243,953	-0,13
244,421	-0,13
244,888	-0,12
245,356	-0,13
245,824	-0,12
246,291	-0,13
246,759	-0,14
247,227	-0,14
247,694	-0,13
248,162	-0,13
248,629	-0,12
249,097	-0,13
249,564	-0,13
250,032	-0,15
250,499	-0,14
250,967	-0,15
251,434	-0,15
251,901	-0,14
252,369	-0,15
252,836	-0,16
253,303	-0,17
253,77	-0,19
254,237	-0,18
254,705	-0,18
255,172	-0,17
255,639	-0,17
256,106	-0,18
256,573	-0,18
257,04	-0,18
257,507	-0,19
257,974	-0,2
258,441	-0,18
258,908	-0,18
259,375	-0,19
259,841	-0,19
260,308	-0,19
260,775	-0,19
261,242	-0,19
261,709	-0,19
262,175	-0,2
262,642	-0,19
263,109	-0,19
263,575	-0,2
264,042	-0,19
264,508	-0,19
264,975	-0,2
265,441	-0,22
265,908	-0,22
266,374	-0,21
266,841	-0,22
267,307	-0,21
267,773	-0,21
268,24	-0,21
268,706	-0,21
269,172	-0,22
269,639	-0,23
270,105	-0,21
270,571	-0,21
271,037	-0,21
271,503	-0,22
271,969	-0,21
272,435	-0,22
272,902	-0,23
273,368	-0,24
273,834	-0,24
274,3	-0,24
274,765	-0,24
275,231	-0,23
275,697	-0,23
276,163	-0,22
276,629	-0,22
277,095	-0,23
277,56	-0,23
278,026	-0,23
278,492	-0,22
278,958	-0,21
279,423	-0,22
279,889	-0,21
280,354	-0,22
280,82	-0,22
281,286	-0,24
281,751	-0,25
282,217	-0,23
282,682	-0,24
283,147	-0,23
283,613	-0,24
284,078	-0,24
284,544	-0,24
285,009	-0,25
285,474	-0,24
285,939	-0,26
286,405	-0,24
286,87	-0,23
287,335	-0,23
287,8	-0,21
288,265	-0,2
288,73	-0,22
289,195	-0,25
289,66	-0,24
290,125	-0,23
290,59	-0,24
291,055	-0,23
291,52	-0,23
291,985	-0,24
292,45	-0,25
292,915	-0,25
293,38	-0,25
293,844	-0,23
294,309	-0,21
294,774	-0,2
295,239	-0,21
295,703	-0,22
296,168	-0,2
296,632	-0,2
297,097	-0,19
297,562	-0,18
298,026	-0,18
298,491	-0,19
298,955	-0,18
299,419	-0,18
299,884	-0,19
300,348	-0,18
300,813	-0,17
301,277	-0,18
301,741	-0,18
302,205	-0,19
302,67	-0,17
303,134	-0,17
303,598	-0,17
304,062	-0,16
304,526	-0,16
304,99	-0,18
305,454	-0,17
305,919	-0,17
306,383	-0,17
306,847	-0,17
307,31	-0,18
307,774	-0,19
308,238	-0,19
308,702	-0,18
309,166	-0,2
309,63	-0,19
310,094	-0,16
310,557	-0,16
311,021	-0,15
311,485	-0,15
311,948	-0,15
312,412	-0,13
312,876	-0,12
313,339	-0,12
313,803	-0,13
314,266	-0,13
314,73	-0,13
315,193	-0,14
315,657	-0,13
316,12	-0,13
316,584	-0,12
317,047	-0,12
317,51	-0,11
317,973	-0,11
318,437	-0,1
318,9	-0,09
319,363	-0,08
319,826	-0,08
320,29	-0,09
320,753	-0,09
321,216	-0,09
321,679	-0,09
322,142	-0,09
322,605	-0,11
323,068	-0,11
323,531	-0,11
323,994	-0,1
324,457	-0,1
324,92	-0,09
325,382	-0,08
325,845	-0,07
326,308	-0,07
326,771	-0,07
327,233	-0,06
327,696	-0,05
328,159	-0,04
328,622	-0,03
329,084	-0,03
329,547	-0,03
330,009	-0,02
330,472	-0,01
330,934	-0,01
331,397	-0,01
331,859	-0
332,322	-0,01
332,784	-0
333,246	0
333,709	-0
334,171	0
334,633	-0
335,096	-0,01
335,558	-0
336,02	-0,01
336,482	-0,01
336,944	-0
337,406	0,01
337,868	0,02
338,331	0,01
338,793	0,02
339,255	0,03
339,717	0,04
340,178	0,04
340,64	0,05
341,102	0,06
341,564	0,07
342,026	0,08
342,488	0,08
342,949	0,09
343,411	0,12
343,873	0,14
344,335	0,16
344,796	0,19
345,258	0,21
345,719	0,24
346,181	0,27
346,643	0,29
347,104	0,31
347,566	0,32
348,027	0,34
348,488	0,35
348,95	0,36
349,411	0,37
349,873	0,38
350,334	0,39
350,795	0,39
351,256	0,4
351,718	0,4
352,179	0,41
352,64	0,41
353,101	0,41
353,562	0,41
354,023	0,41
354,484	0,41
354,945	0,41
355,406	0,41
355,867	0,42
356,328	0,42
356,789	0,42
357,25	0,42
357,711	0,42
358,172	0,42
358,633	0,42
359,093	0,42
359,554	0,42
360,015	0,42
360,476	0,42
360,936	0,43
361,397	0,43
361,858	0,43
362,318	0,43
362,779	0,43
363,239	0,43
363,7	0,43
364,16	0,43
364,621	0,43
365,081	0,43
365,541	0,43
366,002	0,43
366,462	0,43
366,922	0,43
367,383	0,43
367,843	0,43
368,303	0,43
368,763	0,43
369,223	0,43
369,684	0,43
370,144	0,43
370,604	0,43
371,064	0,43
371,524	0,43
371,984	0,43
372,444	0,43
372,904	0,43
373,363	0,42
373,823	0,42
374,283	0,42
374,743	0,42
375,203	0,42
375,663	0,42
376,122	0,42
376,582	0,42
377,042	0,42
377,501	0,42
377,961	0,42
378,42	0,42
378,88	0,42
379,34	0,42
379,799	0,42
380,259	0,42
380,718	0,42
381,177	0,42
381,637	0,42
382,096	0,42
382,555	0,42
383,015	0,42
383,474	0,42
383,933	0,42
384,393	0,42
384,852	0,42
385,311	0,42
385,77	0,42
386,229	0,42
386,688	0,42
387,147	0,42
387,606	0,42
388,065	0,42
388,524	0,42
388,983	0,42
389,442	0,41
389,901	0,41
390,36	0,41
390,819	0,41
391,277	0,41
391,736	0,41
392,195	0,41
392,654	0,41
393,112	0,41
393,571	0,41
394,03	0,41
394,488	0,41
394,947	0,41
395,405	0,41
395,864	0,41
396,322	0,41
396,781	0,41
397,239	0,41
397,698	0,41
398,156	0,41
398,614	0,41
399,073	0,41
399,531	0,41
399,989	0,41
400,447	0,41
400,905	0,41
401,364	0,41
401,822	0,41
402,28	0,41
402,738	0,41
403,196	0,41
403,654	0,41
404,112	0,41
404,57	0,41
405,028	0,41
405,486	0,41
405,944	0,41
406,402	0,41
406,859	0,41
407,317	0,41
407,775	0,41
408,233	0,41
408,691	0,41
409,148	0,41
409,606	0,41
410,064	0,41
410,521	0,41
410,979	0,41
411,436	0,4
411,894	0,4
412,351	0,4
412,809	0,4
413,266	0,4
413,724	0,4
414,181	0,4
414,638	0,4
415,096	0,4
415,553	0,4
416,01	0,4
416,467	0,4
416,925	0,4
417,382	0,4
417,839	0,4
418,296	0,4
418,753	0,4
419,21	0,4
419,667	0,4
420,124	0,4
420,581	0,4
421,038	0,4
421,495	0,4
421,952	0,4
422,409	0,4
422,866	0,4
423,322	0,4
423,779	0,4
424,236	0,4
424,693	0,4
425,149	0,4
425,606	0,4
426,063	0,4
426,519	0,4
426,976	0,4
427,433	0,4
427,889	0,4
428,346	0,4
428,802	0,4
429,258	0,4
429,715	0,4
430,171	0,4
430,628	0,4
431,084	0,4
431,54	0,4
431,997	0,4
432,453	0,4
432,909	0,4
433,365	0,4
433,821	0,4
434,277	0,4
434,734	0,4
435,19	0,4
435,646	0,4
436,102	0,4
436,558	0,4
437,014	0,4
437,47	0,4
437,925	0,4
438,381	0,4
438,837	0,4
439,293	0,4
439,749	0,4
440,205	0,4
440,66	0,4
441,116	0,4
441,572	0,4
442,027	0,4
442,483	0,4
442,939	0,4
443,394	0,4
443,85	0,4
444,305	0,4
444,761	0,4
445,216	0,4
445,672	0,4
446,127	0,4
446,582	0,4
447,038	0,4
447,493	0,4
447,948	0,4
448,403	0,4
448,859	0,4
449,314	0,4
449,769	0,4
450,224	0,4
450,679	0,4
451,134	0,4
451,589	0,4
452,044	0,4
452,499	0,4
452,954	0,4
453,409	0,4
453,864	0,4
454,319	0,4
454,774	0,4
455,229	0,4
455,684	0,4
456,138	0,4
456,593	0,4
457,048	0,4
457,503	0,4
457,957	0,4
458,412	0,4
458,866	0,4
459,321	0,4
459,776	0,4
460,23	0,4
460,685	0,4
461,139	0,4
461,593	0,4
462,048	0,4
462,502	0,4
462,957	0,4
463,411	0,4
463,865	0,4
464,319	0,4
464,774	0,4
465,228	0,4
465,682	0,4
466,136	0,4
466,59	0,4
467,044	0,41
467,499	0,41
467,953	0,41
468,407	0,41
468,861	0,41
469,315	0,41
469,768	0,41
470,222	0,41
470,676	0,41
471,13	0,41
471,584	0,41
472,038	0,41
472,491	0,41
472,945	0,41
473,399	0,41
473,852	0,41
474,306	0,41
474,76	0,41
475,213	0,41
475,667	0,41
476,12	0,41
476,574	0,41
477,027	0,41
477,481	0,41
477,934	0,42
478,388	0,42
478,841	0,42
479,294	0,42
479,748	0,42
480,201	0,42
480,654	0,42
481,107	0,42
481,561	0,42
482,014	0,42
482,467	0,42
482,92	0,43
483,373	0,43
483,826	0,43
484,279	0,43
484,732	0,43
485,185	0,43
485,638	0,43
486,091	0,43
486,544	0,43
486,997	0,43
487,449	0,43
487,902	0,44
488,355	0,44
488,808	0,44
489,26	0,44
489,713	0,44
490,166	0,44
490,618	0,44
491,071	0,45
491,523	0,45
491,976	0,45
492,429	0,45
492,881	0,45
493,333	0,45
493,786	0,46
494,238	0,46
494,691	0,46
495,143	0,46
495,595	0,46
496,048	0,47
496,5	0,47
496,952	0,47
497,404	0,47
497,856	0,47
498,309	0,47
498,761	0,48
499,213	0,48
499,665	0,48
500,117	0,48
500,569	0,49
501,021	0,49
501,473	0,49
501,925	0,49
502,377	0,5
502,828	0,5
503,28	0,5
503,732	0,5
504,184	0,5
504,636	0,51
505,087	0,51
505,539	0,51
505,991	0,51
506,442	0,52
506,894	0,52
507,345	0,52
507,797	0,52
508,249	0,52
508,7	0,53
509,151	0,53
509,603	0,53
510,054	0,53
510,506	0,54
510,957	0,54
511,408	0,54
511,86	0,54
512,311	0,54
512,762	0,55
513,213	0,55
513,665	0,55
514,116	0,55
514,567	0,55
515,018	0,56
515,469	0,56
515,92	0,56
516,371	0,56
516,822	0,56
517,273	0,56
517,724	0,57
518,175	0,57
518,626	0,57
519,076	0,57
519,527	0,57
519,978	0,57
520,429	0,58
520,88	0,58
521,33	0,58
521,781	0,58
522,232	0,58
522,682	0,58
523,133	0,58
523,583	0,58
524,034	0,59
524,484	0,59
524,935	0,59
525,385	0,59
525,836	0,59
526,286	0,59
526,736	0,59
527,187	0,59
527,637	0,59
528,087	0,59
528,538	0,59
528,988	0,59
529,438	0,59
529,888	0,59
530,338	0,59
530,788	0,59
531,238	0,59
531,688	0,59
532,139	0,59
532,589	0,59
533,038	0,59
533,488	0,59
533,938	0,58
534,388	0,58
534,838	0,58
535,288	0,58
535,738	0,58
536,187	0,58
536,637	0,58
537,087	0,57
537,537	0,57
537,986	0,57
538,436	0,57
538,885	0,57
539,335	0,56
539,785	0,56
540,234	0,56
540,684	0,56
541,133	0,55
541,582	0,55
542,032	0,55
542,481	0,55
542,931	0,55
543,38	0,54
543,829	0,54
544,278	0,54
544,728	0,54
545,177	0,53
545,626	0,53
546,075	0,53
546,524	0,53
546,973	0,53
547,422	0,52
547,871	0,52
548,32	0,52
548,769	0,52
549,218	0,52
549,667	0,52
550,116	0,52
550,565	0,52
551,014	0,52
551,463	0,51
551,911	0,51
552,36	0,51
552,809	0,51
553,258	0,51
553,706	0,5
554,155	0,5
554,603	0,5
555,052	0,5
555,501	0,5
555,949	0,49
556,398	0,49
556,846	0,49
557,294	0,49
557,743	0,49
558,191	0,48
558,64	0,48
559,088	0,48
559,536	0,48
559,985	0,48
560,433	0,47
560,881	0,47
561,329	0,47
561,777	0,47
562,225	0,47
562,674	0,46
563,122	0,46
563,57	0,46
564,018	0,46
564,466	0,46
564,914	0,45
565,362	0,45
565,809	0,45
566,257	0,45
566,705	0,45
567,153	0,44
567,601	0,44
568,048	0,44
568,496	0,44
568,944	0,44
569,392	0,44
569,839	0,43
570,287	0,43
570,734	0,43
571,182	0,43
571,63	0,43
572,077	0,43
572,525	0,42
572,972	0,42
573,419	0,42
573,867	0,42
574,314	0,42
574,761	0,42
575,209	0,41
575,656	0,41
576,103	0,41
576,551	0,41
576,998	0,41
577,445	0,41
577,892	0,41
578,339	0,41
578,786	0,41
579,233	0,4
579,68	0,4
580,127	0,4
580,574	0,4
581,021	0,4
581,468	0,4
581,915	0,4
582,362	0,39
582,809	0,39
583,255	0,39
583,702	0,39
584,149	0,39
584,596	0,39
585,042	0,39
585,489	0,38
585,936	0,38
586,382	0,38
586,829	0,38
587,275	0,38
587,722	0,38
588,168	0,38
588,615	0,38
589,061	0,38
589,508	0,38
589,954	0,38
590,4	0,38
590,847	0,38
591,293	0,37
591,739	0,37
592,185	0,37
592,632	0,37
593,078	0,37
593,524	0,37
593,97	0,37
594,416	0,37
594,862	0,37
595,308	0,37
595,754	0,37
596,2	0,37
596,646	0,37
597,092	0,37
597,538	0,36
597,984	0,36
598,43	0,36
598,876	0,36
599,321	0,36
599,767	0,36
600,213	0,36
600,659	0,36
601,104	0,36
601,55	0,36
601,995	0,36
602,441	0,36
602,887	0,36
603,332	0,36
603,778	0,36
604,223	0,36
604,668	0,36
605,114	0,36
605,559	0,35
606,005	0,36
606,45	0,36
606,895	0,35
607,341	0,35
607,786	0,35
608,231	0,35
608,676	0,35
609,121	0,35
609,566	0,34
610,012	0,34
610,457	0,34
610,902	0,33
611,347	0,33
611,792	0,33
612,237	0,33
612,682	0,33
613,127	0,33
613,571	0,33
614,016	0,33
614,461	0,34
614,906	0,34
615,351	0,34
615,795	0,34
616,24	0,34
616,685	0,34
617,129	0,34
617,574	0,34
618,019	0,34
618,463	0,34
618,908	0,34
619,352	0,34
619,797	0,34
620,241	0,34
620,686	0,34
621,13	0,34
621,574	0,34
622,019	0,34
622,463	0,34
622,907	0,34
623,352	0,34
623,796	0,33
624,24	0,33
624,684	0,33
625,128	0,33
625,572	0,33
626,016	0,33
626,461	0,33
626,905	0,33
627,349	0,33
627,793	0,33
628,236	0,33
628,68	0,33
629,124	0,33
629,568	0,33
630,012	0,33
630,456	0,33
630,9	0,33
631,343	0,33
631,787	0,33
632,231	0,33
632,674	0,33
633,118	0,33
633,562	0,33
634,005	0,33
634,449	0,33
634,892	0,33
635,336	0,33
635,779	0,33
636,223	0,33
636,666	0,33
637,109	0,33
637,553	0,33
637,996	0,33
638,439	0,33
638,883	0,33
639,326	0,33
639,769	0,33
640,212	0,32
640,655	0,32
641,099	0,32
641,542	0,32
641,985	0,32
642,428	0,32
642,871	0,32
643,314	0,32
643,757	0,32
644,2	0,32
644,643	0,32
645,085	0,32
645,528	0,32
645,971	0,32
646,414	0,32
646,857	0,32
647,299	0,32
647,742	0,32
648,185	0,32
648,627	0,32
649,07	0,32
649,513	0,32
649,955	0,32
650,398	0,32
650,84	0,32
651,283	0,32
651,725	0,32
652,168	0,32
652,61	0,32
653,052	0,32
653,495	0,32
653,937	0,25
654,379	0,2
654,821	0,2
655,264	0,2
655,706	0,2
656,148	0,2
656,59	0,2
657,032	0,2
657,474	0,2
657,916	0,2
658,358	0,2
658,8	0,25
659,242	0,32
659,684	0,32
660,126	0,32
660,568	0,32
661,01	0,32
661,452	0,32
661,894	0,32
662,335	0,32
662,777	0,32
663,219	0,32
663,661	0,32
664,102	0,32
664,544	0,32
664,985	0,32
665,427	0,32
665,869	0,32
666,31	0,32
666,752	0,32
667,193	0,32
667,634	0,32
668,076	0,32
668,517	0,32
668,959	0,31
669,4	0,31
669,841	0,31
670,282	0,31
670,724	0,31
671,165	0,31
671,606	0,31
672,047	0,31
672,488	0,31
672,929	0,31
673,37	0,31
673,811	0,31
674,252	0,31
674,693	0,31
675,134	0,31
675,575	0,31
676,016	0,31
676,457	0,31
676,898	0,31
677,339	0,31
677,78	0,31
678,22	0,31
678,661	0,31
679,102	0,31
679,542	0,31
679,983	0,31
680,424	0,31
680,864	0,31
681,305	0,31
681,745	0,31
682,186	0,31
682,626	0,31
683,067	0,31
683,507	0,31
683,948	0,31
684,388	0,31
684,828	0,31
685,269	0,31
685,709	0,31
686,149	0,31
686,589	0,31
687,029	0,3
687,47	0,3
687,91	0,3
688,35	0,3
688,79	0,3
689,23	0,3
689,67	0,3
690,11	0,3
690,55	0,3
690,99	0,3
691,43	0,3
691,87	0,3
692,31	0,3
692,749	0,3
693,189	0,3
693,629	0,3
694,069	0,3
694,508	0,3
694,948	0,3
695,388	0,3
695,827	0,3
696,267	0,3
696,706	0,3
697,146	0,3
697,586	0,3
698,025	0,3
698,464	0,3
698,904	0,3
699,343	0,3
699,783	0,3
700,222	0,3
700,661	0,3
701,101	0,3
701,54	0,3
701,979	0,3
702,418	0,3
702,857	0,3
703,297	0,3
703,736	0,3
704,175	0,3
704,614	0,3
705,053	0,3
705,492	0,3
705,931	0,3
706,37	0,3
706,809	0,29
707,248	0,29
707,687	0,29
708,125	0,29
708,564	0,29
709,003	0,29
709,442	0,29
709,88	0,29
710,319	0,29
710,758	0,29
711,196	0,29
711,635	0,29
712,074	0,29
712,512	0,29
712,951	0,29
713,389	0,29
713,828	0,29
714,266	0,29
714,705	0,29
715,143	0,29
715,581	0,29
716,02	0,29
716,458	0,29
716,896	0,29
717,334	0,29
717,773	0,29
718,211	0,28
718,649	0,28
719,087	0,28
719,525	0,29
719,963	0,29
720,401	0,29
720,839	0,29
721,277	0,29
721,715	0,29
722,153	0,29
722,591	0,29
723,029	0,29
723,467	0,29
723,905	0,29
724,342	0,29
724,78	0,29
725,218	0,29
725,656	0,29
726,093	0,29
726,531	0,29
726,969	0,29
727,406	0,29
727,844	0,29
728,281	0,29
728,719	0,28
729,156	0,28
729,594	0,28
730,031	0,28
730,469	0,28
730,906	0,28
731,343	0,28
731,781	0,28
732,218	0,28
732,655	0,28
733,092	0,28
733,53	0,28
733,967	0,28
734,404	0,28
734,841	0,28
735,278	0,28
735,715	0,28
736,152	0,28
736,589	0,28
737,026	0,28
737,463	0,28
737,9	0,28
738,337	0,28
738,774	0,27
739,211	0,27
739,647	0,27
740,084	0,27
740,521	0,27
740,958	0,27
741,394	0,27
741,831	0,27
742,268	0,27
742,704	0,27
743,141	0,27
743,577	0,27
744,014	0,27
744,45	0,26
744,887	0,26
745,323	0,26
745,76	0,26
746,196	0,26
746,632	0,26
747,069	0,26
747,505	0,26
747,941	0,26
748,378	0,26
748,814	0,26
749,25	0,26
749,686	0,26
750,122	0,26
750,558	0,27
750,994	0,27
751,43	0,27
751,866	0,27
752,302	0,27
752,738	0,27
753,174	0,27
753,61	0,27
754,046	0,27
754,482	0,27
754,918	0,27
755,354	0,27
755,789	0,27
756,225	0,27
756,661	0,27
757,096	0,27
757,532	0,27
757,968	0,27
758,403	0,27
758,839	0,27
759,274	0,26
759,71	0,26
760,145	0,26
760,581	0,25
761,016	0,25
761,452	0,25
761,887	0,24
762,322	0,24
762,758	0,24
763,193	0,23
763,628	0,23
764,063	0,22
764,499	0,22
764,934	0,21
765,369	0,21
765,804	0,2
766,239	0,2
766,674	0,19
767,109	0,19
767,544	0,19
767,979	0,18
768,414	0,17
768,849	0,16
769,284	0,16
769,719	0,15
770,154	0,15
770,588	0,14
771,023	0,13
771,458	0,12
771,893	0,12
772,327	0,11
772,762	0,1
773,197	0,09
773,631	0,08
774,066	0,07
774,5	0,07
774,935	0,06
775,369	0,05
775,804	0,04
776,238	0,03
776,673	0,02
777,107	0,01
777,541	0
777,976	-0
778,41	-0,01
778,844	-0,01
779,279	-0,01
779,713	-0,02
780,147	-0,03
780,581	-0,03
781,015	-0,04
781,449	-0,05
781,883	-0,05
782,317	-0,06
782,751	-0,07
783,185	-0,08
783,619	-0,09
784,053	-0,1
784,487	-0,1
784,921	-0,11
785,355	-0,12
785,789	-0,13
786,223	-0,14
786,656	-0,15
787,09	-0,16
787,524	-0,17
787,957	-0,18
788,391	-0,2
788,825	-0,22
789,258	-0,23
789,692	-0,24
790,125	-0,25
790,559	-0,27
790,992	-0,29
791,426	-0,32
791,859	-0,33
792,293	-0,36
792,726	-0,38
793,159	-0,4
793,593	-0,41
794,026	-0,43
794,459	-0,46
794,892	-0,49
795,326	-0,51
795,759	-0,55
796,192	-0,59
796,625	-0,64
797,058	-0,66
797,491	-0,71
797,924	-0,75
798,357	-0,8
798,79	-0,85
799,223	-0,89
799,656	-0,94
800,089	-0,99
800,522	-1,04
800,955	-1,08
801,387	-1,14
801,82	-1,19
802,253	-1,26
802,686	-1,33
803,118	-1,39
803,551	-1,44
803,984	-1,49
804,416	-1,53
804,849	-1,57
805,281	-1,68
805,714	-2,04
806,146	-2,48
806,579	-2,73
807,011	-2,88
807,444	-2,97
807,876	-3,06
808,308	-3,09
808,741	-3,12
809,173	-3,17
809,605	-3,19
810,037	-3,27
810,47	-3,18
810,902	-2,98
811,334	-2,83
811,766	-2,68
812,198	-2,43
812,63	-2,02
813,062	-1,82
813,494	-1,73
813,926	-1,64
814,358	-1,59
814,79	-1,5
815,222	-1,44
815,654	-1,39
816,086	-1,33
816,518	-1,27
816,949	-1,22
817,381	-1,18
817,813	-1,16
818,245	-1,12
818,676	-1,08
819,108	-1,04
819,54	-1,03
819,971	-1
820,403	-0,95
820,834	-0,94
821,266	-0,89
821,697	-0,87
822,129	-0,85
822,56	-0,83
822,991	-0,8
823,423	-0,77
823,854	-0,77
824,286	-0,73
824,717	-0,72
825,148	-0,7
825,579	-0,7
826,01	-0,69
826,442	-0,68
826,873	-0,66
827,304	-0,62
827,735	-0,61
828,166	-0,61
828,597	-0,61
829,028	-0,61
829,459	-0,61
829,89	-0,61
830,321	-0,56
830,752	-0,57
831,183	-0,56
831,613	-0,55
832,044	-0,55
832,475	-0,54
832,906	-0,55
833,336	-0,55
833,767	-0,55
834,198	-0,54
834,628	-0,53
835,059	-0,56
835,49	-0,56
835,92	-0,54
836,351	-0,54
836,781	-0,54
837,212	-0,56
837,642	-0,56
838,072	-0,54
838,503	-0,55
838,933	-0,53
839,364	-0,54
839,794	-0,51
840,224	-0,51
840,654	-0,56
841,085	-0,56
841,515	-0,54
841,945	-0,53
842,375	-0,48
842,805	-0,47
843,235	-0,46
843,665	-0,48
844,095	-0,46
844,525	-0,48
844,955	-0,48
845,385	-0,45
845,815	-0,44
846,245	-0,45
846,675	-0,46
847,105	-0,48
847,534	-0,48
847,964	-0,47
848,394	-0,46
848,824	-0,49
849,253	-0,48
849,683	-0,49
850,112	-0,49
850,542	-0,52
850,972	-0,53
851,401	-0,5
851,831	-0,48
852,26	-0,49
852,69	-0,52
853,119	-0,51
853,548	-0,51
853,978	-0,52
854,407	-0,49
854,836	-0,49
855,266	-0,49
855,695	-0,5
856,124	-0,52
856,553	-0,53
856,983	-0,55
857,412	-0,55
857,841	-0,56
858,27	-0,56
858,699	-0,56
859,128	-0,6
859,557	-0,61
859,986	-0,61
860,415	-0,58
860,844	-0,56
861,273	-0,56
861,702	-0,56
862,13	-0,54
862,559	-0,56
862,988	-0,54
863,417	-0,53
863,845	-0,52
864,274	-0,53
864,703	-0,54
865,131	-0,54
865,56	-0,56
865,989	-0,58
866,417	-0,56
866,846	-0,57
867,274	-0,55
867,703	-0,58
868,131	-0,59
868,559	-0,59
868,988	-0,61
869,416	-0,59
869,844	-0,61
870,273	-0,64
870,701	-0,6
871,129	-0,64
871,557	-0,66
871,986	-0,66
872,414	-0,67
872,842	-0,65
873,27	-0,63
873,698	-0,6
874,126	-0,63
874,554	-0,61
874,982	-0,61
875,41	-0,64
875,838	-0,59
876,266	-0,57
876,694	-0,57
877,122	-0,56
877,549	-0,61
877,977	-0,59
878,405	-0,6
878,833	-0,57
879,26	-0,55
879,688	-0,55
880,116	-0,53
880,543	-0,52
880,971	-0,52
881,399	-0,54
881,826	-0,55
882,254	-0,53
882,681	-0,56
883,109	-0,53
883,536	-0,55
883,963	-0,56
884,391	-0,54
884,818	-0,53
885,245	-0,57
885,673	-0,59
886,1	-0,56
886,527	-0,56
886,954	-0,53
887,381	-0,55
887,809	-0,56
888,236	-0,57
888,663	-0,57
889,09	-0,61
889,517	-0,63
889,944	-0,63
890,371	-0,61
890,798	-0,61
891,225	-0,61
891,652	-0,63
892,078	-0,61
892,505	-0,64
892,932	-0,59
893,359	-0,61
893,786	-0,61
894,212	-0,58
894,639	-0,59
895,066	-0,61
895,492	-0,55
895,919	-0,56
896,346	-0,56
896,772	-0,56
897,199	-0,53
897,625	-0,57
898,052	-0,53
898,478	-0,51
898,904	-0,53
899,331	-0,52
899,757	-0,54
900,183	-0,56
900,61	-0,54
901,036	-0,53
901,462	-0,54
901,888	-0,53
902,315	-0,51
902,741	-0,57
903,167	-0,56
903,593	-0,58
904,019	-0,56
904,445	-0,53
904,871	-0,55
905,297	-0,58
905,723	-0,58
906,149	-0,57
906,575	-0,57
907,001	-0,57
907,427	-0,54
907,852	-0,53
908,278	-0,53
908,704	-0,51
909,13	-0,51
909,555	-0,51
909,981	-0,5
910,407	-0,5
910,832	-0,49
911,258	-0,49
911,684	-0,5
912,109	-0,5
912,535	-0,53
912,96	-0,49
913,386	-0,53
913,811	-0,53
914,236	-0,54
914,662	-0,53
915,087	-0,57
915,512	-0,57
915,938	-0,6
916,363	-0,59
916,788	-0,6
917,213	-0,57
917,639	-0,62
918,064	-0,59
918,489	-0,59
918,914	-0,6
919,339	-0,61
919,764	-0,58
920,189	-0,57
920,614	-0,59
921,039	-0,6
921,464	-0,56
921,889	-0,59
922,314	-0,6
922,738	-0,63
923,163	-0,64
923,588	-0,64
924,013	-0,64
924,437	-0,63
924,862	-0,65
925,287	-0,6
925,711	-0,59
926,136	-0,6
926,561	-0,58
926,985	-0,58
927,41	-0,55
927,834	-0,52
928,259	-0,5
928,683	-0,47
929,108	-0,45
929,532	-0,46
929,956	-0,46
930,381	-0,46
930,805	-0,46
931,229	-0,46
931,653	-0,44
932,078	-0,44
932,502	-0,45
932,926	-0,45
933,35	-0,45
933,774	-0,44
934,198	-0,42
934,622	-0,41
935,046	-0,42
935,47	-0,42
935,894	-0,41
936,318	-0,42
936,742	-0,42
937,166	-0,42
937,59	-0,43
938,014	-0,45
938,437	-0,45
938,861	-0,47
939,285	-0,47
939,709	-0,47
940,132	-0,48
940,556	-0,48
940,98	-0,48
941,403	-0,47
941,827	-0,48
942,25	-0,49
942,674	-0,47
943,097	-0,47
943,521	-0,47
943,944	-0,48
944,368	-0,48
944,791	-0,46
945,214	-0,48
945,638	-0,48
946,061	-0,52
946,484	-0,52
946,907	-0,52
947,331	-0,52
947,754	-0,56
948,177	-0,54
948,6	-0,53
949,023	-0,53
949,446	-0,54
949,869	-0,51
950,292	-0,51
950,715	-0,47
951,138	-0,47
951,561	-0,44
951,984	-0,44
952,407	-0,42
952,83	-0,4
953,252	-0,36
953,675	-0,36
954,098	-0,37
954,521	-0,36
954,943	-0,35
955,366	-0,36
955,789	-0,34
956,211	-0,36
956,634	-0,36
957,056	-0,34
957,479	-0,35
957,902	-0,37
958,324	-0,38
958,746	-0,36
959,169	-0,38
959,591	-0,38
960,014	-0,39
960,436	-0,38
960,858	-0,38
961,281	-0,38
961,703	-0,39
962,125	-0,39
962,547	-0,37
962,969	-0,38
963,391	-0,38
963,814	-0,38
964,236	-0,37
964,658	-0,35
965,08	-0,36
965,502	-0,35
965,924	-0,33
966,346	-0,33
966,768	-0,32
967,189	-0,34
967,611	-0,33
968,033	-0,33
968,455	-0,31
968,877	-0,32
969,298	-0,33
969,72	-0,34
970,142	-0,33
970,563	-0,34
970,985	-0,33
971,407	-0,32
971,828	-0,3
972,25	-0,29
972,671	-0,29
973,093	-0,28
973,514	-0,27
973,936	-0,25
974,357	-0,23
974,778	-0,24
975,2	-0,24
975,621	-0,23
976,042	-0,21
976,464	-0,21
976,885	-0,21
977,306	-0,19
977,727	-0,19
978,148	-0,18
978,57	-0,17
978,991	-0,16
979,412	-0,14
979,833	-0,13
980,254	-0,13
980,675	-0,14
981,096	-0,12
981,517	-0,11
981,937	-0,11
982,358	-0,1
982,779	-0,08
983,2	-0,08
983,621	-0,08
984,042	-0,06
984,462	-0,05
984,883	-0,04
985,304	-0,03
985,724	-0,03
986,145	-0,02
986,565	-0,01
986,986	-0
987,407	-0
987,827	0,01
988,248	0,02
988,668	0,03
989,088	0,04
989,509	0,05
989,929	0,06
990,35	0,07
990,77	0,08
991,19	0,09
991,61	0,1
992,031	0,11
992,451	0,12
992,871	0,12
993,291	0,13
993,711	0,13
994,131	0,14
994,551	0,14
994,971	0,15
995,391	0,15
995,811	0,16
996,231	0,16
996,651	0,16
997,071	0,16
997,491	0,17
997,911	0,17
998,331	0,18
998,75	0,18
999,17	0,19
999,59	0,19
1000,009	0,19
1000,429	0,19
1000,849	0,2
1001,268	0,2
1001,688	0,21
1002,107	0,21
1002,527	0,21
1002,946	0,21
1003,366	0,21
1003,785	0,22
1004,205	0,22
1004,624	0,22
1005,044	0,22
1005,463	0,22
1005,882	0,22
1006,301	0,22
1006,721	0,22
1007,14	0,23
1007,559	0,23
1007,978	0,23
1008,397	0,23
1008,816	0,22
1009,235	0,22
1009,655	0,22
1010,074	0,22
1010,492	0,22
1010,911	0,22
1011,33	0,22
1011,749	0,22
1012,168	0,22
1012,587	0,21
1013,006	0,21
1013,425	0,21
1013,843	0,21
1014,262	0,21
1014,681	0,21
1015,099	0,21
1015,518	0,21
1015,937	0,21
1016,355	0,21
1016,774	0,21
1017,192	0,21
1017,611	0,21
1018,029	0,21
1018,448	0,22
1018,866	0,22
1019,285	0,22
1019,703	0,22
1020,121	0,22
1020,54	0,22
1020,958	0,22
1021,376	0,22
1021,794	0,22
1022,213	0,22
1022,631	0,22
1023,049	0,22
1023,467	0,22
1023,885	0,22
1024,303	0,22
1024,721	0,22
1025,139	0,22
1025,557	0,21
1025,975	0,21
1026,393	0,21
1026,811	0,21
1027,229	0,21
1027,647	0,21
1028,065	0,21
1028,482	0,21
1028,9	0,21
1029,318	0,21
1029,735	0,21
1030,153	0,21
1030,571	0,21
1030,988	0,21
1031,406	0,21
1031,823	0,21
1032,241	0,21
1032,659	0,21
1033,076	0,21
1033,493	0,21
1033,911	0,21
1034,328	0,21
1034,746	0,21
1035,163	0,21
1035,58	0,21
1035,997	0,21
1036,415	0,21
1036,832	0,21
1037,249	0,21
1037,666	0,21
1038,083	0,21
1038,501	0,21
1038,918	0,21
1039,335	0,2
1039,752	0,2
1040,169	0,2
1040,586	0,2
1041,003	0,2
1041,419	0,2
1041,836	0,2
1042,253	0,2
1042,67	0,2
1043,087	0,2
1043,504	0,2
1043,92	0,2
1044,337	0,2
1044,754	0,2
1045,17	0,2
1045,587	0,2
1046,004	0,19
1046,42	0,19
1046,837	0,19
1047,253	0,19
1047,67	0,19
1048,086	0,19
1048,503	0,19
1048,919	0,19
1049,335	0,19
1049,752	0,19
1050,168	0,19
1050,584	0,19
1051,001	0,19
1051,417	0,19
1051,833	0,19
1052,249	0,19
1052,665	0,2
1053,081	0,2
1053,497	0,2
1053,914	0,2
1054,33	0,2
1054,746	0,2
1055,162	0,2
1055,578	0,2
1055,993	0,2
1056,409	0,2
1056,825	0,2
1057,241	0,2
1057,657	0,2
1058,073	0,2
1058,488	0,2
1058,904	0,2
1059,32	0,2
1059,736	0,2
1060,151	0,2
1060,567	0,2
1060,982	0,2
1061,398	0,2
1061,813	0,2
1062,229	0,2
1062,644	0,2
1063,06	0,2
1063,475	0,2
1063,891	0,2
1064,306	0,2
1064,721	0,2
1065,137	0,2
1065,552	0,2
1065,967	0,2
1066,382	0,2
1066,798	0,2
1067,213	0,2
1067,628	0,2
1068,043	0,2
1068,458	0,2
1068,873	0,2
1069,288	0,2
1069,703	0,2
1070,118	0,2
1070,533	0,2
1070,948	0,2
1071,363	0,2
1071,778	0,2
1072,193	0,21
1072,607	0,21
1073,022	0,21
1073,437	0,21
1073,852	0,21
1074,266	0,21
1074,681	0,21
1075,096	0,21
1075,51	0,21
1075,925	0,21
1076,339	0,21
1076,754	0,21
1077,168	0,21
1077,583	0,21
1077,997	0,2
1078,412	0,2
1078,826	0,2
1079,24	0,2
1079,655	0,2
1080,069	0,2
1080,483	0,2
1080,897	0,2
1081,312	0,2
1081,726	0,2
1082,14	0,2
1082,554	0,2
1082,968	0,2
1083,382	0,2
1083,796	0,2
1084,21	0,2
1084,624	0,19
1085,038	0,19
1085,452	0,19
1085,866	0,19
1086,28	0,19
1086,694	0,19
1087,108	0,19
1087,521	0,19
1087,935	0,19
1088,349	0,18
1088,763	0,18
1089,176	0,18
1089,59	0,18
1090,004	0,18
1090,417	0,18
1090,831	0,17
1091,244	0,17
1091,658	0,17
1092,071	0,17
1092,485	0,17
1092,898	0,17
1093,312	0,17
1093,725	0,16
1094,138	0,16
1094,552	0,16
1094,965	0,16
1095,378	0,16
1095,791	0,16
1096,205	0,16
1096,618	0,16
1097,031	0,16
1097,444	0,16
1097,857	0,16
1098,27	0,16
1098,683	0,16
1099,096	0,15
1099,509	0,15
1099,922	0,15
1100,335	0,14
1100,748	0,14
1101,161	0,14
1101,574	0,14
1101,986	0,13
1102,399	0,13
1102,812	0,13
1103,225	0,12
1103,637	0,12
1104,05	0,12
1104,463	0,12
1104,875	0,11
1105,288	0,11
1105,7	0,11
1106,113	0,11
1106,525	0,1
1106,938	0,1
1107,35	0,09
1107,763	0,1
1108,175	0,1
1108,588	0,09
1109	0,09
1109,412	0,09
1109,824	0,09
1110,237	0,09
1110,649	0,09
1111,061	0,09
