Data from 18C-808nm-8A_Absorbance__1302__01302.txt Node

Date: Mon Jul 17 17:10:38 CEST 2023
User: Laser008
Spectrometer: MAYP115816
Trigger mode: 0
Integration Time (sec): 2,500000E-1
Scans to average: 10
Electric dark correction enabled: true
Nonlinearity correction enabled: true
Boxcar width: 5
XAxis mode: Wavelengths
Number of Pixels in Spectrum: 2068
>>>>>Begin Spectral Data<<<<<
198,914	-0,7
199,384	-0,49
199,855	-0,38
200,325	-0,3
200,796	-0,28
201,266	-0,22
201,737	-0,21
202,207	-0,2
202,677	-0,19
203,147	-0,18
203,618	-0,16
204,088	-0,14
204,558	-0,13
205,028	-0,12
205,498	-0,12
205,968	-0,12
206,439	-0,14
206,909	-0,13
207,379	-0,13
207,849	-0,14
208,319	-0,14
208,789	-0,13
209,258	-0,13
209,728	-0,15
210,198	-0,15
210,668	-0,15
211,138	-0,14
211,608	-0,14
212,077	-0,15
212,547	-0,15
213,017	-0,15
213,486	-0,15
213,956	-0,16
214,426	-0,17
214,895	-0,16
215,365	-0,17
215,834	-0,17
216,304	-0,18
216,773	-0,18
217,243	-0,19
217,712	-0,21
218,181	-0,2
218,651	-0,2
219,12	-0,2
219,589	-0,2
220,058	-0,2
220,528	-0,2
220,997	-0,21
221,466	-0,22
221,935	-0,22
222,404	-0,22
222,873	-0,21
223,342	-0,21
223,812	-0,21
224,281	-0,2
224,749	-0,2
225,218	-0,21
225,687	-0,22
226,156	-0,2
226,625	-0,18
227,094	-0,18
227,563	-0,18
228,031	-0,19
228,5	-0,19
228,969	-0,2
229,438	-0,19
229,906	-0,18
230,375	-0,17
230,844	-0,17
231,312	-0,17
231,781	-0,18
232,249	-0,17
232,718	-0,18
233,186	-0,16
233,655	-0,16
234,123	-0,16
234,591	-0,16
235,06	-0,16
235,528	-0,17
235,996	-0,17
236,465	-0,16
236,933	-0,15
237,401	-0,16
237,869	-0,15
238,337	-0,15
238,805	-0,14
239,274	-0,14
239,742	-0,14
240,21	-0,14
240,678	-0,14
241,146	-0,13
241,614	-0,13
242,081	-0,13
242,549	-0,13
243,017	-0,13
243,485	-0,13
243,953	-0,13
244,421	-0,13
244,888	-0,13
245,356	-0,13
245,824	-0,13
246,291	-0,13
246,759	-0,14
247,227	-0,14
247,694	-0,13
248,162	-0,13
248,629	-0,12
249,097	-0,12
249,564	-0,13
250,032	-0,13
250,499	-0,13
250,967	-0,13
251,434	-0,14
251,901	-0,14
252,369	-0,14
252,836	-0,16
253,303	-0,17
253,77	-0,18
254,237	-0,17
254,705	-0,17
255,172	-0,16
255,639	-0,16
256,106	-0,17
256,573	-0,17
257,04	-0,16
257,507	-0,16
257,974	-0,17
258,441	-0,15
258,908	-0,16
259,375	-0,17
259,841	-0,19
260,308	-0,19
260,775	-0,2
261,242	-0,19
261,709	-0,2
262,175	-0,22
262,642	-0,21
263,109	-0,2
263,575	-0,22
264,042	-0,2
264,508	-0,19
264,975	-0,21
265,441	-0,21
265,908	-0,21
266,374	-0,21
266,841	-0,21
267,307	-0,2
267,773	-0,2
268,24	-0,2
268,706	-0,2
269,172	-0,22
269,639	-0,23
270,105	-0,21
270,571	-0,21
271,037	-0,2
271,503	-0,22
271,969	-0,21
272,435	-0,21
272,902	-0,22
273,368	-0,23
273,834	-0,23
274,3	-0,23
274,765	-0,23
275,231	-0,23
275,697	-0,23
276,163	-0,23
276,629	-0,23
277,095	-0,24
277,56	-0,23
278,026	-0,24
278,492	-0,22
278,958	-0,22
279,423	-0,23
279,889	-0,21
280,354	-0,22
280,82	-0,21
281,286	-0,22
281,751	-0,23
282,217	-0,22
282,682	-0,21
283,147	-0,21
283,613	-0,22
284,078	-0,22
284,544	-0,23
285,009	-0,25
285,474	-0,25
285,939	-0,25
286,405	-0,24
286,87	-0,24
287,335	-0,23
287,8	-0,23
288,265	-0,21
288,73	-0,22
289,195	-0,24
289,66	-0,24
290,125	-0,22
290,59	-0,23
291,055	-0,23
291,52	-0,22
291,985	-0,22
292,45	-0,24
292,915	-0,24
293,38	-0,25
293,844	-0,23
294,309	-0,22
294,774	-0,21
295,239	-0,23
295,703	-0,23
296,168	-0,22
296,632	-0,21
297,097	-0,2
297,562	-0,19
298,026	-0,2
298,491	-0,2
298,955	-0,2
299,419	-0,19
299,884	-0,19
300,348	-0,18
300,813	-0,17
301,277	-0,17
301,741	-0,18
302,205	-0,18
302,67	-0,17
303,134	-0,16
303,598	-0,16
304,062	-0,15
304,526	-0,14
304,99	-0,16
305,454	-0,16
305,919	-0,15
306,383	-0,16
306,847	-0,15
307,31	-0,15
307,774	-0,16
308,238	-0,15
308,702	-0,15
309,166	-0,16
309,63	-0,16
310,094	-0,14
310,557	-0,13
311,021	-0,13
311,485	-0,13
311,948	-0,14
312,412	-0,14
312,876	-0,13
313,339	-0,14
313,803	-0,14
314,266	-0,14
314,73	-0,15
315,193	-0,15
315,657	-0,14
316,12	-0,15
316,584	-0,13
317,047	-0,12
317,51	-0,11
317,973	-0,11
318,437	-0,1
318,9	-0,09
319,363	-0,08
319,826	-0,07
320,29	-0,07
320,753	-0,08
321,216	-0,07
321,679	-0,07
322,142	-0,08
322,605	-0,09
323,068	-0,1
323,531	-0,1
323,994	-0,09
324,457	-0,09
324,92	-0,08
325,382	-0,08
325,845	-0,07
326,308	-0,06
326,771	-0,06
327,233	-0,05
327,696	-0,05
328,159	-0,03
328,622	-0,03
329,084	-0,03
329,547	-0,02
330,009	-0,01
330,472	-0,01
330,934	-0,01
331,397	-0,01
331,859	-0
332,322	0,01
332,784	0,02
333,246	0,02
333,709	0,02
334,171	0,03
334,633	0,03
335,096	0,02
335,558	0,02
336,02	0,03
336,482	0,03
336,944	0,04
337,406	0,04
337,868	0,05
338,331	0,05
338,793	0,06
339,255	0,06
339,717	0,07
340,178	0,07
340,64	0,07
341,102	0,08
341,564	0,09
342,026	0,1
342,488	0,1
342,949	0,11
343,411	0,13
343,873	0,15
344,335	0,18
344,796	0,2
345,258	0,23
345,719	0,27
346,181	0,3
346,643	0,33
347,104	0,35
347,566	0,37
348,027	0,39
348,488	0,4
348,95	0,42
349,411	0,43
349,873	0,45
350,334	0,46
350,795	0,47
351,256	0,47
351,718	0,48
352,179	0,48
352,64	0,49
353,101	0,49
353,562	0,49
354,023	0,49
354,484	0,49
354,945	0,49
355,406	0,49
355,867	0,5
356,328	0,5
356,789	0,5
357,25	0,5
357,711	0,5
358,172	0,5
358,633	0,5
359,093	0,5
359,554	0,5
360,015	0,5
360,476	0,5
360,936	0,51
361,397	0,51
361,858	0,51
362,318	0,51
362,779	0,51
363,239	0,51
363,7	0,51
364,16	0,51
364,621	0,51
365,081	0,51
365,541	0,51
366,002	0,51
366,462	0,51
366,922	0,51
367,383	0,51
367,843	0,51
368,303	0,51
368,763	0,51
369,223	0,51
369,684	0,51
370,144	0,51
370,604	0,51
371,064	0,51
371,524	0,51
371,984	0,51
372,444	0,51
372,904	0,51
373,363	0,5
373,823	0,5
374,283	0,5
374,743	0,5
375,203	0,5
375,663	0,5
376,122	0,5
376,582	0,5
377,042	0,5
377,501	0,5
377,961	0,5
378,42	0,5
378,88	0,5
379,34	0,5
379,799	0,5
380,259	0,5
380,718	0,5
381,177	0,5
381,637	0,5
382,096	0,5
382,555	0,5
383,015	0,5
383,474	0,5
383,933	0,5
384,393	0,5
384,852	0,5
385,311	0,5
385,77	0,5
386,229	0,5
386,688	0,5
387,147	0,5
387,606	0,49
388,065	0,49
388,524	0,49
388,983	0,49
389,442	0,49
389,901	0,49
390,36	0,49
390,819	0,49
391,277	0,49
391,736	0,49
392,195	0,49
392,654	0,49
393,112	0,49
393,571	0,49
394,03	0,49
394,488	0,49
394,947	0,49
395,405	0,49
395,864	0,49
396,322	0,49
396,781	0,49
397,239	0,49
397,698	0,49
398,156	0,49
398,614	0,49
399,073	0,49
399,531	0,49
399,989	0,49
400,447	0,49
400,905	0,49
401,364	0,49
401,822	0,49
402,28	0,49
402,738	0,49
403,196	0,48
403,654	0,48
404,112	0,48
404,57	0,48
405,028	0,48
405,486	0,48
405,944	0,48
406,402	0,48
406,859	0,48
407,317	0,48
407,775	0,48
408,233	0,48
408,691	0,48
409,148	0,48
409,606	0,48
410,064	0,48
410,521	0,48
410,979	0,48
411,436	0,48
411,894	0,48
412,351	0,48
412,809	0,48
413,266	0,48
413,724	0,48
414,181	0,48
414,638	0,48
415,096	0,48
415,553	0,48
416,01	0,48
416,467	0,48
416,925	0,48
417,382	0,48
417,839	0,48
418,296	0,48
418,753	0,48
419,21	0,48
419,667	0,48
420,124	0,48
420,581	0,48
421,038	0,48
421,495	0,48
421,952	0,48
422,409	0,48
422,866	0,48
423,322	0,48
423,779	0,48
424,236	0,48
424,693	0,48
425,149	0,48
425,606	0,48
426,063	0,48
426,519	0,48
426,976	0,48
427,433	0,48
427,889	0,48
428,346	0,48
428,802	0,48
429,258	0,48
429,715	0,48
430,171	0,48
430,628	0,48
431,084	0,48
431,54	0,48
431,997	0,48
432,453	0,47
432,909	0,47
433,365	0,47
433,821	0,47
434,277	0,47
434,734	0,47
435,19	0,47
435,646	0,47
436,102	0,47
436,558	0,47
437,014	0,47
437,47	0,47
437,925	0,47
438,381	0,47
438,837	0,47
439,293	0,47
439,749	0,47
440,205	0,47
440,66	0,47
441,116	0,47
441,572	0,47
442,027	0,47
442,483	0,47
442,939	0,47
443,394	0,47
443,85	0,47
444,305	0,47
444,761	0,47
445,216	0,47
445,672	0,47
446,127	0,47
446,582	0,47
447,038	0,47
447,493	0,47
447,948	0,47
448,403	0,47
448,859	0,47
449,314	0,47
449,769	0,47
450,224	0,47
450,679	0,47
451,134	0,47
451,589	0,47
452,044	0,47
452,499	0,47
452,954	0,48
453,409	0,48
453,864	0,48
454,319	0,48
454,774	0,48
455,229	0,48
455,684	0,48
456,138	0,48
456,593	0,48
457,048	0,48
457,503	0,48
457,957	0,48
458,412	0,48
458,866	0,48
459,321	0,48
459,776	0,48
460,23	0,48
460,685	0,48
461,139	0,48
461,593	0,48
462,048	0,48
462,502	0,48
462,957	0,48
463,411	0,48
463,865	0,48
464,319	0,48
464,774	0,48
465,228	0,48
465,682	0,48
466,136	0,48
466,59	0,48
467,044	0,48
467,499	0,49
467,953	0,49
468,407	0,49
468,861	0,49
469,315	0,49
469,768	0,49
470,222	0,49
470,676	0,49
471,13	0,49
471,584	0,49
472,038	0,49
472,491	0,49
472,945	0,49
473,399	0,49
473,852	0,49
474,306	0,49
474,76	0,49
475,213	0,49
475,667	0,49
476,12	0,5
476,574	0,5
477,027	0,5
477,481	0,5
477,934	0,5
478,388	0,5
478,841	0,5
479,294	0,5
479,748	0,5
480,201	0,51
480,654	0,51
481,107	0,51
481,561	0,51
482,014	0,51
482,467	0,51
482,92	0,51
483,373	0,51
483,826	0,51
484,279	0,52
484,732	0,52
485,185	0,52
485,638	0,52
486,091	0,52
486,544	0,52
486,997	0,52
487,449	0,53
487,902	0,53
488,355	0,53
488,808	0,53
489,26	0,53
489,713	0,53
490,166	0,53
490,618	0,54
491,071	0,54
491,523	0,54
491,976	0,54
492,429	0,54
492,881	0,55
493,333	0,55
493,786	0,55
494,238	0,55
494,691	0,56
495,143	0,56
495,595	0,56
496,048	0,56
496,5	0,57
496,952	0,57
497,404	0,57
497,856	0,57
498,309	0,57
498,761	0,58
499,213	0,58
499,665	0,58
500,117	0,59
500,569	0,59
501,021	0,59
501,473	0,59
501,925	0,6
502,377	0,6
502,828	0,6
503,28	0,61
503,732	0,61
504,184	0,61
504,636	0,61
505,087	0,62
505,539	0,62
505,991	0,62
506,442	0,62
506,894	0,63
507,345	0,63
507,797	0,63
508,249	0,64
508,7	0,64
509,151	0,64
509,603	0,65
510,054	0,65
510,506	0,65
510,957	0,65
511,408	0,66
511,86	0,66
512,311	0,66
512,762	0,66
513,213	0,67
513,665	0,67
514,116	0,67
514,567	0,67
515,018	0,68
515,469	0,68
515,92	0,68
516,371	0,68
516,822	0,69
517,273	0,69
517,724	0,69
518,175	0,69
518,626	0,69
519,076	0,7
519,527	0,7
519,978	0,7
520,429	0,7
520,88	0,7
521,33	0,7
521,781	0,7
522,232	0,71
522,682	0,71
523,133	0,71
523,583	0,71
524,034	0,71
524,484	0,71
524,935	0,71
525,385	0,71
525,836	0,71
526,286	0,71
526,736	0,71
527,187	0,71
527,637	0,71
528,087	0,71
528,538	0,71
528,988	0,71
529,438	0,71
529,888	0,71
530,338	0,71
530,788	0,71
531,238	0,71
531,688	0,71
532,139	0,71
532,589	0,71
533,038	0,71
533,488	0,71
533,938	0,71
534,388	0,7
534,838	0,7
535,288	0,7
535,738	0,7
536,187	0,7
536,637	0,69
537,087	0,69
537,537	0,69
537,986	0,69
538,436	0,68
538,885	0,68
539,335	0,68
539,785	0,68
540,234	0,67
540,684	0,67
541,133	0,67
541,582	0,66
542,032	0,66
542,481	0,66
542,931	0,65
543,38	0,65
543,829	0,65
544,278	0,64
544,728	0,64
545,177	0,64
545,626	0,64
546,075	0,63
546,524	0,63
546,973	0,63
547,422	0,63
547,871	0,62
548,32	0,62
548,769	0,62
549,218	0,62
549,667	0,62
550,116	0,61
550,565	0,61
551,014	0,61
551,463	0,61
551,911	0,6
552,36	0,6
552,809	0,6
553,258	0,6
553,706	0,59
554,155	0,59
554,603	0,59
555,052	0,59
555,501	0,58
555,949	0,58
556,398	0,58
556,846	0,57
557,294	0,57
557,743	0,57
558,191	0,57
558,64	0,56
559,088	0,56
559,536	0,56
559,985	0,55
560,433	0,55
560,881	0,55
561,329	0,55
561,777	0,54
562,225	0,54
562,674	0,54
563,122	0,54
563,57	0,53
564,018	0,53
564,466	0,53
564,914	0,52
565,362	0,52
565,809	0,52
566,257	0,52
566,705	0,51
567,153	0,51
567,601	0,51
568,048	0,51
568,496	0,5
568,944	0,5
569,392	0,5
569,839	0,5
570,287	0,49
570,734	0,49
571,182	0,49
571,63	0,49
572,077	0,48
572,525	0,48
572,972	0,48
573,419	0,48
573,867	0,48
574,314	0,47
574,761	0,47
575,209	0,47
575,656	0,47
576,103	0,47
576,551	0,46
576,998	0,46
577,445	0,46
577,892	0,46
578,339	0,46
578,786	0,46
579,233	0,45
579,68	0,45
580,127	0,45
580,574	0,45
581,021	0,45
581,468	0,44
581,915	0,44
582,362	0,44
582,809	0,44
583,255	0,44
583,702	0,44
584,149	0,44
584,596	0,43
585,042	0,43
585,489	0,43
585,936	0,43
586,382	0,43
586,829	0,43
587,275	0,43
587,722	0,42
588,168	0,42
588,615	0,42
589,061	0,42
589,508	0,42
589,954	0,42
590,4	0,42
590,847	0,42
591,293	0,41
591,739	0,41
592,185	0,41
592,632	0,41
593,078	0,41
593,524	0,41
593,97	0,41
594,416	0,41
594,862	0,41
595,308	0,41
595,754	0,41
596,2	0,4
596,646	0,4
597,092	0,4
597,538	0,4
597,984	0,4
598,43	0,4
598,876	0,4
599,321	0,4
599,767	0,4
600,213	0,4
600,659	0,39
601,104	0,39
601,55	0,39
601,995	0,39
602,441	0,39
602,887	0,39
603,332	0,39
603,778	0,39
604,223	0,39
604,668	0,39
605,114	0,39
605,559	0,39
606,005	0,39
606,45	0,39
606,895	0,38
607,341	0,38
607,786	0,38
608,231	0,38
608,676	0,38
609,121	0,38
609,566	0,37
610,012	0,37
610,457	0,37
610,902	0,36
611,347	0,36
611,792	0,36
612,237	0,36
612,682	0,36
613,127	0,36
613,571	0,36
614,016	0,36
614,461	0,36
614,906	0,36
615,351	0,36
615,795	0,36
616,24	0,36
616,685	0,36
617,129	0,36
617,574	0,36
618,019	0,36
618,463	0,36
618,908	0,36
619,352	0,36
619,797	0,36
620,241	0,36
620,686	0,36
621,13	0,36
621,574	0,36
622,019	0,36
622,463	0,36
622,907	0,36
623,352	0,36
623,796	0,36
624,24	0,36
624,684	0,36
625,128	0,36
625,572	0,36
626,016	0,36
626,461	0,36
626,905	0,36
627,349	0,36
627,793	0,36
628,236	0,36
628,68	0,36
629,124	0,35
629,568	0,35
630,012	0,35
630,456	0,35
630,9	0,35
631,343	0,35
631,787	0,35
632,231	0,35
632,674	0,35
633,118	0,35
633,562	0,35
634,005	0,35
634,449	0,35
634,892	0,35
635,336	0,35
635,779	0,35
636,223	0,35
636,666	0,35
637,109	0,35
637,553	0,35
637,996	0,35
638,439	0,35
638,883	0,35
639,326	0,35
639,769	0,35
640,212	0,35
640,655	0,35
641,099	0,34
641,542	0,34
641,985	0,34
642,428	0,34
642,871	0,34
643,314	0,34
643,757	0,34
644,2	0,34
644,643	0,34
645,085	0,34
645,528	0,34
645,971	0,34
646,414	0,34
646,857	0,34
647,299	0,34
647,742	0,34
648,185	0,34
648,627	0,34
649,07	0,34
649,513	0,34
649,955	0,34
650,398	0,34
650,84	0,34
651,283	0,34
651,725	0,34
652,168	0,34
652,61	0,34
653,052	0,34
653,495	0,33
653,937	0,26
654,379	0,21
654,821	0,21
655,264	0,21
655,706	0,21
656,148	0,21
656,59	0,22
657,032	0,22
657,474	0,22
657,916	0,22
658,358	0,21
658,8	0,26
659,242	0,34
659,684	0,34
660,126	0,34
660,568	0,34
661,01	0,34
661,452	0,34
661,894	0,33
662,335	0,33
662,777	0,33
663,219	0,33
663,661	0,33
664,102	0,33
664,544	0,33
664,985	0,33
665,427	0,33
665,869	0,33
666,31	0,33
666,752	0,33
667,193	0,33
667,634	0,33
668,076	0,33
668,517	0,33
668,959	0,33
669,4	0,33
669,841	0,33
670,282	0,33
670,724	0,33
671,165	0,33
671,606	0,33
672,047	0,33
672,488	0,33
672,929	0,33
673,37	0,33
673,811	0,33
674,252	0,33
674,693	0,33
675,134	0,33
675,575	0,33
676,016	0,33
676,457	0,33
676,898	0,33
677,339	0,33
677,78	0,33
678,22	0,33
678,661	0,33
679,102	0,33
679,542	0,33
679,983	0,33
680,424	0,33
680,864	0,33
681,305	0,33
681,745	0,33
682,186	0,33
682,626	0,33
683,067	0,33
683,507	0,33
683,948	0,32
684,388	0,32
684,828	0,32
685,269	0,32
685,709	0,32
686,149	0,32
686,589	0,32
687,029	0,32
687,47	0,32
687,91	0,32
688,35	0,32
688,79	0,32
689,23	0,32
689,67	0,32
690,11	0,32
690,55	0,32
690,99	0,32
691,43	0,32
691,87	0,31
692,31	0,31
692,749	0,31
693,189	0,31
693,629	0,31
694,069	0,31
694,508	0,31
694,948	0,31
695,388	0,31
695,827	0,31
696,267	0,31
696,706	0,31
697,146	0,32
697,586	0,32
698,025	0,32
698,464	0,32
698,904	0,32
699,343	0,32
699,783	0,32
700,222	0,32
700,661	0,32
701,101	0,32
701,54	0,32
701,979	0,32
702,418	0,32
702,857	0,32
703,297	0,32
703,736	0,32
704,175	0,32
704,614	0,31
705,053	0,31
705,492	0,31
705,931	0,31
706,37	0,31
706,809	0,31
707,248	0,31
707,687	0,31
708,125	0,31
708,564	0,31
709,003	0,31
709,442	0,31
709,88	0,31
710,319	0,31
710,758	0,31
711,196	0,31
711,635	0,31
712,074	0,31
712,512	0,31
712,951	0,31
713,389	0,3
713,828	0,3
714,266	0,3
714,705	0,3
715,143	0,3
715,581	0,3
716,02	0,3
716,458	0,3
716,896	0,3
717,334	0,3
717,773	0,3
718,211	0,3
718,649	0,3
719,087	0,3
719,525	0,3
719,963	0,3
720,401	0,3
720,839	0,3
721,277	0,3
721,715	0,3
722,153	0,3
722,591	0,3
723,029	0,3
723,467	0,3
723,905	0,3
724,342	0,3
724,78	0,3
725,218	0,3
725,656	0,3
726,093	0,3
726,531	0,3
726,969	0,3
727,406	0,3
727,844	0,3
728,281	0,3
728,719	0,3
729,156	0,3
729,594	0,3
730,031	0,3
730,469	0,3
730,906	0,3
731,343	0,3
731,781	0,3
732,218	0,3
732,655	0,3
733,092	0,3
733,53	0,3
733,967	0,3
734,404	0,3
734,841	0,3
735,278	0,3
735,715	0,29
736,152	0,29
736,589	0,29
737,026	0,29
737,463	0,29
737,9	0,29
738,337	0,29
738,774	0,29
739,211	0,29
739,647	0,29
740,084	0,29
740,521	0,29
740,958	0,29
741,394	0,29
741,831	0,29
742,268	0,29
742,704	0,28
743,141	0,28
743,577	0,28
744,014	0,28
744,45	0,28
744,887	0,28
745,323	0,28
745,76	0,27
746,196	0,27
746,632	0,27
747,069	0,27
747,505	0,27
747,941	0,27
748,378	0,27
748,814	0,28
749,25	0,28
749,686	0,28
750,122	0,28
750,558	0,28
750,994	0,28
751,43	0,28
751,866	0,29
752,302	0,29
752,738	0,29
753,174	0,29
753,61	0,29
754,046	0,29
754,482	0,29
754,918	0,29
755,354	0,29
755,789	0,29
756,225	0,29
756,661	0,29
757,096	0,29
757,532	0,29
757,968	0,29
758,403	0,28
758,839	0,28
759,274	0,28
759,71	0,28
760,145	0,27
760,581	0,27
761,016	0,27
761,452	0,26
761,887	0,26
762,322	0,26
762,758	0,25
763,193	0,25
763,628	0,25
764,063	0,24
764,499	0,24
764,934	0,23
765,369	0,23
765,804	0,22
766,239	0,22
766,674	0,21
767,109	0,21
767,544	0,2
767,979	0,19
768,414	0,19
768,849	0,18
769,284	0,17
769,719	0,16
770,154	0,16
770,588	0,15
771,023	0,14
771,458	0,13
771,893	0,12
772,327	0,11
772,762	0,1
773,197	0,1
773,631	0,09
774,066	0,08
774,5	0,08
774,935	0,07
775,369	0,06
775,804	0,06
776,238	0,05
776,673	0,04
777,107	0,04
777,541	0,03
777,976	0,02
778,41	0,02
778,844	0
779,279	0
779,713	-0,01
780,147	-0,02
780,581	-0,02
781,015	-0,03
781,449	-0,04
781,883	-0,04
782,317	-0,05
782,751	-0,06
783,185	-0,07
783,619	-0,07
784,053	-0,08
784,487	-0,09
784,921	-0,09
785,355	-0,1
785,789	-0,11
786,223	-0,12
786,656	-0,14
787,09	-0,15
787,524	-0,15
787,957	-0,17
788,391	-0,18
788,825	-0,2
789,258	-0,21
789,692	-0,22
790,125	-0,23
790,559	-0,25
790,992	-0,26
791,426	-0,29
791,859	-0,29
792,293	-0,33
792,726	-0,34
793,159	-0,37
793,593	-0,38
794,026	-0,41
794,459	-0,44
794,892	-0,47
795,326	-0,5
795,759	-0,53
796,192	-0,58
796,625	-0,62
797,058	-0,65
797,491	-0,69
797,924	-0,73
798,357	-0,77
798,79	-0,82
799,223	-0,86
799,656	-0,91
800,089	-0,96
800,522	-1
800,955	-1,04
801,387	-1,1
801,82	-1,15
802,253	-1,21
802,686	-1,29
803,118	-1,35
803,551	-1,4
803,984	-1,44
804,416	-1,48
804,849	-1,51
805,281	-1,64
805,714	-1,98
806,146	-2,42
806,579	-2,69
807,011	-2,86
807,444	-2,95
807,876	-3,05
808,308	-3,09
808,741	-3,12
809,173	-3,17
809,605	-3,19
810,037	-3,27
810,47	-3,19
810,902	-3
811,334	-2,86
811,766	-2,71
812,198	-2,49
812,63	-2,07
813,062	-1,82
813,494	-1,72
813,926	-1,62
814,358	-1,57
814,79	-1,49
815,222	-1,43
815,654	-1,38
816,086	-1,32
816,518	-1,26
816,949	-1,21
817,381	-1,17
817,813	-1,15
818,245	-1,11
818,676	-1,07
819,108	-1,03
819,54	-1,02
819,971	-0,99
820,403	-0,94
820,834	-0,93
821,266	-0,89
821,697	-0,86
822,129	-0,84
822,56	-0,82
822,991	-0,8
823,423	-0,77
823,854	-0,76
824,286	-0,74
824,717	-0,73
825,148	-0,71
825,579	-0,7
826,01	-0,68
826,442	-0,68
826,873	-0,66
827,304	-0,62
827,735	-0,61
828,166	-0,62
828,597	-0,62
829,028	-0,6
829,459	-0,61
829,89	-0,61
830,321	-0,57
830,752	-0,57
831,183	-0,57
831,613	-0,56
832,044	-0,55
832,475	-0,54
832,906	-0,55
833,336	-0,55
833,767	-0,56
834,198	-0,55
834,628	-0,53
835,059	-0,56
835,49	-0,58
835,92	-0,55
836,351	-0,55
836,781	-0,56
837,212	-0,57
837,642	-0,57
838,072	-0,55
838,503	-0,55
838,933	-0,53
839,364	-0,54
839,794	-0,52
840,224	-0,51
840,654	-0,55
841,085	-0,56
841,515	-0,53
841,945	-0,54
842,375	-0,49
842,805	-0,47
843,235	-0,46
843,665	-0,46
844,095	-0,46
844,525	-0,48
844,955	-0,48
845,385	-0,46
845,815	-0,45
846,245	-0,47
846,675	-0,47
847,105	-0,49
847,534	-0,5
847,964	-0,49
848,394	-0,48
848,824	-0,51
849,253	-0,49
849,683	-0,5
850,112	-0,51
850,542	-0,53
850,972	-0,54
851,401	-0,52
851,831	-0,5
852,26	-0,51
852,69	-0,55
853,119	-0,54
853,548	-0,54
853,978	-0,55
854,407	-0,52
854,836	-0,52
855,266	-0,51
855,695	-0,52
856,124	-0,54
856,553	-0,55
856,983	-0,56
857,412	-0,56
857,841	-0,57
858,27	-0,57
858,699	-0,57
859,128	-0,61
859,557	-0,62
859,986	-0,63
860,415	-0,61
860,844	-0,58
861,273	-0,58
861,702	-0,59
862,13	-0,56
862,559	-0,58
862,988	-0,56
863,417	-0,55
863,845	-0,54
864,274	-0,55
864,703	-0,54
865,131	-0,54
865,56	-0,56
865,989	-0,58
866,417	-0,55
866,846	-0,56
867,274	-0,55
867,703	-0,57
868,131	-0,59
868,559	-0,59
868,988	-0,61
869,416	-0,6
869,844	-0,62
870,273	-0,65
870,701	-0,62
871,129	-0,65
871,557	-0,68
871,986	-0,67
872,414	-0,68
872,842	-0,65
873,27	-0,64
873,698	-0,61
874,126	-0,65
874,554	-0,63
874,982	-0,63
875,41	-0,66
875,838	-0,61
876,266	-0,59
876,694	-0,59
877,122	-0,58
877,549	-0,64
877,977	-0,61
878,405	-0,64
878,833	-0,6
879,26	-0,59
879,688	-0,59
880,116	-0,57
880,543	-0,56
880,971	-0,56
881,399	-0,59
881,826	-0,6
882,254	-0,58
882,681	-0,61
883,109	-0,57
883,536	-0,58
883,963	-0,6
884,391	-0,58
884,818	-0,57
885,245	-0,6
885,673	-0,62
886,1	-0,59
886,527	-0,59
886,954	-0,54
887,381	-0,55
887,809	-0,57
888,236	-0,58
888,663	-0,58
889,09	-0,62
889,517	-0,63
889,944	-0,62
890,371	-0,61
890,798	-0,6
891,225	-0,6
891,652	-0,64
892,078	-0,62
892,505	-0,64
892,932	-0,59
893,359	-0,6
893,786	-0,61
894,212	-0,58
894,639	-0,59
895,066	-0,62
895,492	-0,56
895,919	-0,56
896,346	-0,55
896,772	-0,55
897,199	-0,52
897,625	-0,54
898,052	-0,52
898,478	-0,49
898,904	-0,51
899,331	-0,51
899,757	-0,53
900,183	-0,56
900,61	-0,54
901,036	-0,55
901,462	-0,55
901,888	-0,55
902,315	-0,54
902,741	-0,59
903,167	-0,57
903,593	-0,6
904,019	-0,58
904,445	-0,55
904,871	-0,58
905,297	-0,6
905,723	-0,58
906,149	-0,57
906,575	-0,59
907,001	-0,58
907,427	-0,55
907,852	-0,54
908,278	-0,55
908,704	-0,53
909,13	-0,53
909,555	-0,51
909,981	-0,52
910,407	-0,52
910,832	-0,52
911,258	-0,52
911,684	-0,53
912,109	-0,53
912,535	-0,55
912,96	-0,51
913,386	-0,55
913,811	-0,54
914,236	-0,56
914,662	-0,53
915,087	-0,57
915,512	-0,57
915,938	-0,59
916,363	-0,59
916,788	-0,6
917,213	-0,58
917,639	-0,63
918,064	-0,62
918,489	-0,62
918,914	-0,62
919,339	-0,64
919,764	-0,6
920,189	-0,59
920,614	-0,62
921,039	-0,63
921,464	-0,58
921,889	-0,62
922,314	-0,62
922,738	-0,64
923,163	-0,65
923,588	-0,65
924,013	-0,64
924,437	-0,64
924,862	-0,66
925,287	-0,61
925,711	-0,61
926,136	-0,62
926,561	-0,6
926,985	-0,59
927,41	-0,56
927,834	-0,54
928,259	-0,52
928,683	-0,5
929,108	-0,48
929,532	-0,49
929,956	-0,48
930,381	-0,47
930,805	-0,47
931,229	-0,47
931,653	-0,46
932,078	-0,45
932,502	-0,46
932,926	-0,47
933,35	-0,47
933,774	-0,46
934,198	-0,44
934,622	-0,43
935,046	-0,44
935,47	-0,44
935,894	-0,44
936,318	-0,43
936,742	-0,44
937,166	-0,45
937,59	-0,45
938,014	-0,47
938,437	-0,47
938,861	-0,49
939,285	-0,51
939,709	-0,5
940,132	-0,5
940,556	-0,5
940,98	-0,5
941,403	-0,49
941,827	-0,48
942,25	-0,49
942,674	-0,48
943,097	-0,47
943,521	-0,46
943,944	-0,47
944,368	-0,46
944,791	-0,44
945,214	-0,47
945,638	-0,47
946,061	-0,51
946,484	-0,52
946,907	-0,5
947,331	-0,5
947,754	-0,55
948,177	-0,52
948,6	-0,52
949,023	-0,52
949,446	-0,53
949,869	-0,5
950,292	-0,5
950,715	-0,47
951,138	-0,45
951,561	-0,43
951,984	-0,43
952,407	-0,41
952,83	-0,4
953,252	-0,36
953,675	-0,37
954,098	-0,37
954,521	-0,36
954,943	-0,36
955,366	-0,37
955,789	-0,35
956,211	-0,37
956,634	-0,37
957,056	-0,36
957,479	-0,37
957,902	-0,39
958,324	-0,38
958,746	-0,37
959,169	-0,38
959,591	-0,38
960,014	-0,39
960,436	-0,39
960,858	-0,38
961,281	-0,38
961,703	-0,39
962,125	-0,39
962,547	-0,37
962,969	-0,38
963,391	-0,39
963,814	-0,39
964,236	-0,39
964,658	-0,36
965,08	-0,38
965,502	-0,37
965,924	-0,35
966,346	-0,35
966,768	-0,34
967,189	-0,36
967,611	-0,35
968,033	-0,34
968,455	-0,32
968,877	-0,33
969,298	-0,34
969,72	-0,33
970,142	-0,33
970,563	-0,33
970,985	-0,31
971,407	-0,3
971,828	-0,29
972,25	-0,28
972,671	-0,27
973,093	-0,27
973,514	-0,25
973,936	-0,23
974,357	-0,22
974,778	-0,22
975,2	-0,22
975,621	-0,22
976,042	-0,21
976,464	-0,2
976,885	-0,19
977,306	-0,18
977,727	-0,18
978,148	-0,17
978,57	-0,15
978,991	-0,15
979,412	-0,14
979,833	-0,13
980,254	-0,12
980,675	-0,13
981,096	-0,11
981,517	-0,1
981,937	-0,09
982,358	-0,08
982,779	-0,07
983,2	-0,08
983,621	-0,07
984,042	-0,05
984,462	-0,04
984,883	-0,04
985,304	-0,02
985,724	-0,02
986,145	-0,01
986,565	0
986,986	0,01
987,407	0,01
987,827	0,03
988,248	0,04
988,668	0,05
989,088	0,06
989,509	0,07
989,929	0,08
990,35	0,09
990,77	0,1
991,19	0,1
991,61	0,11
992,031	0,12
992,451	0,13
992,871	0,13
993,291	0,14
993,711	0,15
994,131	0,15
994,551	0,15
994,971	0,16
995,391	0,16
995,811	0,17
996,231	0,17
996,651	0,18
997,071	0,18
997,491	0,19
997,911	0,19
998,331	0,2
998,75	0,21
999,17	0,21
999,59	0,21
1000,009	0,22
1000,429	0,22
1000,849	0,22
1001,268	0,23
1001,688	0,23
1002,107	0,23
1002,527	0,23
1002,946	0,24
1003,366	0,24
1003,785	0,24
1004,205	0,24
1004,624	0,24
1005,044	0,24
1005,463	0,24
1005,882	0,25
1006,301	0,25
1006,721	0,25
1007,14	0,25
1007,559	0,25
1007,978	0,25
1008,397	0,25
1008,816	0,25
1009,235	0,25
1009,655	0,25
1010,074	0,25
1010,492	0,25
1010,911	0,25
1011,33	0,24
1011,749	0,24
1012,168	0,24
1012,587	0,24
1013,006	0,24
1013,425	0,24
1013,843	0,24
1014,262	0,24
1014,681	0,24
1015,099	0,24
1015,518	0,24
1015,937	0,24
1016,355	0,24
1016,774	0,24
1017,192	0,24
1017,611	0,24
1018,029	0,24
1018,448	0,24
1018,866	0,24
1019,285	0,24
1019,703	0,24
1020,121	0,24
1020,54	0,24
1020,958	0,24
1021,376	0,24
1021,794	0,24
1022,213	0,24
1022,631	0,24
1023,049	0,24
1023,467	0,24
1023,885	0,24
1024,303	0,24
1024,721	0,24
1025,139	0,24
1025,557	0,24
1025,975	0,24
1026,393	0,24
1026,811	0,24
1027,229	0,24
1027,647	0,24
1028,065	0,24
1028,482	0,24
1028,9	0,24
1029,318	0,24
1029,735	0,24
1030,153	0,24
1030,571	0,24
1030,988	0,24
1031,406	0,24
1031,823	0,24
1032,241	0,24
1032,659	0,24
1033,076	0,24
1033,493	0,24
1033,911	0,24
1034,328	0,24
1034,746	0,24
1035,163	0,24
1035,58	0,23
1035,997	0,24
1036,415	0,23
1036,832	0,23
1037,249	0,23
1037,666	0,23
1038,083	0,23
1038,501	0,23
1038,918	0,23
1039,335	0,23
1039,752	0,23
1040,169	0,23
1040,586	0,23
1041,003	0,23
1041,419	0,23
1041,836	0,23
1042,253	0,23
1042,67	0,23
1043,087	0,23
1043,504	0,23
1043,92	0,23
1044,337	0,23
1044,754	0,22
1045,17	0,22
1045,587	0,22
1046,004	0,22
1046,42	0,22
1046,837	0,22
1047,253	0,22
1047,67	0,22
1048,086	0,22
1048,503	0,22
1048,919	0,22
1049,335	0,22
1049,752	0,22
1050,168	0,22
1050,584	0,22
1051,001	0,22
1051,417	0,22
1051,833	0,22
1052,249	0,22
1052,665	0,22
1053,081	0,22
1053,497	0,22
1053,914	0,22
1054,33	0,22
1054,746	0,23
1055,162	0,23
1055,578	0,23
1055,993	0,23
1056,409	0,23
1056,825	0,23
1057,241	0,23
1057,657	0,23
1058,073	0,23
1058,488	0,23
1058,904	0,23
1059,32	0,23
1059,736	0,23
1060,151	0,23
1060,567	0,23
1060,982	0,23
1061,398	0,23
1061,813	0,23
1062,229	0,23
1062,644	0,23
1063,06	0,23
1063,475	0,23
1063,891	0,23
1064,306	0,23
1064,721	0,23
1065,137	0,23
1065,552	0,23
1065,967	0,23
1066,382	0,23
1066,798	0,23
1067,213	0,23
1067,628	0,23
1068,043	0,23
1068,458	0,23
1068,873	0,23
1069,288	0,23
1069,703	0,23
1070,118	0,23
1070,533	0,23
1070,948	0,23
1071,363	0,23
1071,778	0,23
1072,193	0,23
1072,607	0,23
1073,022	0,23
1073,437	0,23
1073,852	0,23
1074,266	0,24
1074,681	0,24
1075,096	0,24
1075,51	0,23
1075,925	0,24
1076,339	0,23
1076,754	0,23
1077,168	0,23
1077,583	0,23
1077,997	0,23
1078,412	0,23
1078,826	0,23
1079,24	0,23
1079,655	0,23
1080,069	0,23
1080,483	0,23
1080,897	0,23
1081,312	0,23
1081,726	0,22
1082,14	0,22
1082,554	0,22
1082,968	0,22
1083,382	0,22
1083,796	0,22
1084,21	0,22
1084,624	0,22
1085,038	0,22
1085,452	0,22
1085,866	0,22
1086,28	0,22
1086,694	0,22
1087,108	0,22
1087,521	0,21
1087,935	0,21
1088,349	0,21
1088,763	0,21
1089,176	0,21
1089,59	0,21
1090,004	0,2
1090,417	0,2
1090,831	0,2
1091,244	0,2
1091,658	0,2
1092,071	0,2
1092,485	0,19
1092,898	0,19
1093,312	0,19
1093,725	0,19
1094,138	0,19
1094,552	0,19
1094,965	0,19
1095,378	0,19
1095,791	0,19
1096,205	0,18
1096,618	0,18
1097,031	0,18
1097,444	0,18
1097,857	0,18
1098,27	0,18
1098,683	0,17
1099,096	0,17
1099,509	0,17
1099,922	0,17
1100,335	0,16
1100,748	0,16
1101,161	0,16
1101,574	0,16
1101,986	0,15
1102,399	0,15
1102,812	0,15
1103,225	0,15
1103,637	0,14
1104,05	0,14
1104,463	0,14
1104,875	0,14
1105,288	0,13
1105,7	0,13
1106,113	0,13
1106,525	0,13
1106,938	0,12
1107,35	0,11
1107,763	0,11
1108,175	0,11
1108,588	0,11
1109	0,1
1109,412	0,1
1109,824	0,1
1110,237	0,09
1110,649	0,09
1111,061	0,08
