Data from 18C-808nm-8A_Absorbance__1343__01343.txt Node

Date: Mon Jul 17 17:12:20 CEST 2023
User: Laser008
Spectrometer: MAYP115816
Trigger mode: 0
Integration Time (sec): 2,500000E-1
Scans to average: 10
Electric dark correction enabled: true
Nonlinearity correction enabled: true
Boxcar width: 5
XAxis mode: Wavelengths
Number of Pixels in Spectrum: 2068
>>>>>Begin Spectral Data<<<<<
198,914	-0,7
199,384	-0,49
199,855	-0,38
200,325	-0,29
200,796	-0,26
201,266	-0,21
201,737	-0,19
202,207	-0,18
202,677	-0,17
203,147	-0,16
203,618	-0,13
204,088	-0,12
204,558	-0,11
205,028	-0,1
205,498	-0,1
205,968	-0,11
206,439	-0,12
206,909	-0,12
207,379	-0,12
207,849	-0,12
208,319	-0,13
208,789	-0,13
209,258	-0,13
209,728	-0,14
210,198	-0,13
210,668	-0,13
211,138	-0,12
211,608	-0,12
212,077	-0,12
212,547	-0,11
213,017	-0,11
213,486	-0,11
213,956	-0,12
214,426	-0,13
214,895	-0,13
215,365	-0,14
215,834	-0,14
216,304	-0,15
216,773	-0,15
217,243	-0,17
217,712	-0,19
218,181	-0,19
218,651	-0,19
219,12	-0,19
219,589	-0,19
220,058	-0,18
220,528	-0,18
220,997	-0,19
221,466	-0,2
221,935	-0,2
222,404	-0,2
222,873	-0,19
223,342	-0,19
223,812	-0,18
224,281	-0,18
224,749	-0,19
225,218	-0,21
225,687	-0,21
226,156	-0,2
226,625	-0,19
227,094	-0,19
227,563	-0,19
228,031	-0,2
228,5	-0,2
228,969	-0,21
229,438	-0,2
229,906	-0,19
230,375	-0,18
230,844	-0,18
231,312	-0,18
231,781	-0,19
232,249	-0,18
232,718	-0,18
233,186	-0,16
233,655	-0,16
234,123	-0,16
234,591	-0,16
235,06	-0,16
235,528	-0,16
235,996	-0,16
236,465	-0,16
236,933	-0,14
237,401	-0,15
237,869	-0,14
238,337	-0,15
238,805	-0,14
239,274	-0,14
239,742	-0,13
240,21	-0,13
240,678	-0,13
241,146	-0,13
241,614	-0,13
242,081	-0,13
242,549	-0,13
243,017	-0,13
243,485	-0,13
243,953	-0,13
244,421	-0,12
244,888	-0,12
245,356	-0,11
245,824	-0,12
246,291	-0,12
246,759	-0,12
247,227	-0,12
247,694	-0,12
248,162	-0,12
248,629	-0,1
249,097	-0,1
249,564	-0,11
250,032	-0,13
250,499	-0,13
250,967	-0,13
251,434	-0,14
251,901	-0,13
252,369	-0,13
252,836	-0,14
253,303	-0,16
253,77	-0,18
254,237	-0,18
254,705	-0,17
255,172	-0,16
255,639	-0,16
256,106	-0,18
256,573	-0,18
257,04	-0,19
257,507	-0,2
257,974	-0,19
258,441	-0,17
258,908	-0,17
259,375	-0,18
259,841	-0,18
260,308	-0,19
260,775	-0,19
261,242	-0,18
261,709	-0,18
262,175	-0,18
262,642	-0,17
263,109	-0,17
263,575	-0,19
264,042	-0,17
264,508	-0,17
264,975	-0,19
265,441	-0,2
265,908	-0,2
266,374	-0,19
266,841	-0,2
267,307	-0,21
267,773	-0,2
268,24	-0,2
268,706	-0,2
269,172	-0,22
269,639	-0,23
270,105	-0,21
270,571	-0,21
271,037	-0,21
271,503	-0,22
271,969	-0,22
272,435	-0,21
272,902	-0,22
273,368	-0,24
273,834	-0,23
274,3	-0,23
274,765	-0,23
275,231	-0,23
275,697	-0,23
276,163	-0,22
276,629	-0,23
277,095	-0,23
277,56	-0,23
278,026	-0,24
278,492	-0,22
278,958	-0,23
279,423	-0,23
279,889	-0,22
280,354	-0,23
280,82	-0,23
281,286	-0,25
281,751	-0,25
282,217	-0,24
282,682	-0,24
283,147	-0,24
283,613	-0,24
284,078	-0,23
284,544	-0,25
285,009	-0,26
285,474	-0,25
285,939	-0,26
286,405	-0,24
286,87	-0,23
287,335	-0,23
287,8	-0,23
288,265	-0,21
288,73	-0,23
289,195	-0,25
289,66	-0,24
290,125	-0,23
290,59	-0,22
291,055	-0,21
291,52	-0,21
291,985	-0,22
292,45	-0,23
292,915	-0,23
293,38	-0,23
293,844	-0,22
294,309	-0,21
294,774	-0,2
295,239	-0,22
295,703	-0,22
296,168	-0,22
296,632	-0,22
297,097	-0,2
297,562	-0,18
298,026	-0,19
298,491	-0,19
298,955	-0,19
299,419	-0,19
299,884	-0,19
300,348	-0,18
300,813	-0,17
301,277	-0,17
301,741	-0,16
302,205	-0,16
302,67	-0,16
303,134	-0,16
303,598	-0,16
304,062	-0,15
304,526	-0,14
304,99	-0,16
305,454	-0,16
305,919	-0,15
306,383	-0,16
306,847	-0,16
307,31	-0,17
307,774	-0,18
308,238	-0,17
308,702	-0,17
309,166	-0,18
309,63	-0,18
310,094	-0,15
310,557	-0,14
311,021	-0,14
311,485	-0,14
311,948	-0,13
312,412	-0,12
312,876	-0,11
313,339	-0,12
313,803	-0,12
314,266	-0,12
314,73	-0,13
315,193	-0,13
315,657	-0,12
316,12	-0,12
316,584	-0,11
317,047	-0,11
317,51	-0,1
317,973	-0,09
318,437	-0,09
318,9	-0,08
319,363	-0,06
319,826	-0,06
320,29	-0,07
320,753	-0,07
321,216	-0,07
321,679	-0,08
322,142	-0,08
322,605	-0,09
323,068	-0,09
323,531	-0,09
323,994	-0,09
324,457	-0,1
324,92	-0,09
325,382	-0,08
325,845	-0,08
326,308	-0,07
326,771	-0,06
327,233	-0,06
327,696	-0,05
328,159	-0,04
328,622	-0,02
329,084	-0,02
329,547	-0,02
330,009	-0,02
330,472	-0,01
330,934	-0,01
331,397	-0
331,859	0
332,322	0,01
332,784	0,01
333,246	0,02
333,709	0,01
334,171	0,02
334,633	0,03
335,096	0,04
335,558	0,04
336,02	0,04
336,482	0,04
336,944	0,05
337,406	0,06
337,868	0,05
338,331	0,06
338,793	0,07
339,255	0,07
339,717	0,08
340,178	0,08
340,64	0,08
341,102	0,08
341,564	0,09
342,026	0,1
342,488	0,11
342,949	0,12
343,411	0,14
343,873	0,16
344,335	0,18
344,796	0,21
345,258	0,25
345,719	0,28
346,181	0,32
346,643	0,35
347,104	0,37
347,566	0,39
348,027	0,41
348,488	0,43
348,95	0,44
349,411	0,46
349,873	0,47
350,334	0,48
350,795	0,49
351,256	0,5
351,718	0,5
352,179	0,51
352,64	0,51
353,101	0,51
353,562	0,52
354,023	0,52
354,484	0,52
354,945	0,52
355,406	0,52
355,867	0,52
356,328	0,52
356,789	0,52
357,25	0,53
357,711	0,53
358,172	0,53
358,633	0,53
359,093	0,53
359,554	0,53
360,015	0,53
360,476	0,53
360,936	0,53
361,397	0,53
361,858	0,53
362,318	0,53
362,779	0,53
363,239	0,54
363,7	0,54
364,16	0,54
364,621	0,54
365,081	0,54
365,541	0,54
366,002	0,54
366,462	0,54
366,922	0,54
367,383	0,53
367,843	0,53
368,303	0,53
368,763	0,53
369,223	0,53
369,684	0,53
370,144	0,53
370,604	0,54
371,064	0,54
371,524	0,53
371,984	0,53
372,444	0,53
372,904	0,53
373,363	0,53
373,823	0,53
374,283	0,53
374,743	0,53
375,203	0,53
375,663	0,53
376,122	0,53
376,582	0,53
377,042	0,53
377,501	0,53
377,961	0,53
378,42	0,53
378,88	0,53
379,34	0,53
379,799	0,53
380,259	0,53
380,718	0,53
381,177	0,53
381,637	0,53
382,096	0,53
382,555	0,53
383,015	0,53
383,474	0,53
383,933	0,53
384,393	0,53
384,852	0,53
385,311	0,52
385,77	0,52
386,229	0,52
386,688	0,52
387,147	0,52
387,606	0,52
388,065	0,52
388,524	0,52
388,983	0,52
389,442	0,52
389,901	0,52
390,36	0,52
390,819	0,52
391,277	0,52
391,736	0,52
392,195	0,52
392,654	0,52
393,112	0,52
393,571	0,52
394,03	0,52
394,488	0,52
394,947	0,52
395,405	0,52
395,864	0,52
396,322	0,52
396,781	0,52
397,239	0,52
397,698	0,52
398,156	0,52
398,614	0,52
399,073	0,52
399,531	0,52
399,989	0,52
400,447	0,52
400,905	0,52
401,364	0,52
401,822	0,52
402,28	0,51
402,738	0,51
403,196	0,51
403,654	0,51
404,112	0,51
404,57	0,51
405,028	0,51
405,486	0,51
405,944	0,51
406,402	0,51
406,859	0,51
407,317	0,51
407,775	0,51
408,233	0,51
408,691	0,51
409,148	0,51
409,606	0,51
410,064	0,51
410,521	0,51
410,979	0,51
411,436	0,51
411,894	0,51
412,351	0,51
412,809	0,51
413,266	0,51
413,724	0,51
414,181	0,51
414,638	0,51
415,096	0,51
415,553	0,51
416,01	0,51
416,467	0,51
416,925	0,51
417,382	0,51
417,839	0,51
418,296	0,51
418,753	0,51
419,21	0,51
419,667	0,51
420,124	0,51
420,581	0,51
421,038	0,51
421,495	0,51
421,952	0,5
422,409	0,5
422,866	0,51
423,322	0,51
423,779	0,51
424,236	0,51
424,693	0,51
425,149	0,51
425,606	0,51
426,063	0,51
426,519	0,51
426,976	0,51
427,433	0,51
427,889	0,51
428,346	0,51
428,802	0,51
429,258	0,51
429,715	0,5
430,171	0,5
430,628	0,5
431,084	0,5
431,54	0,5
431,997	0,5
432,453	0,5
432,909	0,5
433,365	0,5
433,821	0,5
434,277	0,5
434,734	0,5
435,19	0,5
435,646	0,5
436,102	0,5
436,558	0,5
437,014	0,5
437,47	0,5
437,925	0,5
438,381	0,5
438,837	0,5
439,293	0,5
439,749	0,5
440,205	0,5
440,66	0,5
441,116	0,5
441,572	0,5
442,027	0,5
442,483	0,5
442,939	0,5
443,394	0,5
443,85	0,5
444,305	0,5
444,761	0,5
445,216	0,5
445,672	0,5
446,127	0,5
446,582	0,5
447,038	0,5
447,493	0,5
447,948	0,5
448,403	0,5
448,859	0,5
449,314	0,5
449,769	0,5
450,224	0,5
450,679	0,5
451,134	0,5
451,589	0,5
452,044	0,5
452,499	0,5
452,954	0,5
453,409	0,5
453,864	0,5
454,319	0,5
454,774	0,5
455,229	0,5
455,684	0,5
456,138	0,51
456,593	0,51
457,048	0,51
457,503	0,51
457,957	0,51
458,412	0,51
458,866	0,51
459,321	0,51
459,776	0,51
460,23	0,51
460,685	0,51
461,139	0,51
461,593	0,51
462,048	0,51
462,502	0,51
462,957	0,51
463,411	0,51
463,865	0,51
464,319	0,51
464,774	0,51
465,228	0,51
465,682	0,51
466,136	0,51
466,59	0,51
467,044	0,51
467,499	0,52
467,953	0,52
468,407	0,52
468,861	0,52
469,315	0,52
469,768	0,52
470,222	0,52
470,676	0,52
471,13	0,52
471,584	0,52
472,038	0,52
472,491	0,52
472,945	0,52
473,399	0,52
473,852	0,52
474,306	0,52
474,76	0,52
475,213	0,52
475,667	0,52
476,12	0,53
476,574	0,53
477,027	0,53
477,481	0,53
477,934	0,53
478,388	0,53
478,841	0,53
479,294	0,53
479,748	0,53
480,201	0,54
480,654	0,54
481,107	0,54
481,561	0,54
482,014	0,54
482,467	0,54
482,92	0,54
483,373	0,54
483,826	0,55
484,279	0,55
484,732	0,55
485,185	0,55
485,638	0,55
486,091	0,55
486,544	0,55
486,997	0,55
487,449	0,56
487,902	0,56
488,355	0,56
488,808	0,56
489,26	0,56
489,713	0,57
490,166	0,57
490,618	0,57
491,071	0,57
491,523	0,57
491,976	0,58
492,429	0,58
492,881	0,58
493,333	0,58
493,786	0,58
494,238	0,59
494,691	0,59
495,143	0,59
495,595	0,59
496,048	0,6
496,5	0,6
496,952	0,6
497,404	0,6
497,856	0,61
498,309	0,61
498,761	0,61
499,213	0,61
499,665	0,62
500,117	0,62
500,569	0,62
501,021	0,63
501,473	0,63
501,925	0,63
502,377	0,63
502,828	0,64
503,28	0,64
503,732	0,64
504,184	0,65
504,636	0,65
505,087	0,65
505,539	0,65
505,991	0,66
506,442	0,66
506,894	0,66
507,345	0,66
507,797	0,67
508,249	0,67
508,7	0,67
509,151	0,68
509,603	0,68
510,054	0,68
510,506	0,69
510,957	0,69
511,408	0,69
511,86	0,69
512,311	0,7
512,762	0,7
513,213	0,7
513,665	0,7
514,116	0,71
514,567	0,71
515,018	0,71
515,469	0,71
515,92	0,72
516,371	0,72
516,822	0,72
517,273	0,72
517,724	0,73
518,175	0,73
518,626	0,73
519,076	0,73
519,527	0,73
519,978	0,73
520,429	0,74
520,88	0,74
521,33	0,74
521,781	0,74
522,232	0,74
522,682	0,74
523,133	0,74
523,583	0,75
524,034	0,75
524,484	0,75
524,935	0,75
525,385	0,75
525,836	0,75
526,286	0,75
526,736	0,75
527,187	0,75
527,637	0,75
528,087	0,75
528,538	0,75
528,988	0,75
529,438	0,75
529,888	0,75
530,338	0,75
530,788	0,75
531,238	0,75
531,688	0,75
532,139	0,74
532,589	0,74
533,038	0,74
533,488	0,74
533,938	0,74
534,388	0,74
534,838	0,74
535,288	0,74
535,738	0,73
536,187	0,73
536,637	0,73
537,087	0,73
537,537	0,72
537,986	0,72
538,436	0,72
538,885	0,72
539,335	0,71
539,785	0,71
540,234	0,71
540,684	0,7
541,133	0,7
541,582	0,7
542,032	0,69
542,481	0,69
542,931	0,69
543,38	0,68
543,829	0,68
544,278	0,68
544,728	0,67
545,177	0,67
545,626	0,67
546,075	0,67
546,524	0,66
546,973	0,66
547,422	0,66
547,871	0,65
548,32	0,65
548,769	0,65
549,218	0,65
549,667	0,65
550,116	0,65
550,565	0,64
551,014	0,64
551,463	0,64
551,911	0,64
552,36	0,63
552,809	0,63
553,258	0,63
553,706	0,62
554,155	0,62
554,603	0,62
555,052	0,62
555,501	0,61
555,949	0,61
556,398	0,61
556,846	0,6
557,294	0,6
557,743	0,6
558,191	0,6
558,64	0,59
559,088	0,59
559,536	0,58
559,985	0,58
560,433	0,58
560,881	0,58
561,329	0,57
561,777	0,57
562,225	0,57
562,674	0,57
563,122	0,56
563,57	0,56
564,018	0,56
564,466	0,56
564,914	0,55
565,362	0,55
565,809	0,55
566,257	0,54
566,705	0,54
567,153	0,54
567,601	0,54
568,048	0,53
568,496	0,53
568,944	0,53
569,392	0,53
569,839	0,52
570,287	0,52
570,734	0,52
571,182	0,52
571,63	0,51
572,077	0,51
572,525	0,51
572,972	0,51
573,419	0,5
573,867	0,5
574,314	0,5
574,761	0,5
575,209	0,49
575,656	0,49
576,103	0,49
576,551	0,49
576,998	0,49
577,445	0,49
577,892	0,48
578,339	0,48
578,786	0,48
579,233	0,48
579,68	0,48
580,127	0,48
580,574	0,47
581,021	0,47
581,468	0,47
581,915	0,47
582,362	0,47
582,809	0,46
583,255	0,46
583,702	0,46
584,149	0,46
584,596	0,46
585,042	0,46
585,489	0,45
585,936	0,45
586,382	0,45
586,829	0,45
587,275	0,45
587,722	0,45
588,168	0,45
588,615	0,45
589,061	0,44
589,508	0,44
589,954	0,44
590,4	0,44
590,847	0,44
591,293	0,44
591,739	0,44
592,185	0,44
592,632	0,44
593,078	0,43
593,524	0,43
593,97	0,43
594,416	0,43
594,862	0,43
595,308	0,43
595,754	0,43
596,2	0,43
596,646	0,43
597,092	0,42
597,538	0,42
597,984	0,42
598,43	0,42
598,876	0,42
599,321	0,42
599,767	0,42
600,213	0,42
600,659	0,42
601,104	0,42
601,55	0,41
601,995	0,41
602,441	0,41
602,887	0,41
603,332	0,41
603,778	0,41
604,223	0,41
604,668	0,41
605,114	0,41
605,559	0,41
606,005	0,41
606,45	0,41
606,895	0,41
607,341	0,41
607,786	0,41
608,231	0,4
608,676	0,4
609,121	0,4
609,566	0,39
610,012	0,39
610,457	0,39
610,902	0,38
611,347	0,38
611,792	0,38
612,237	0,38
612,682	0,38
613,127	0,38
613,571	0,38
614,016	0,38
614,461	0,38
614,906	0,39
615,351	0,39
615,795	0,39
616,24	0,39
616,685	0,39
617,129	0,39
617,574	0,39
618,019	0,39
618,463	0,39
618,908	0,39
619,352	0,39
619,797	0,39
620,241	0,39
620,686	0,39
621,13	0,39
621,574	0,38
622,019	0,38
622,463	0,38
622,907	0,38
623,352	0,38
623,796	0,38
624,24	0,38
624,684	0,38
625,128	0,38
625,572	0,38
626,016	0,38
626,461	0,38
626,905	0,38
627,349	0,38
627,793	0,38
628,236	0,38
628,68	0,38
629,124	0,38
629,568	0,38
630,012	0,38
630,456	0,38
630,9	0,37
631,343	0,37
631,787	0,37
632,231	0,37
632,674	0,37
633,118	0,37
633,562	0,37
634,005	0,37
634,449	0,37
634,892	0,37
635,336	0,37
635,779	0,37
636,223	0,37
636,666	0,37
637,109	0,37
637,553	0,37
637,996	0,37
638,439	0,37
638,883	0,37
639,326	0,37
639,769	0,37
640,212	0,37
640,655	0,37
641,099	0,37
641,542	0,37
641,985	0,37
642,428	0,37
642,871	0,37
643,314	0,37
643,757	0,37
644,2	0,37
644,643	0,37
645,085	0,37
645,528	0,37
645,971	0,36
646,414	0,36
646,857	0,36
647,299	0,36
647,742	0,36
648,185	0,36
648,627	0,36
649,07	0,36
649,513	0,36
649,955	0,36
650,398	0,36
650,84	0,36
651,283	0,36
651,725	0,36
652,168	0,36
652,61	0,36
653,052	0,36
653,495	0,36
653,937	0,28
654,379	0,22
654,821	0,23
655,264	0,23
655,706	0,23
656,148	0,23
656,59	0,23
657,032	0,23
657,474	0,23
657,916	0,23
658,358	0,22
658,8	0,28
659,242	0,36
659,684	0,36
660,126	0,36
660,568	0,36
661,01	0,36
661,452	0,36
661,894	0,36
662,335	0,36
662,777	0,36
663,219	0,36
663,661	0,35
664,102	0,35
664,544	0,35
664,985	0,35
665,427	0,35
665,869	0,35
666,31	0,35
666,752	0,35
667,193	0,35
667,634	0,35
668,076	0,35
668,517	0,35
668,959	0,35
669,4	0,35
669,841	0,35
670,282	0,35
670,724	0,35
671,165	0,35
671,606	0,35
672,047	0,35
672,488	0,35
672,929	0,35
673,37	0,35
673,811	0,35
674,252	0,35
674,693	0,35
675,134	0,35
675,575	0,35
676,016	0,35
676,457	0,35
676,898	0,35
677,339	0,35
677,78	0,35
678,22	0,35
678,661	0,35
679,102	0,35
679,542	0,35
679,983	0,35
680,424	0,35
680,864	0,35
681,305	0,35
681,745	0,35
682,186	0,35
682,626	0,35
683,067	0,35
683,507	0,35
683,948	0,35
684,388	0,35
684,828	0,35
685,269	0,34
685,709	0,34
686,149	0,34
686,589	0,34
687,029	0,34
687,47	0,34
687,91	0,34
688,35	0,34
688,79	0,34
689,23	0,34
689,67	0,34
690,11	0,34
690,55	0,34
690,99	0,34
691,43	0,34
691,87	0,34
692,31	0,34
692,749	0,34
693,189	0,33
693,629	0,33
694,069	0,33
694,508	0,33
694,948	0,33
695,388	0,33
695,827	0,33
696,267	0,34
696,706	0,34
697,146	0,34
697,586	0,34
698,025	0,34
698,464	0,34
698,904	0,34
699,343	0,34
699,783	0,34
700,222	0,34
700,661	0,34
701,101	0,34
701,54	0,34
701,979	0,34
702,418	0,34
702,857	0,34
703,297	0,34
703,736	0,34
704,175	0,34
704,614	0,34
705,053	0,34
705,492	0,34
705,931	0,33
706,37	0,33
706,809	0,33
707,248	0,33
707,687	0,33
708,125	0,33
708,564	0,33
709,003	0,33
709,442	0,33
709,88	0,33
710,319	0,33
710,758	0,33
711,196	0,33
711,635	0,33
712,074	0,33
712,512	0,33
712,951	0,33
713,389	0,33
713,828	0,33
714,266	0,33
714,705	0,32
715,143	0,32
715,581	0,32
716,02	0,32
716,458	0,32
716,896	0,32
717,334	0,32
717,773	0,32
718,211	0,32
718,649	0,32
719,087	0,32
719,525	0,32
719,963	0,32
720,401	0,32
720,839	0,32
721,277	0,32
721,715	0,32
722,153	0,32
722,591	0,32
723,029	0,32
723,467	0,32
723,905	0,32
724,342	0,32
724,78	0,32
725,218	0,32
725,656	0,32
726,093	0,32
726,531	0,32
726,969	0,32
727,406	0,32
727,844	0,32
728,281	0,32
728,719	0,32
729,156	0,32
729,594	0,32
730,031	0,32
730,469	0,32
730,906	0,32
731,343	0,32
731,781	0,32
732,218	0,32
732,655	0,32
733,092	0,32
733,53	0,32
733,967	0,32
734,404	0,32
734,841	0,32
735,278	0,32
735,715	0,32
736,152	0,32
736,589	0,32
737,026	0,32
737,463	0,31
737,9	0,31
738,337	0,31
738,774	0,31
739,211	0,31
739,647	0,31
740,084	0,31
740,521	0,31
740,958	0,31
741,394	0,31
741,831	0,31
742,268	0,31
742,704	0,31
743,141	0,31
743,577	0,3
744,014	0,3
744,45	0,3
744,887	0,3
745,323	0,3
745,76	0,3
746,196	0,3
746,632	0,3
747,069	0,3
747,505	0,3
747,941	0,3
748,378	0,3
748,814	0,3
749,25	0,3
749,686	0,3
750,122	0,3
750,558	0,3
750,994	0,31
751,43	0,31
751,866	0,31
752,302	0,31
752,738	0,31
753,174	0,31
753,61	0,31
754,046	0,31
754,482	0,31
754,918	0,31
755,354	0,31
755,789	0,31
756,225	0,31
756,661	0,31
757,096	0,31
757,532	0,31
757,968	0,31
758,403	0,31
758,839	0,3
759,274	0,3
759,71	0,3
760,145	0,29
760,581	0,29
761,016	0,29
761,452	0,28
761,887	0,28
762,322	0,28
762,758	0,27
763,193	0,27
763,628	0,26
764,063	0,26
764,499	0,25
764,934	0,25
765,369	0,24
765,804	0,24
766,239	0,24
766,674	0,23
767,109	0,22
767,544	0,22
767,979	0,21
768,414	0,2
768,849	0,2
769,284	0,19
769,719	0,17
770,154	0,17
770,588	0,16
771,023	0,15
771,458	0,14
771,893	0,13
772,327	0,12
772,762	0,11
773,197	0,1
773,631	0,09
774,066	0,09
774,5	0,08
774,935	0,07
775,369	0,06
775,804	0,05
776,238	0,05
776,673	0,04
777,107	0,03
777,541	0,02
777,976	0,01
778,41	0,01
778,844	-0
779,279	-0
779,713	-0,01
780,147	-0,02
780,581	-0,02
781,015	-0,03
781,449	-0,04
781,883	-0,04
782,317	-0,05
782,751	-0,06
783,185	-0,07
783,619	-0,07
784,053	-0,09
784,487	-0,1
784,921	-0,11
785,355	-0,11
785,789	-0,12
786,223	-0,13
786,656	-0,14
787,09	-0,15
787,524	-0,16
787,957	-0,17
788,391	-0,19
788,825	-0,2
789,258	-0,22
789,692	-0,23
790,125	-0,25
790,559	-0,27
790,992	-0,28
791,426	-0,3
791,859	-0,31
792,293	-0,34
792,726	-0,36
793,159	-0,38
793,593	-0,4
794,026	-0,41
794,459	-0,44
794,892	-0,47
795,326	-0,49
795,759	-0,52
796,192	-0,57
796,625	-0,61
797,058	-0,63
797,491	-0,68
797,924	-0,71
798,357	-0,76
798,79	-0,8
799,223	-0,85
799,656	-0,9
800,089	-0,95
800,522	-0,99
800,955	-1,04
801,387	-1,09
801,82	-1,15
802,253	-1,21
802,686	-1,29
803,118	-1,34
803,551	-1,4
803,984	-1,44
804,416	-1,47
804,849	-1,5
805,281	-1,59
805,714	-1,92
806,146	-2,4
806,579	-2,68
807,011	-2,85
807,444	-2,95
807,876	-3,05
808,308	-3,09
808,741	-3,12
809,173	-3,17
809,605	-3,19
810,037	-3,27
810,47	-3,19
810,902	-3,01
811,334	-2,86
811,766	-2,72
812,198	-2,5
812,63	-2,08
813,062	-1,82
813,494	-1,72
813,926	-1,62
814,358	-1,57
814,79	-1,49
815,222	-1,43
815,654	-1,38
816,086	-1,31
816,518	-1,26
816,949	-1,21
817,381	-1,16
817,813	-1,15
818,245	-1,11
818,676	-1,07
819,108	-1,04
819,54	-1,02
819,971	-1
820,403	-0,95
820,834	-0,93
821,266	-0,89
821,697	-0,86
822,129	-0,85
822,56	-0,82
822,991	-0,79
823,423	-0,76
823,854	-0,75
824,286	-0,73
824,717	-0,72
825,148	-0,7
825,579	-0,69
826,01	-0,67
826,442	-0,66
826,873	-0,65
827,304	-0,61
827,735	-0,61
828,166	-0,61
828,597	-0,6
829,028	-0,59
829,459	-0,6
829,89	-0,61
830,321	-0,56
830,752	-0,57
831,183	-0,56
831,613	-0,55
832,044	-0,55
832,475	-0,53
832,906	-0,55
833,336	-0,56
833,767	-0,56
834,198	-0,55
834,628	-0,53
835,059	-0,56
835,49	-0,57
835,92	-0,54
836,351	-0,55
836,781	-0,55
837,212	-0,56
837,642	-0,56
838,072	-0,53
838,503	-0,54
838,933	-0,51
839,364	-0,52
839,794	-0,5
840,224	-0,49
840,654	-0,53
841,085	-0,54
841,515	-0,51
841,945	-0,52
842,375	-0,48
842,805	-0,47
843,235	-0,46
843,665	-0,48
844,095	-0,46
844,525	-0,48
844,955	-0,48
845,385	-0,47
845,815	-0,45
846,245	-0,48
846,675	-0,49
847,105	-0,5
847,534	-0,5
847,964	-0,5
848,394	-0,48
848,824	-0,52
849,253	-0,51
849,683	-0,5
850,112	-0,52
850,542	-0,55
850,972	-0,55
851,401	-0,53
851,831	-0,52
852,26	-0,53
852,69	-0,55
853,119	-0,54
853,548	-0,54
853,978	-0,54
854,407	-0,52
854,836	-0,51
855,266	-0,5
855,695	-0,51
856,124	-0,52
856,553	-0,53
856,983	-0,55
857,412	-0,54
857,841	-0,56
858,27	-0,56
858,699	-0,57
859,128	-0,61
859,557	-0,62
859,986	-0,63
860,415	-0,6
860,844	-0,58
861,273	-0,58
861,702	-0,59
862,13	-0,57
862,559	-0,59
862,988	-0,56
863,417	-0,55
863,845	-0,54
864,274	-0,55
864,703	-0,55
865,131	-0,55
865,56	-0,56
865,989	-0,58
866,417	-0,55
866,846	-0,56
867,274	-0,56
867,703	-0,57
868,131	-0,59
868,559	-0,59
868,988	-0,61
869,416	-0,6
869,844	-0,61
870,273	-0,63
870,701	-0,62
871,129	-0,65
871,557	-0,66
871,986	-0,67
872,414	-0,68
872,842	-0,65
873,27	-0,63
873,698	-0,6
874,126	-0,64
874,554	-0,62
874,982	-0,62
875,41	-0,65
875,838	-0,59
876,266	-0,57
876,694	-0,57
877,122	-0,56
877,549	-0,62
877,977	-0,59
878,405	-0,61
878,833	-0,59
879,26	-0,58
879,688	-0,57
880,116	-0,55
880,543	-0,55
880,971	-0,54
881,399	-0,57
881,826	-0,57
882,254	-0,55
882,681	-0,6
883,109	-0,56
883,536	-0,57
883,963	-0,58
884,391	-0,57
884,818	-0,56
885,245	-0,6
885,673	-0,61
886,1	-0,58
886,527	-0,59
886,954	-0,55
887,381	-0,56
887,809	-0,57
888,236	-0,57
888,663	-0,59
889,09	-0,62
889,517	-0,64
889,944	-0,63
890,371	-0,62
890,798	-0,62
891,225	-0,62
891,652	-0,65
892,078	-0,62
892,505	-0,65
892,932	-0,61
893,359	-0,62
893,786	-0,61
894,212	-0,58
894,639	-0,59
895,066	-0,62
895,492	-0,56
895,919	-0,56
896,346	-0,56
896,772	-0,56
897,199	-0,53
897,625	-0,56
898,052	-0,52
898,478	-0,51
898,904	-0,53
899,331	-0,52
899,757	-0,54
900,183	-0,55
900,61	-0,54
901,036	-0,54
901,462	-0,55
901,888	-0,55
902,315	-0,53
902,741	-0,58
903,167	-0,57
903,593	-0,6
904,019	-0,6
904,445	-0,56
904,871	-0,6
905,297	-0,61
905,723	-0,6
906,149	-0,6
906,575	-0,6
907,001	-0,6
907,427	-0,57
907,852	-0,57
908,278	-0,57
908,704	-0,55
909,13	-0,54
909,555	-0,52
909,981	-0,52
910,407	-0,52
910,832	-0,52
911,258	-0,52
911,684	-0,52
912,109	-0,52
912,535	-0,53
912,96	-0,49
913,386	-0,53
913,811	-0,54
914,236	-0,55
914,662	-0,53
915,087	-0,57
915,512	-0,57
915,938	-0,59
916,363	-0,59
916,788	-0,6
917,213	-0,59
917,639	-0,63
918,064	-0,6
918,489	-0,6
918,914	-0,61
919,339	-0,63
919,764	-0,59
920,189	-0,59
920,614	-0,6
921,039	-0,6
921,464	-0,56
921,889	-0,6
922,314	-0,61
922,738	-0,64
923,163	-0,66
923,588	-0,65
924,013	-0,64
924,437	-0,65
924,862	-0,67
925,287	-0,63
925,711	-0,64
926,136	-0,65
926,561	-0,63
926,985	-0,62
927,41	-0,58
927,834	-0,56
928,259	-0,53
928,683	-0,51
929,108	-0,49
929,532	-0,49
929,956	-0,48
930,381	-0,46
930,805	-0,46
931,229	-0,46
931,653	-0,45
932,078	-0,44
932,502	-0,46
932,926	-0,47
933,35	-0,47
933,774	-0,46
934,198	-0,44
934,622	-0,43
935,046	-0,44
935,47	-0,45
935,894	-0,44
936,318	-0,44
936,742	-0,44
937,166	-0,44
937,59	-0,44
938,014	-0,46
938,437	-0,47
938,861	-0,49
939,285	-0,5
939,709	-0,49
940,132	-0,48
940,556	-0,49
940,98	-0,48
941,403	-0,47
941,827	-0,47
942,25	-0,48
942,674	-0,46
943,097	-0,46
943,521	-0,46
943,944	-0,47
944,368	-0,45
944,791	-0,45
945,214	-0,46
945,638	-0,48
946,061	-0,51
946,484	-0,52
946,907	-0,5
947,331	-0,5
947,754	-0,54
948,177	-0,52
948,6	-0,52
949,023	-0,52
949,446	-0,52
949,869	-0,49
950,292	-0,49
950,715	-0,45
951,138	-0,44
951,561	-0,43
951,984	-0,43
952,407	-0,41
952,83	-0,39
953,252	-0,36
953,675	-0,36
954,098	-0,37
954,521	-0,37
954,943	-0,36
955,366	-0,37
955,789	-0,34
956,211	-0,36
956,634	-0,36
957,056	-0,35
957,479	-0,35
957,902	-0,38
958,324	-0,38
958,746	-0,37
959,169	-0,38
959,591	-0,39
960,014	-0,4
960,436	-0,4
960,858	-0,39
961,281	-0,39
961,703	-0,4
962,125	-0,4
962,547	-0,38
962,969	-0,4
963,391	-0,39
963,814	-0,4
964,236	-0,38
964,658	-0,35
965,08	-0,37
965,502	-0,36
965,924	-0,34
966,346	-0,34
966,768	-0,34
967,189	-0,35
967,611	-0,35
968,033	-0,35
968,455	-0,33
968,877	-0,35
969,298	-0,36
969,72	-0,36
970,142	-0,35
970,563	-0,35
970,985	-0,34
971,407	-0,33
971,828	-0,31
972,25	-0,3
972,671	-0,29
973,093	-0,28
973,514	-0,26
973,936	-0,24
974,357	-0,22
974,778	-0,23
975,2	-0,23
975,621	-0,23
976,042	-0,21
976,464	-0,21
976,885	-0,2
977,306	-0,19
977,727	-0,19
978,148	-0,19
978,57	-0,18
978,991	-0,17
979,412	-0,15
979,833	-0,14
980,254	-0,13
980,675	-0,14
981,096	-0,12
981,517	-0,1
981,937	-0,11
982,358	-0,09
982,779	-0,07
983,2	-0,07
983,621	-0,07
984,042	-0,06
984,462	-0,05
984,883	-0,04
985,304	-0,02
985,724	-0,01
986,145	-0,01
986,565	0,01
986,986	0,02
987,407	0,03
987,827	0,04
988,248	0,06
988,668	0,07
989,088	0,08
989,509	0,08
989,929	0,1
990,35	0,1
990,77	0,11
991,19	0,12
991,61	0,13
992,031	0,14
992,451	0,15
992,871	0,15
993,291	0,16
993,711	0,16
994,131	0,17
994,551	0,17
994,971	0,18
995,391	0,18
995,811	0,19
996,231	0,19
996,651	0,19
997,071	0,2
997,491	0,21
997,911	0,21
998,331	0,22
998,75	0,22
999,17	0,23
999,59	0,23
1000,009	0,24
1000,429	0,24
1000,849	0,24
1001,268	0,25
1001,688	0,25
1002,107	0,25
1002,527	0,26
1002,946	0,26
1003,366	0,26
1003,785	0,26
1004,205	0,26
1004,624	0,27
1005,044	0,27
1005,463	0,27
1005,882	0,27
1006,301	0,27
1006,721	0,27
1007,14	0,27
1007,559	0,27
1007,978	0,28
1008,397	0,28
1008,816	0,28
1009,235	0,27
1009,655	0,27
1010,074	0,27
1010,492	0,27
1010,911	0,27
1011,33	0,27
1011,749	0,27
1012,168	0,27
1012,587	0,27
1013,006	0,27
1013,425	0,27
1013,843	0,26
1014,262	0,26
1014,681	0,26
1015,099	0,26
1015,518	0,26
1015,937	0,26
1016,355	0,26
1016,774	0,26
1017,192	0,26
1017,611	0,27
1018,029	0,27
1018,448	0,27
1018,866	0,27
1019,285	0,27
1019,703	0,27
1020,121	0,27
1020,54	0,27
1020,958	0,27
1021,376	0,27
1021,794	0,27
1022,213	0,27
1022,631	0,27
1023,049	0,27
1023,467	0,27
1023,885	0,27
1024,303	0,27
1024,721	0,27
1025,139	0,27
1025,557	0,26
1025,975	0,26
1026,393	0,26
1026,811	0,26
1027,229	0,26
1027,647	0,26
1028,065	0,26
1028,482	0,26
1028,9	0,26
1029,318	0,26
1029,735	0,26
1030,153	0,26
1030,571	0,26
1030,988	0,26
1031,406	0,26
1031,823	0,26
1032,241	0,26
1032,659	0,26
1033,076	0,26
1033,493	0,26
1033,911	0,26
1034,328	0,26
1034,746	0,26
1035,163	0,26
1035,58	0,26
1035,997	0,26
1036,415	0,26
1036,832	0,26
1037,249	0,26
1037,666	0,26
1038,083	0,26
1038,501	0,26
1038,918	0,26
1039,335	0,26
1039,752	0,26
1040,169	0,26
1040,586	0,25
1041,003	0,25
1041,419	0,26
1041,836	0,25
1042,253	0,25
1042,67	0,25
1043,087	0,25
1043,504	0,25
1043,92	0,25
1044,337	0,25
1044,754	0,25
1045,17	0,25
1045,587	0,25
1046,004	0,25
1046,42	0,25
1046,837	0,25
1047,253	0,25
1047,67	0,25
1048,086	0,24
1048,503	0,24
1048,919	0,25
1049,335	0,25
1049,752	0,25
1050,168	0,25
1050,584	0,25
1051,001	0,25
1051,417	0,25
1051,833	0,25
1052,249	0,25
1052,665	0,25
1053,081	0,25
1053,497	0,25
1053,914	0,25
1054,33	0,25
1054,746	0,25
1055,162	0,25
1055,578	0,25
1055,993	0,25
1056,409	0,25
1056,825	0,26
1057,241	0,26
1057,657	0,26
1058,073	0,26
1058,488	0,26
1058,904	0,26
1059,32	0,26
1059,736	0,26
1060,151	0,26
1060,567	0,26
1060,982	0,26
1061,398	0,26
1061,813	0,26
1062,229	0,26
1062,644	0,26
1063,06	0,26
1063,475	0,26
1063,891	0,25
1064,306	0,25
1064,721	0,25
1065,137	0,25
1065,552	0,25
1065,967	0,25
1066,382	0,25
1066,798	0,25
1067,213	0,25
1067,628	0,25
1068,043	0,25
1068,458	0,25
1068,873	0,25
1069,288	0,25
1069,703	0,25
1070,118	0,25
1070,533	0,26
1070,948	0,26
1071,363	0,26
1071,778	0,26
1072,193	0,26
1072,607	0,26
1073,022	0,26
1073,437	0,26
1073,852	0,26
1074,266	0,26
1074,681	0,26
1075,096	0,26
1075,51	0,26
1075,925	0,26
1076,339	0,26
1076,754	0,26
1077,168	0,26
1077,583	0,26
1077,997	0,26
1078,412	0,26
1078,826	0,26
1079,24	0,25
1079,655	0,25
1080,069	0,25
1080,483	0,25
1080,897	0,25
1081,312	0,25
1081,726	0,25
1082,14	0,25
1082,554	0,25
1082,968	0,25
1083,382	0,25
1083,796	0,25
1084,21	0,24
1084,624	0,24
1085,038	0,24
1085,452	0,24
1085,866	0,24
1086,28	0,24
1086,694	0,24
1087,108	0,24
1087,521	0,24
1087,935	0,24
1088,349	0,24
1088,763	0,23
1089,176	0,23
1089,59	0,23
1090,004	0,23
1090,417	0,23
1090,831	0,22
1091,244	0,22
1091,658	0,22
1092,071	0,22
1092,485	0,21
1092,898	0,21
1093,312	0,21
1093,725	0,21
1094,138	0,21
1094,552	0,21
1094,965	0,21
1095,378	0,21
1095,791	0,2
1096,205	0,2
1096,618	0,2
1097,031	0,2
1097,444	0,2
1097,857	0,2
1098,27	0,19
1098,683	0,19
1099,096	0,19
1099,509	0,19
1099,922	0,19
1100,335	0,18
1100,748	0,18
1101,161	0,17
1101,574	0,17
1101,986	0,17
1102,399	0,17
1102,812	0,17
1103,225	0,16
1103,637	0,16
1104,05	0,15
1104,463	0,15
1104,875	0,15
1105,288	0,15
1105,7	0,14
1106,113	0,14
1106,525	0,14
1106,938	0,14
1107,35	0,13
1107,763	0,13
1108,175	0,13
1108,588	0,12
1109	0,12
1109,412	0,11
1109,824	0,11
1110,237	0,12
1110,649	0,11
1111,061	0,1
