Data from 18C-808nm-8A_Absorbance__1278__01278.txt Node

Date: Mon Jul 17 17:09:38 CEST 2023
User: Laser008
Spectrometer: MAYP115816
Trigger mode: 0
Integration Time (sec): 2,500000E-1
Scans to average: 10
Electric dark correction enabled: true
Nonlinearity correction enabled: true
Boxcar width: 5
XAxis mode: Wavelengths
Number of Pixels in Spectrum: 2068
>>>>>Begin Spectral Data<<<<<
198,914	-0,67
199,384	-0,47
199,855	-0,35
200,325	-0,26
200,796	-0,23
201,266	-0,18
201,737	-0,17
202,207	-0,16
202,677	-0,16
203,147	-0,15
203,618	-0,13
204,088	-0,13
204,558	-0,11
205,028	-0,11
205,498	-0,12
205,968	-0,12
206,439	-0,13
206,909	-0,13
207,379	-0,14
207,849	-0,14
208,319	-0,14
208,789	-0,15
209,258	-0,14
209,728	-0,16
210,198	-0,16
210,668	-0,16
211,138	-0,15
211,608	-0,16
212,077	-0,15
212,547	-0,14
213,017	-0,14
213,486	-0,15
213,956	-0,15
214,426	-0,16
214,895	-0,15
215,365	-0,16
215,834	-0,16
216,304	-0,18
216,773	-0,18
217,243	-0,2
217,712	-0,21
218,181	-0,21
218,651	-0,21
219,12	-0,2
219,589	-0,2
220,058	-0,19
220,528	-0,19
220,997	-0,2
221,466	-0,21
221,935	-0,22
222,404	-0,22
222,873	-0,21
223,342	-0,21
223,812	-0,21
224,281	-0,21
224,749	-0,22
225,218	-0,23
225,687	-0,24
226,156	-0,22
226,625	-0,21
227,094	-0,2
227,563	-0,19
228,031	-0,21
228,5	-0,2
228,969	-0,21
229,438	-0,2
229,906	-0,19
230,375	-0,18
230,844	-0,18
231,312	-0,18
231,781	-0,18
232,249	-0,17
232,718	-0,17
233,186	-0,15
233,655	-0,16
234,123	-0,15
234,591	-0,16
235,06	-0,16
235,528	-0,17
235,996	-0,17
236,465	-0,17
236,933	-0,16
237,401	-0,17
237,869	-0,16
238,337	-0,17
238,805	-0,16
239,274	-0,16
239,742	-0,16
240,21	-0,16
240,678	-0,14
241,146	-0,14
241,614	-0,14
242,081	-0,14
242,549	-0,14
243,017	-0,15
243,485	-0,15
243,953	-0,14
244,421	-0,13
244,888	-0,13
245,356	-0,13
245,824	-0,13
246,291	-0,13
246,759	-0,13
247,227	-0,14
247,694	-0,13
248,162	-0,12
248,629	-0,11
249,097	-0,12
249,564	-0,13
250,032	-0,14
250,499	-0,14
250,967	-0,15
251,434	-0,15
251,901	-0,15
252,369	-0,15
252,836	-0,16
253,303	-0,18
253,77	-0,19
254,237	-0,18
254,705	-0,18
255,172	-0,17
255,639	-0,18
256,106	-0,19
256,573	-0,18
257,04	-0,19
257,507	-0,19
257,974	-0,19
258,441	-0,18
258,908	-0,18
259,375	-0,2
259,841	-0,2
260,308	-0,2
260,775	-0,2
261,242	-0,19
261,709	-0,2
262,175	-0,21
262,642	-0,2
263,109	-0,19
263,575	-0,2
264,042	-0,19
264,508	-0,18
264,975	-0,19
265,441	-0,21
265,908	-0,21
266,374	-0,2
266,841	-0,2
267,307	-0,2
267,773	-0,2
268,24	-0,21
268,706	-0,22
269,172	-0,22
269,639	-0,23
270,105	-0,21
270,571	-0,22
271,037	-0,22
271,503	-0,23
271,969	-0,22
272,435	-0,22
272,902	-0,24
273,368	-0,25
273,834	-0,24
274,3	-0,24
274,765	-0,24
275,231	-0,25
275,697	-0,24
276,163	-0,23
276,629	-0,23
277,095	-0,23
277,56	-0,22
278,026	-0,22
278,492	-0,2
278,958	-0,19
279,423	-0,2
279,889	-0,18
280,354	-0,19
280,82	-0,19
281,286	-0,21
281,751	-0,21
282,217	-0,21
282,682	-0,21
283,147	-0,23
283,613	-0,23
284,078	-0,24
284,544	-0,26
285,009	-0,27
285,474	-0,27
285,939	-0,28
286,405	-0,27
286,87	-0,26
287,335	-0,26
287,8	-0,25
288,265	-0,24
288,73	-0,25
289,195	-0,27
289,66	-0,26
290,125	-0,24
290,59	-0,24
291,055	-0,23
291,52	-0,23
291,985	-0,23
292,45	-0,24
292,915	-0,24
293,38	-0,24
293,844	-0,23
294,309	-0,21
294,774	-0,21
295,239	-0,22
295,703	-0,22
296,168	-0,22
296,632	-0,21
297,097	-0,2
297,562	-0,19
298,026	-0,2
298,491	-0,2
298,955	-0,19
299,419	-0,18
299,884	-0,19
300,348	-0,17
300,813	-0,16
301,277	-0,17
301,741	-0,17
302,205	-0,17
302,67	-0,17
303,134	-0,16
303,598	-0,16
304,062	-0,16
304,526	-0,15
304,99	-0,16
305,454	-0,17
305,919	-0,16
306,383	-0,15
306,847	-0,15
307,31	-0,15
307,774	-0,16
308,238	-0,16
308,702	-0,15
309,166	-0,16
309,63	-0,16
310,094	-0,14
310,557	-0,12
311,021	-0,13
311,485	-0,13
311,948	-0,13
312,412	-0,12
312,876	-0,12
313,339	-0,12
313,803	-0,14
314,266	-0,13
314,73	-0,13
315,193	-0,13
315,657	-0,13
316,12	-0,13
316,584	-0,12
317,047	-0,12
317,51	-0,11
317,973	-0,11
318,437	-0,09
318,9	-0,08
319,363	-0,08
319,826	-0,07
320,29	-0,08
320,753	-0,09
321,216	-0,08
321,679	-0,09
322,142	-0,08
322,605	-0,09
323,068	-0,09
323,531	-0,1
323,994	-0,1
324,457	-0,09
324,92	-0,08
325,382	-0,07
325,845	-0,07
326,308	-0,07
326,771	-0,06
327,233	-0,06
327,696	-0,05
328,159	-0,04
328,622	-0,03
329,084	-0,02
329,547	-0,02
330,009	-0,01
330,472	-0,01
330,934	0
331,397	0,01
331,859	0,02
332,322	0,02
332,784	0,02
333,246	0,03
333,709	0,02
334,171	0,03
334,633	0,03
335,096	0,02
335,558	0,02
336,02	0,02
336,482	0,02
336,944	0,02
337,406	0,03
337,868	0,03
338,331	0,03
338,793	0,04
339,255	0,04
339,717	0,04
340,178	0,05
340,64	0,06
341,102	0,06
341,564	0,07
342,026	0,08
342,488	0,08
342,949	0,1
343,411	0,12
343,873	0,14
344,335	0,17
344,796	0,2
345,258	0,23
345,719	0,26
346,181	0,29
346,643	0,32
347,104	0,34
347,566	0,36
348,027	0,38
348,488	0,39
348,95	0,4
349,411	0,41
349,873	0,43
350,334	0,44
350,795	0,45
351,256	0,45
351,718	0,46
352,179	0,46
352,64	0,46
353,101	0,47
353,562	0,47
354,023	0,47
354,484	0,47
354,945	0,47
355,406	0,47
355,867	0,47
356,328	0,47
356,789	0,48
357,25	0,48
357,711	0,48
358,172	0,48
358,633	0,48
359,093	0,48
359,554	0,48
360,015	0,49
360,476	0,49
360,936	0,49
361,397	0,49
361,858	0,48
362,318	0,48
362,779	0,48
363,239	0,49
363,7	0,49
364,16	0,49
364,621	0,49
365,081	0,49
365,541	0,49
366,002	0,49
366,462	0,49
366,922	0,48
367,383	0,48
367,843	0,48
368,303	0,48
368,763	0,48
369,223	0,48
369,684	0,48
370,144	0,48
370,604	0,48
371,064	0,48
371,524	0,48
371,984	0,48
372,444	0,48
372,904	0,48
373,363	0,48
373,823	0,48
374,283	0,48
374,743	0,48
375,203	0,48
375,663	0,48
376,122	0,48
376,582	0,48
377,042	0,48
377,501	0,48
377,961	0,48
378,42	0,48
378,88	0,48
379,34	0,48
379,799	0,48
380,259	0,48
380,718	0,48
381,177	0,48
381,637	0,48
382,096	0,48
382,555	0,48
383,015	0,48
383,474	0,48
383,933	0,48
384,393	0,47
384,852	0,47
385,311	0,47
385,77	0,47
386,229	0,47
386,688	0,47
387,147	0,47
387,606	0,47
388,065	0,47
388,524	0,47
388,983	0,47
389,442	0,47
389,901	0,47
390,36	0,47
390,819	0,47
391,277	0,47
391,736	0,47
392,195	0,47
392,654	0,47
393,112	0,47
393,571	0,47
394,03	0,47
394,488	0,47
394,947	0,47
395,405	0,47
395,864	0,47
396,322	0,47
396,781	0,47
397,239	0,47
397,698	0,47
398,156	0,47
398,614	0,47
399,073	0,47
399,531	0,47
399,989	0,47
400,447	0,47
400,905	0,47
401,364	0,47
401,822	0,46
402,28	0,46
402,738	0,46
403,196	0,46
403,654	0,46
404,112	0,46
404,57	0,46
405,028	0,46
405,486	0,46
405,944	0,46
406,402	0,46
406,859	0,46
407,317	0,46
407,775	0,46
408,233	0,46
408,691	0,46
409,148	0,46
409,606	0,46
410,064	0,46
410,521	0,46
410,979	0,46
411,436	0,46
411,894	0,46
412,351	0,46
412,809	0,46
413,266	0,46
413,724	0,46
414,181	0,46
414,638	0,46
415,096	0,46
415,553	0,46
416,01	0,46
416,467	0,46
416,925	0,46
417,382	0,46
417,839	0,46
418,296	0,46
418,753	0,46
419,21	0,46
419,667	0,46
420,124	0,45
420,581	0,45
421,038	0,45
421,495	0,45
421,952	0,45
422,409	0,45
422,866	0,45
423,322	0,45
423,779	0,45
424,236	0,45
424,693	0,45
425,149	0,45
425,606	0,45
426,063	0,45
426,519	0,45
426,976	0,45
427,433	0,45
427,889	0,45
428,346	0,45
428,802	0,45
429,258	0,45
429,715	0,45
430,171	0,45
430,628	0,45
431,084	0,45
431,54	0,45
431,997	0,45
432,453	0,45
432,909	0,45
433,365	0,45
433,821	0,45
434,277	0,45
434,734	0,45
435,19	0,45
435,646	0,45
436,102	0,45
436,558	0,45
437,014	0,45
437,47	0,45
437,925	0,45
438,381	0,45
438,837	0,45
439,293	0,45
439,749	0,45
440,205	0,45
440,66	0,45
441,116	0,45
441,572	0,45
442,027	0,45
442,483	0,45
442,939	0,45
443,394	0,45
443,85	0,45
444,305	0,45
444,761	0,45
445,216	0,45
445,672	0,45
446,127	0,45
446,582	0,45
447,038	0,45
447,493	0,45
447,948	0,45
448,403	0,45
448,859	0,45
449,314	0,45
449,769	0,45
450,224	0,45
450,679	0,45
451,134	0,45
451,589	0,45
452,044	0,45
452,499	0,45
452,954	0,45
453,409	0,45
453,864	0,45
454,319	0,45
454,774	0,45
455,229	0,45
455,684	0,45
456,138	0,45
456,593	0,45
457,048	0,45
457,503	0,45
457,957	0,45
458,412	0,45
458,866	0,45
459,321	0,45
459,776	0,45
460,23	0,45
460,685	0,45
461,139	0,45
461,593	0,46
462,048	0,46
462,502	0,46
462,957	0,46
463,411	0,46
463,865	0,46
464,319	0,46
464,774	0,46
465,228	0,46
465,682	0,46
466,136	0,46
466,59	0,46
467,044	0,46
467,499	0,46
467,953	0,46
468,407	0,46
468,861	0,46
469,315	0,46
469,768	0,46
470,222	0,46
470,676	0,47
471,13	0,47
471,584	0,47
472,038	0,47
472,491	0,47
472,945	0,47
473,399	0,47
473,852	0,47
474,306	0,47
474,76	0,47
475,213	0,47
475,667	0,47
476,12	0,47
476,574	0,47
477,027	0,47
477,481	0,47
477,934	0,48
478,388	0,48
478,841	0,48
479,294	0,48
479,748	0,48
480,201	0,48
480,654	0,48
481,107	0,48
481,561	0,48
482,014	0,49
482,467	0,49
482,92	0,49
483,373	0,49
483,826	0,49
484,279	0,49
484,732	0,49
485,185	0,49
485,638	0,5
486,091	0,5
486,544	0,5
486,997	0,5
487,449	0,5
487,902	0,5
488,355	0,5
488,808	0,5
489,26	0,51
489,713	0,51
490,166	0,51
490,618	0,51
491,071	0,51
491,523	0,52
491,976	0,52
492,429	0,52
492,881	0,52
493,333	0,52
493,786	0,53
494,238	0,53
494,691	0,53
495,143	0,53
495,595	0,54
496,048	0,54
496,5	0,54
496,952	0,54
497,404	0,54
497,856	0,55
498,309	0,55
498,761	0,55
499,213	0,56
499,665	0,56
500,117	0,56
500,569	0,56
501,021	0,57
501,473	0,57
501,925	0,57
502,377	0,57
502,828	0,58
503,28	0,58
503,732	0,58
504,184	0,59
504,636	0,59
505,087	0,59
505,539	0,59
505,991	0,6
506,442	0,6
506,894	0,6
507,345	0,6
507,797	0,61
508,249	0,61
508,7	0,61
509,151	0,62
509,603	0,62
510,054	0,62
510,506	0,62
510,957	0,63
511,408	0,63
511,86	0,63
512,311	0,63
512,762	0,64
513,213	0,64
513,665	0,64
514,116	0,64
514,567	0,65
515,018	0,65
515,469	0,65
515,92	0,65
516,371	0,66
516,822	0,66
517,273	0,66
517,724	0,66
518,175	0,66
518,626	0,67
519,076	0,67
519,527	0,67
519,978	0,67
520,429	0,67
520,88	0,67
521,33	0,67
521,781	0,68
522,232	0,68
522,682	0,68
523,133	0,68
523,583	0,68
524,034	0,68
524,484	0,68
524,935	0,68
525,385	0,68
525,836	0,68
526,286	0,68
526,736	0,68
527,187	0,68
527,637	0,68
528,087	0,68
528,538	0,68
528,988	0,68
529,438	0,68
529,888	0,68
530,338	0,68
530,788	0,68
531,238	0,68
531,688	0,68
532,139	0,68
532,589	0,68
533,038	0,68
533,488	0,68
533,938	0,68
534,388	0,68
534,838	0,67
535,288	0,67
535,738	0,67
536,187	0,67
536,637	0,67
537,087	0,66
537,537	0,66
537,986	0,66
538,436	0,66
538,885	0,65
539,335	0,65
539,785	0,65
540,234	0,65
540,684	0,64
541,133	0,64
541,582	0,64
542,032	0,63
542,481	0,63
542,931	0,63
543,38	0,63
543,829	0,62
544,278	0,62
544,728	0,62
545,177	0,61
545,626	0,61
546,075	0,61
546,524	0,6
546,973	0,6
547,422	0,6
547,871	0,6
548,32	0,6
548,769	0,59
549,218	0,59
549,667	0,59
550,116	0,59
550,565	0,59
551,014	0,58
551,463	0,58
551,911	0,58
552,36	0,58
552,809	0,57
553,258	0,57
553,706	0,57
554,155	0,57
554,603	0,56
555,052	0,56
555,501	0,56
555,949	0,56
556,398	0,55
556,846	0,55
557,294	0,55
557,743	0,55
558,191	0,54
558,64	0,54
559,088	0,54
559,536	0,53
559,985	0,53
560,433	0,53
560,881	0,52
561,329	0,52
561,777	0,52
562,225	0,52
562,674	0,51
563,122	0,51
563,57	0,51
564,018	0,51
564,466	0,5
564,914	0,5
565,362	0,5
565,809	0,5
566,257	0,49
566,705	0,49
567,153	0,49
567,601	0,49
568,048	0,48
568,496	0,48
568,944	0,48
569,392	0,48
569,839	0,47
570,287	0,47
570,734	0,47
571,182	0,47
571,63	0,46
572,077	0,46
572,525	0,46
572,972	0,46
573,419	0,46
573,867	0,45
574,314	0,45
574,761	0,45
575,209	0,45
575,656	0,44
576,103	0,44
576,551	0,44
576,998	0,44
577,445	0,44
577,892	0,44
578,339	0,44
578,786	0,43
579,233	0,43
579,68	0,43
580,127	0,43
580,574	0,43
581,021	0,43
581,468	0,42
581,915	0,42
582,362	0,42
582,809	0,42
583,255	0,42
583,702	0,42
584,149	0,42
584,596	0,41
585,042	0,41
585,489	0,41
585,936	0,41
586,382	0,41
586,829	0,41
587,275	0,41
587,722	0,41
588,168	0,4
588,615	0,4
589,061	0,4
589,508	0,4
589,954	0,4
590,4	0,4
590,847	0,4
591,293	0,39
591,739	0,39
592,185	0,39
592,632	0,39
593,078	0,39
593,524	0,39
593,97	0,39
594,416	0,39
594,862	0,39
595,308	0,39
595,754	0,39
596,2	0,38
596,646	0,38
597,092	0,38
597,538	0,38
597,984	0,38
598,43	0,38
598,876	0,38
599,321	0,38
599,767	0,38
600,213	0,38
600,659	0,38
601,104	0,37
601,55	0,37
601,995	0,37
602,441	0,37
602,887	0,37
603,332	0,37
603,778	0,37
604,223	0,37
604,668	0,37
605,114	0,37
605,559	0,37
606,005	0,37
606,45	0,37
606,895	0,37
607,341	0,37
607,786	0,36
608,231	0,36
608,676	0,36
609,121	0,36
609,566	0,35
610,012	0,35
610,457	0,35
610,902	0,35
611,347	0,34
611,792	0,34
612,237	0,34
612,682	0,34
613,127	0,34
613,571	0,34
614,016	0,34
614,461	0,34
614,906	0,35
615,351	0,35
615,795	0,35
616,24	0,35
616,685	0,35
617,129	0,35
617,574	0,35
618,019	0,35
618,463	0,35
618,908	0,35
619,352	0,35
619,797	0,35
620,241	0,35
620,686	0,35
621,13	0,34
621,574	0,34
622,019	0,34
622,463	0,34
622,907	0,34
623,352	0,34
623,796	0,34
624,24	0,34
624,684	0,34
625,128	0,34
625,572	0,34
626,016	0,34
626,461	0,34
626,905	0,34
627,349	0,34
627,793	0,34
628,236	0,34
628,68	0,34
629,124	0,34
629,568	0,34
630,012	0,34
630,456	0,34
630,9	0,33
631,343	0,34
631,787	0,33
632,231	0,33
632,674	0,33
633,118	0,33
633,562	0,33
634,005	0,33
634,449	0,33
634,892	0,33
635,336	0,33
635,779	0,33
636,223	0,33
636,666	0,33
637,109	0,33
637,553	0,33
637,996	0,33
638,439	0,33
638,883	0,33
639,326	0,33
639,769	0,33
640,212	0,33
640,655	0,33
641,099	0,33
641,542	0,33
641,985	0,33
642,428	0,33
642,871	0,33
643,314	0,33
643,757	0,33
644,2	0,33
644,643	0,33
645,085	0,33
645,528	0,33
645,971	0,32
646,414	0,32
646,857	0,32
647,299	0,32
647,742	0,32
648,185	0,32
648,627	0,32
649,07	0,32
649,513	0,32
649,955	0,32
650,398	0,32
650,84	0,32
651,283	0,32
651,725	0,32
652,168	0,32
652,61	0,32
653,052	0,32
653,495	0,32
653,937	0,25
654,379	0,2
654,821	0,2
655,264	0,2
655,706	0,2
656,148	0,2
656,59	0,2
657,032	0,21
657,474	0,21
657,916	0,2
658,358	0,2
658,8	0,25
659,242	0,32
659,684	0,32
660,126	0,32
660,568	0,32
661,01	0,32
661,452	0,32
661,894	0,32
662,335	0,32
662,777	0,32
663,219	0,32
663,661	0,31
664,102	0,31
664,544	0,31
664,985	0,31
665,427	0,31
665,869	0,31
666,31	0,31
666,752	0,31
667,193	0,31
667,634	0,31
668,076	0,31
668,517	0,31
668,959	0,31
669,4	0,31
669,841	0,31
670,282	0,31
670,724	0,31
671,165	0,31
671,606	0,31
672,047	0,31
672,488	0,31
672,929	0,31
673,37	0,31
673,811	0,31
674,252	0,31
674,693	0,31
675,134	0,31
675,575	0,31
676,016	0,31
676,457	0,31
676,898	0,31
677,339	0,31
677,78	0,31
678,22	0,31
678,661	0,31
679,102	0,31
679,542	0,31
679,983	0,31
680,424	0,31
680,864	0,31
681,305	0,31
681,745	0,31
682,186	0,31
682,626	0,31
683,067	0,31
683,507	0,31
683,948	0,31
684,388	0,31
684,828	0,31
685,269	0,31
685,709	0,3
686,149	0,3
686,589	0,3
687,029	0,3
687,47	0,3
687,91	0,3
688,35	0,3
688,79	0,3
689,23	0,3
689,67	0,3
690,11	0,3
690,55	0,3
690,99	0,3
691,43	0,3
691,87	0,3
692,31	0,3
692,749	0,3
693,189	0,29
693,629	0,29
694,069	0,29
694,508	0,29
694,948	0,29
695,388	0,29
695,827	0,29
696,267	0,3
696,706	0,3
697,146	0,3
697,586	0,3
698,025	0,3
698,464	0,3
698,904	0,3
699,343	0,3
699,783	0,3
700,222	0,3
700,661	0,3
701,101	0,3
701,54	0,3
701,979	0,3
702,418	0,3
702,857	0,3
703,297	0,3
703,736	0,3
704,175	0,3
704,614	0,3
705,053	0,3
705,492	0,29
705,931	0,29
706,37	0,29
706,809	0,29
707,248	0,29
707,687	0,29
708,125	0,29
708,564	0,29
709,003	0,29
709,442	0,29
709,88	0,29
710,319	0,29
710,758	0,29
711,196	0,29
711,635	0,29
712,074	0,29
712,512	0,29
712,951	0,29
713,389	0,29
713,828	0,29
714,266	0,29
714,705	0,28
715,143	0,28
715,581	0,28
716,02	0,28
716,458	0,28
716,896	0,28
717,334	0,28
717,773	0,28
718,211	0,28
718,649	0,28
719,087	0,28
719,525	0,28
719,963	0,28
720,401	0,28
720,839	0,28
721,277	0,28
721,715	0,28
722,153	0,28
722,591	0,28
723,029	0,28
723,467	0,28
723,905	0,28
724,342	0,28
724,78	0,28
725,218	0,28
725,656	0,28
726,093	0,28
726,531	0,28
726,969	0,28
727,406	0,28
727,844	0,28
728,281	0,28
728,719	0,28
729,156	0,28
729,594	0,28
730,031	0,28
730,469	0,28
730,906	0,28
731,343	0,28
731,781	0,28
732,218	0,28
732,655	0,28
733,092	0,28
733,53	0,28
733,967	0,28
734,404	0,28
734,841	0,28
735,278	0,28
735,715	0,28
736,152	0,28
736,589	0,28
737,026	0,27
737,463	0,27
737,9	0,27
738,337	0,27
738,774	0,27
739,211	0,27
739,647	0,27
740,084	0,27
740,521	0,27
740,958	0,27
741,394	0,27
741,831	0,27
742,268	0,27
742,704	0,27
743,141	0,26
743,577	0,26
744,014	0,26
744,45	0,26
744,887	0,26
745,323	0,26
745,76	0,26
746,196	0,26
746,632	0,26
747,069	0,26
747,505	0,26
747,941	0,26
748,378	0,26
748,814	0,26
749,25	0,26
749,686	0,26
750,122	0,26
750,558	0,26
750,994	0,27
751,43	0,27
751,866	0,27
752,302	0,27
752,738	0,27
753,174	0,27
753,61	0,27
754,046	0,27
754,482	0,27
754,918	0,27
755,354	0,27
755,789	0,28
756,225	0,27
756,661	0,27
757,096	0,27
757,532	0,27
757,968	0,27
758,403	0,27
758,839	0,27
759,274	0,26
759,71	0,26
760,145	0,26
760,581	0,25
761,016	0,25
761,452	0,25
761,887	0,25
762,322	0,24
762,758	0,24
763,193	0,24
763,628	0,23
764,063	0,22
764,499	0,22
764,934	0,21
765,369	0,21
765,804	0,2
766,239	0,2
766,674	0,19
767,109	0,19
767,544	0,18
767,979	0,18
768,414	0,17
768,849	0,16
769,284	0,16
769,719	0,15
770,154	0,14
770,588	0,14
771,023	0,13
771,458	0,12
771,893	0,11
772,327	0,1
772,762	0,09
773,197	0,08
773,631	0,08
774,066	0,07
774,5	0,06
774,935	0,06
775,369	0,05
775,804	0,04
776,238	0,03
776,673	0,02
777,107	0,01
777,541	0,01
777,976	-0
778,41	-0,01
778,844	-0,01
779,279	-0,02
779,713	-0,03
780,147	-0,03
780,581	-0,04
781,015	-0,04
781,449	-0,05
781,883	-0,06
782,317	-0,07
782,751	-0,08
783,185	-0,09
783,619	-0,1
784,053	-0,1
784,487	-0,11
784,921	-0,12
785,355	-0,12
785,789	-0,14
786,223	-0,14
786,656	-0,16
787,09	-0,17
787,524	-0,17
787,957	-0,18
788,391	-0,19
788,825	-0,2
789,258	-0,21
789,692	-0,22
790,125	-0,24
790,559	-0,25
790,992	-0,27
791,426	-0,29
791,859	-0,3
792,293	-0,34
792,726	-0,35
793,159	-0,37
793,593	-0,39
794,026	-0,41
794,459	-0,44
794,892	-0,47
795,326	-0,5
795,759	-0,53
796,192	-0,57
796,625	-0,62
797,058	-0,64
797,491	-0,69
797,924	-0,72
798,357	-0,77
798,79	-0,82
799,223	-0,86
799,656	-0,91
800,089	-0,96
800,522	-1
800,955	-1,04
801,387	-1,1
801,82	-1,15
802,253	-1,21
802,686	-1,29
803,118	-1,35
803,551	-1,4
803,984	-1,44
804,416	-1,48
804,849	-1,51
805,281	-1,62
805,714	-1,97
806,146	-2,44
806,579	-2,7
807,011	-2,87
807,444	-2,96
807,876	-3,05
808,308	-3,08
808,741	-3,11
809,173	-3,16
809,605	-3,19
810,037	-3,26
810,47	-3,18
810,902	-2,99
811,334	-2,84
811,766	-2,68
812,198	-2,44
812,63	-2,02
813,062	-1,8
813,494	-1,7
813,926	-1,61
814,358	-1,56
814,79	-1,48
815,222	-1,42
815,654	-1,37
816,086	-1,3
816,518	-1,25
816,949	-1,2
817,381	-1,15
817,813	-1,14
818,245	-1,09
818,676	-1,05
819,108	-1,02
819,54	-1,01
819,971	-0,99
820,403	-0,94
820,834	-0,92
821,266	-0,88
821,697	-0,85
822,129	-0,84
822,56	-0,81
822,991	-0,79
823,423	-0,76
823,854	-0,76
824,286	-0,73
824,717	-0,71
825,148	-0,69
825,579	-0,68
826,01	-0,67
826,442	-0,66
826,873	-0,65
827,304	-0,61
827,735	-0,6
828,166	-0,6
828,597	-0,6
829,028	-0,6
829,459	-0,61
829,89	-0,61
830,321	-0,57
830,752	-0,57
831,183	-0,56
831,613	-0,55
832,044	-0,56
832,475	-0,55
832,906	-0,57
833,336	-0,57
833,767	-0,57
834,198	-0,55
834,628	-0,53
835,059	-0,55
835,49	-0,57
835,92	-0,55
836,351	-0,54
836,781	-0,55
837,212	-0,55
837,642	-0,55
838,072	-0,53
838,503	-0,54
838,933	-0,54
839,364	-0,55
839,794	-0,53
840,224	-0,52
840,654	-0,55
841,085	-0,55
841,515	-0,52
841,945	-0,53
842,375	-0,48
842,805	-0,48
843,235	-0,46
843,665	-0,47
844,095	-0,46
844,525	-0,48
844,955	-0,48
845,385	-0,46
845,815	-0,45
846,245	-0,48
846,675	-0,48
847,105	-0,5
847,534	-0,49
847,964	-0,48
848,394	-0,47
848,824	-0,5
849,253	-0,49
849,683	-0,49
850,112	-0,51
850,542	-0,54
850,972	-0,54
851,401	-0,52
851,831	-0,51
852,26	-0,52
852,69	-0,56
853,119	-0,55
853,548	-0,55
853,978	-0,55
854,407	-0,52
854,836	-0,52
855,266	-0,51
855,695	-0,53
856,124	-0,54
856,553	-0,55
856,983	-0,57
857,412	-0,55
857,841	-0,56
858,27	-0,57
858,699	-0,58
859,128	-0,61
859,557	-0,62
859,986	-0,63
860,415	-0,6
860,844	-0,58
861,273	-0,58
861,702	-0,59
862,13	-0,58
862,559	-0,59
862,988	-0,57
863,417	-0,56
863,845	-0,55
864,274	-0,55
864,703	-0,55
865,131	-0,55
865,56	-0,57
865,989	-0,59
866,417	-0,56
866,846	-0,57
867,274	-0,55
867,703	-0,56
868,131	-0,58
868,559	-0,58
868,988	-0,6
869,416	-0,6
869,844	-0,61
870,273	-0,63
870,701	-0,61
871,129	-0,64
871,557	-0,66
871,986	-0,67
872,414	-0,69
872,842	-0,66
873,27	-0,64
873,698	-0,62
874,126	-0,65
874,554	-0,63
874,982	-0,63
875,41	-0,66
875,838	-0,61
876,266	-0,58
876,694	-0,59
877,122	-0,58
877,549	-0,64
877,977	-0,61
878,405	-0,63
878,833	-0,59
879,26	-0,57
879,688	-0,57
880,116	-0,55
880,543	-0,54
880,971	-0,54
881,399	-0,56
881,826	-0,56
882,254	-0,54
882,681	-0,58
883,109	-0,54
883,536	-0,56
883,963	-0,58
884,391	-0,56
884,818	-0,55
885,245	-0,59
885,673	-0,6
886,1	-0,57
886,527	-0,57
886,954	-0,54
887,381	-0,56
887,809	-0,58
888,236	-0,58
888,663	-0,58
889,09	-0,63
889,517	-0,65
889,944	-0,64
890,371	-0,63
890,798	-0,64
891,225	-0,64
891,652	-0,66
892,078	-0,63
892,505	-0,65
892,932	-0,61
893,359	-0,62
893,786	-0,61
894,212	-0,58
894,639	-0,61
895,066	-0,63
895,492	-0,57
895,919	-0,57
896,346	-0,57
896,772	-0,58
897,199	-0,55
897,625	-0,58
898,052	-0,54
898,478	-0,53
898,904	-0,55
899,331	-0,53
899,757	-0,55
900,183	-0,56
900,61	-0,54
901,036	-0,55
901,462	-0,55
901,888	-0,54
902,315	-0,53
902,741	-0,58
903,167	-0,57
903,593	-0,6
904,019	-0,59
904,445	-0,56
904,871	-0,58
905,297	-0,61
905,723	-0,6
906,149	-0,59
906,575	-0,6
907,001	-0,59
907,427	-0,56
907,852	-0,56
908,278	-0,56
908,704	-0,54
909,13	-0,53
909,555	-0,52
909,981	-0,52
910,407	-0,52
910,832	-0,52
911,258	-0,53
911,684	-0,53
912,109	-0,53
912,535	-0,54
912,96	-0,5
913,386	-0,54
913,811	-0,54
914,236	-0,55
914,662	-0,53
915,087	-0,56
915,512	-0,57
915,938	-0,58
916,363	-0,57
916,788	-0,59
917,213	-0,57
917,639	-0,62
918,064	-0,59
918,489	-0,6
918,914	-0,6
919,339	-0,62
919,764	-0,59
920,189	-0,59
920,614	-0,61
921,039	-0,61
921,464	-0,57
921,889	-0,6
922,314	-0,61
922,738	-0,64
923,163	-0,65
923,588	-0,65
924,013	-0,65
924,437	-0,65
924,862	-0,67
925,287	-0,63
925,711	-0,63
926,136	-0,64
926,561	-0,62
926,985	-0,61
927,41	-0,58
927,834	-0,55
928,259	-0,52
928,683	-0,5
929,108	-0,48
929,532	-0,49
929,956	-0,49
930,381	-0,48
930,805	-0,48
931,229	-0,48
931,653	-0,47
932,078	-0,47
932,502	-0,48
932,926	-0,49
933,35	-0,49
933,774	-0,48
934,198	-0,45
934,622	-0,44
935,046	-0,45
935,47	-0,46
935,894	-0,45
936,318	-0,45
936,742	-0,45
937,166	-0,46
937,59	-0,45
938,014	-0,48
938,437	-0,48
938,861	-0,5
939,285	-0,51
939,709	-0,49
940,132	-0,49
940,556	-0,5
940,98	-0,5
941,403	-0,48
941,827	-0,49
942,25	-0,5
942,674	-0,48
943,097	-0,48
943,521	-0,48
943,944	-0,5
944,368	-0,49
944,791	-0,47
945,214	-0,49
945,638	-0,51
946,061	-0,53
946,484	-0,54
946,907	-0,53
947,331	-0,52
947,754	-0,56
948,177	-0,53
948,6	-0,52
949,023	-0,52
949,446	-0,52
949,869	-0,5
950,292	-0,5
950,715	-0,46
951,138	-0,46
951,561	-0,43
951,984	-0,44
952,407	-0,43
952,83	-0,42
953,252	-0,38
953,675	-0,38
954,098	-0,39
954,521	-0,37
954,943	-0,36
955,366	-0,38
955,789	-0,36
956,211	-0,38
956,634	-0,39
957,056	-0,37
957,479	-0,38
957,902	-0,4
958,324	-0,4
958,746	-0,38
959,169	-0,4
959,591	-0,39
960,014	-0,4
960,436	-0,39
960,858	-0,38
961,281	-0,38
961,703	-0,39
962,125	-0,39
962,547	-0,37
962,969	-0,38
963,391	-0,39
963,814	-0,4
964,236	-0,38
964,658	-0,35
965,08	-0,36
965,502	-0,35
965,924	-0,33
966,346	-0,33
966,768	-0,32
967,189	-0,34
967,611	-0,34
968,033	-0,34
968,455	-0,32
968,877	-0,33
969,298	-0,35
969,72	-0,36
970,142	-0,35
970,563	-0,36
970,985	-0,34
971,407	-0,33
971,828	-0,31
972,25	-0,3
972,671	-0,29
973,093	-0,29
973,514	-0,28
973,936	-0,26
974,357	-0,24
974,778	-0,25
975,2	-0,24
975,621	-0,24
976,042	-0,22
976,464	-0,21
976,885	-0,21
977,306	-0,2
977,727	-0,2
978,148	-0,18
978,57	-0,18
978,991	-0,16
979,412	-0,15
979,833	-0,14
980,254	-0,14
980,675	-0,15
981,096	-0,13
981,517	-0,12
981,937	-0,12
982,358	-0,1
982,779	-0,09
983,2	-0,09
983,621	-0,09
984,042	-0,07
984,462	-0,06
984,883	-0,05
985,304	-0,04
985,724	-0,04
986,145	-0,03
986,565	-0,01
986,986	-0,01
987,407	-0
987,827	0,01
988,248	0,03
988,668	0,03
989,088	0,04
989,509	0,05
989,929	0,06
990,35	0,07
990,77	0,08
991,19	0,09
991,61	0,1
992,031	0,11
992,451	0,11
992,871	0,12
993,291	0,12
993,711	0,13
994,131	0,13
994,551	0,14
994,971	0,15
995,391	0,15
995,811	0,15
996,231	0,16
996,651	0,16
997,071	0,17
997,491	0,17
997,911	0,18
998,331	0,19
998,75	0,19
999,17	0,19
999,59	0,2
1000,009	0,2
1000,429	0,2
1000,849	0,21
1001,268	0,21
1001,688	0,21
1002,107	0,21
1002,527	0,22
1002,946	0,22
1003,366	0,22
1003,785	0,22
1004,205	0,22
1004,624	0,22
1005,044	0,23
1005,463	0,23
1005,882	0,23
1006,301	0,23
1006,721	0,23
1007,14	0,23
1007,559	0,23
1007,978	0,23
1008,397	0,23
1008,816	0,23
1009,235	0,23
1009,655	0,23
1010,074	0,23
1010,492	0,23
1010,911	0,23
1011,33	0,22
1011,749	0,22
1012,168	0,22
1012,587	0,22
1013,006	0,22
1013,425	0,22
1013,843	0,22
1014,262	0,22
1014,681	0,22
1015,099	0,22
1015,518	0,22
1015,937	0,22
1016,355	0,22
1016,774	0,22
1017,192	0,22
1017,611	0,22
1018,029	0,22
1018,448	0,22
1018,866	0,22
1019,285	0,22
1019,703	0,22
1020,121	0,22
1020,54	0,22
1020,958	0,23
1021,376	0,23
1021,794	0,23
1022,213	0,23
1022,631	0,23
1023,049	0,22
1023,467	0,22
1023,885	0,22
1024,303	0,22
1024,721	0,22
1025,139	0,22
1025,557	0,22
1025,975	0,22
1026,393	0,22
1026,811	0,22
1027,229	0,22
1027,647	0,22
1028,065	0,22
1028,482	0,22
1028,9	0,22
1029,318	0,22
1029,735	0,22
1030,153	0,22
1030,571	0,22
1030,988	0,22
1031,406	0,22
1031,823	0,22
1032,241	0,22
1032,659	0,22
1033,076	0,22
1033,493	0,22
1033,911	0,22
1034,328	0,22
1034,746	0,22
1035,163	0,22
1035,58	0,22
1035,997	0,22
1036,415	0,22
1036,832	0,22
1037,249	0,22
1037,666	0,21
1038,083	0,21
1038,501	0,21
1038,918	0,21
1039,335	0,21
1039,752	0,21
1040,169	0,21
1040,586	0,21
1041,003	0,21
1041,419	0,21
1041,836	0,21
1042,253	0,21
1042,67	0,21
1043,087	0,21
1043,504	0,21
1043,92	0,21
1044,337	0,21
1044,754	0,21
1045,17	0,21
1045,587	0,2
1046,004	0,2
1046,42	0,2
1046,837	0,2
1047,253	0,2
1047,67	0,2
1048,086	0,2
1048,503	0,2
1048,919	0,2
1049,335	0,2
1049,752	0,2
1050,168	0,2
1050,584	0,2
1051,001	0,2
1051,417	0,2
1051,833	0,2
1052,249	0,2
1052,665	0,2
1053,081	0,2
1053,497	0,2
1053,914	0,21
1054,33	0,21
1054,746	0,21
1055,162	0,21
1055,578	0,21
1055,993	0,21
1056,409	0,21
1056,825	0,21
1057,241	0,21
1057,657	0,21
1058,073	0,21
1058,488	0,21
1058,904	0,21
1059,32	0,21
1059,736	0,21
1060,151	0,21
1060,567	0,21
1060,982	0,21
1061,398	0,21
1061,813	0,21
1062,229	0,21
1062,644	0,21
1063,06	0,21
1063,475	0,21
1063,891	0,21
1064,306	0,21
1064,721	0,21
1065,137	0,2
1065,552	0,2
1065,967	0,2
1066,382	0,2
1066,798	0,2
1067,213	0,21
1067,628	0,2
1068,043	0,21
1068,458	0,21
1068,873	0,21
1069,288	0,21
1069,703	0,21
1070,118	0,21
1070,533	0,21
1070,948	0,21
1071,363	0,21
1071,778	0,21
1072,193	0,21
1072,607	0,21
1073,022	0,21
1073,437	0,21
1073,852	0,22
1074,266	0,22
1074,681	0,22
1075,096	0,22
1075,51	0,22
1075,925	0,22
1076,339	0,22
1076,754	0,21
1077,168	0,21
1077,583	0,21
1077,997	0,21
1078,412	0,21
1078,826	0,21
1079,24	0,21
1079,655	0,21
1080,069	0,21
1080,483	0,21
1080,897	0,21
1081,312	0,21
1081,726	0,2
1082,14	0,2
1082,554	0,2
1082,968	0,2
1083,382	0,2
1083,796	0,2
1084,21	0,2
1084,624	0,2
1085,038	0,2
1085,452	0,2
1085,866	0,2
1086,28	0,2
1086,694	0,19
1087,108	0,19
1087,521	0,19
1087,935	0,19
1088,349	0,19
1088,763	0,19
1089,176	0,19
1089,59	0,19
1090,004	0,19
1090,417	0,19
1090,831	0,18
1091,244	0,18
1091,658	0,18
1092,071	0,18
1092,485	0,18
1092,898	0,17
1093,312	0,17
1093,725	0,17
1094,138	0,17
1094,552	0,17
1094,965	0,17
1095,378	0,17
1095,791	0,17
1096,205	0,17
1096,618	0,17
1097,031	0,16
1097,444	0,16
1097,857	0,16
1098,27	0,16
1098,683	0,16
1099,096	0,16
1099,509	0,15
1099,922	0,15
1100,335	0,15
1100,748	0,14
1101,161	0,14
1101,574	0,14
1101,986	0,14
1102,399	0,13
1102,812	0,13
1103,225	0,13
1103,637	0,12
1104,05	0,12
1104,463	0,12
1104,875	0,12
1105,288	0,12
1105,7	0,12
1106,113	0,11
1106,525	0,11
1106,938	0,11
1107,35	0,1
1107,763	0,1
1108,175	0,1
1108,588	0,1
1109	0,09
1109,412	0,08
1109,824	0,08
1110,237	0,07
1110,649	0,07
1111,061	0,07
