Data from 18C-808nm-8A_Absorbance__1291__01291.txt Node

Date: Mon Jul 17 17:10:10 CEST 2023
User: Laser008
Spectrometer: MAYP115816
Trigger mode: 0
Integration Time (sec): 2,500000E-1
Scans to average: 10
Electric dark correction enabled: true
Nonlinearity correction enabled: true
Boxcar width: 5
XAxis mode: Wavelengths
Number of Pixels in Spectrum: 2068
>>>>>Begin Spectral Data<<<<<
198,914	-0,73
199,384	-0,52
199,855	-0,38
200,325	-0,3
200,796	-0,27
201,266	-0,22
201,737	-0,2
202,207	-0,19
202,677	-0,18
203,147	-0,16
203,618	-0,13
204,088	-0,12
204,558	-0,11
205,028	-0,1
205,498	-0,1
205,968	-0,1
206,439	-0,12
206,909	-0,11
207,379	-0,12
207,849	-0,13
208,319	-0,13
208,789	-0,14
209,258	-0,14
209,728	-0,16
210,198	-0,16
210,668	-0,15
211,138	-0,15
211,608	-0,14
212,077	-0,15
212,547	-0,14
213,017	-0,13
213,486	-0,14
213,956	-0,14
214,426	-0,16
214,895	-0,14
215,365	-0,15
215,834	-0,16
216,304	-0,18
216,773	-0,18
217,243	-0,19
217,712	-0,21
218,181	-0,21
218,651	-0,21
219,12	-0,21
219,589	-0,2
220,058	-0,2
220,528	-0,2
220,997	-0,2
221,466	-0,21
221,935	-0,22
222,404	-0,21
222,873	-0,2
223,342	-0,21
223,812	-0,21
224,281	-0,2
224,749	-0,21
225,218	-0,22
225,687	-0,22
226,156	-0,21
226,625	-0,19
227,094	-0,19
227,563	-0,2
228,031	-0,21
228,5	-0,2
228,969	-0,21
229,438	-0,21
229,906	-0,19
230,375	-0,19
230,844	-0,19
231,312	-0,19
231,781	-0,21
232,249	-0,19
232,718	-0,2
233,186	-0,18
233,655	-0,18
234,123	-0,17
234,591	-0,18
235,06	-0,18
235,528	-0,18
235,996	-0,18
236,465	-0,18
236,933	-0,17
237,401	-0,17
237,869	-0,16
238,337	-0,16
238,805	-0,15
239,274	-0,14
239,742	-0,14
240,21	-0,14
240,678	-0,13
241,146	-0,12
241,614	-0,12
242,081	-0,12
242,549	-0,12
243,017	-0,14
243,485	-0,14
243,953	-0,14
244,421	-0,14
244,888	-0,14
245,356	-0,15
245,824	-0,15
246,291	-0,15
246,759	-0,16
247,227	-0,16
247,694	-0,15
248,162	-0,14
248,629	-0,13
249,097	-0,14
249,564	-0,15
250,032	-0,15
250,499	-0,14
250,967	-0,15
251,434	-0,15
251,901	-0,14
252,369	-0,15
252,836	-0,16
253,303	-0,17
253,77	-0,18
254,237	-0,17
254,705	-0,16
255,172	-0,16
255,639	-0,16
256,106	-0,17
256,573	-0,17
257,04	-0,17
257,507	-0,17
257,974	-0,18
258,441	-0,16
258,908	-0,16
259,375	-0,17
259,841	-0,18
260,308	-0,19
260,775	-0,19
261,242	-0,18
261,709	-0,18
262,175	-0,19
262,642	-0,19
263,109	-0,18
263,575	-0,2
264,042	-0,18
264,508	-0,18
264,975	-0,19
265,441	-0,2
265,908	-0,21
266,374	-0,2
266,841	-0,21
267,307	-0,21
267,773	-0,2
268,24	-0,21
268,706	-0,2
269,172	-0,21
269,639	-0,23
270,105	-0,22
270,571	-0,22
271,037	-0,22
271,503	-0,23
271,969	-0,22
272,435	-0,22
272,902	-0,23
273,368	-0,24
273,834	-0,24
274,3	-0,25
274,765	-0,24
275,231	-0,24
275,697	-0,23
276,163	-0,22
276,629	-0,22
277,095	-0,22
277,56	-0,21
278,026	-0,22
278,492	-0,2
278,958	-0,19
279,423	-0,2
279,889	-0,19
280,354	-0,19
280,82	-0,19
281,286	-0,2
281,751	-0,21
282,217	-0,2
282,682	-0,2
283,147	-0,2
283,613	-0,2
284,078	-0,21
284,544	-0,21
285,009	-0,22
285,474	-0,23
285,939	-0,24
286,405	-0,23
286,87	-0,23
287,335	-0,23
287,8	-0,23
288,265	-0,22
288,73	-0,23
289,195	-0,25
289,66	-0,25
290,125	-0,24
290,59	-0,23
291,055	-0,23
291,52	-0,23
291,985	-0,23
292,45	-0,24
292,915	-0,24
293,38	-0,25
293,844	-0,23
294,309	-0,21
294,774	-0,19
295,239	-0,21
295,703	-0,21
296,168	-0,2
296,632	-0,2
297,097	-0,19
297,562	-0,18
298,026	-0,18
298,491	-0,18
298,955	-0,18
299,419	-0,17
299,884	-0,18
300,348	-0,17
300,813	-0,16
301,277	-0,17
301,741	-0,17
302,205	-0,17
302,67	-0,17
303,134	-0,16
303,598	-0,17
304,062	-0,15
304,526	-0,15
304,99	-0,17
305,454	-0,17
305,919	-0,16
306,383	-0,16
306,847	-0,16
307,31	-0,17
307,774	-0,17
308,238	-0,17
308,702	-0,17
309,166	-0,19
309,63	-0,18
310,094	-0,15
310,557	-0,15
311,021	-0,15
311,485	-0,15
311,948	-0,14
312,412	-0,14
312,876	-0,14
313,339	-0,13
313,803	-0,14
314,266	-0,14
314,73	-0,14
315,193	-0,14
315,657	-0,14
316,12	-0,14
316,584	-0,12
317,047	-0,12
317,51	-0,11
317,973	-0,1
318,437	-0,1
318,9	-0,08
319,363	-0,07
319,826	-0,07
320,29	-0,07
320,753	-0,07
321,216	-0,06
321,679	-0,06
322,142	-0,06
322,605	-0,07
323,068	-0,07
323,531	-0,07
323,994	-0,07
324,457	-0,07
324,92	-0,07
325,382	-0,07
325,845	-0,07
326,308	-0,06
326,771	-0,06
327,233	-0,06
327,696	-0,05
328,159	-0,05
328,622	-0,03
329,084	-0,03
329,547	-0,03
330,009	-0,03
330,472	-0,02
330,934	-0,02
331,397	-0,01
331,859	0
332,322	0
332,784	0
333,246	0,01
333,709	0,01
334,171	0,02
334,633	0,02
335,096	0,02
335,558	0,02
336,02	0,02
336,482	0,02
336,944	0,03
337,406	0,03
337,868	0,03
338,331	0,03
338,793	0,04
339,255	0,05
339,717	0,05
340,178	0,06
340,64	0,07
341,102	0,08
341,564	0,09
342,026	0,1
342,488	0,11
342,949	0,11
343,411	0,14
343,873	0,15
344,335	0,17
344,796	0,21
345,258	0,24
345,719	0,27
346,181	0,3
346,643	0,32
347,104	0,35
347,566	0,37
348,027	0,39
348,488	0,4
348,95	0,42
349,411	0,43
349,873	0,44
350,334	0,45
350,795	0,46
351,256	0,47
351,718	0,47
352,179	0,48
352,64	0,48
353,101	0,48
353,562	0,48
354,023	0,48
354,484	0,49
354,945	0,49
355,406	0,49
355,867	0,49
356,328	0,49
356,789	0,49
357,25	0,49
357,711	0,49
358,172	0,5
358,633	0,5
359,093	0,5
359,554	0,5
360,015	0,5
360,476	0,5
360,936	0,5
361,397	0,5
361,858	0,5
362,318	0,5
362,779	0,5
363,239	0,5
363,7	0,5
364,16	0,5
364,621	0,5
365,081	0,5
365,541	0,5
366,002	0,5
366,462	0,5
366,922	0,5
367,383	0,5
367,843	0,5
368,303	0,5
368,763	0,5
369,223	0,5
369,684	0,5
370,144	0,5
370,604	0,5
371,064	0,5
371,524	0,5
371,984	0,5
372,444	0,5
372,904	0,5
373,363	0,5
373,823	0,5
374,283	0,5
374,743	0,5
375,203	0,5
375,663	0,5
376,122	0,5
376,582	0,5
377,042	0,5
377,501	0,5
377,961	0,5
378,42	0,5
378,88	0,5
379,34	0,5
379,799	0,49
380,259	0,49
380,718	0,49
381,177	0,49
381,637	0,49
382,096	0,49
382,555	0,49
383,015	0,49
383,474	0,49
383,933	0,49
384,393	0,49
384,852	0,49
385,311	0,49
385,77	0,49
386,229	0,49
386,688	0,49
387,147	0,49
387,606	0,49
388,065	0,49
388,524	0,49
388,983	0,49
389,442	0,49
389,901	0,49
390,36	0,49
390,819	0,49
391,277	0,49
391,736	0,49
392,195	0,49
392,654	0,49
393,112	0,48
393,571	0,48
394,03	0,48
394,488	0,48
394,947	0,48
395,405	0,48
395,864	0,48
396,322	0,48
396,781	0,48
397,239	0,48
397,698	0,48
398,156	0,48
398,614	0,48
399,073	0,48
399,531	0,48
399,989	0,48
400,447	0,48
400,905	0,48
401,364	0,48
401,822	0,48
402,28	0,48
402,738	0,48
403,196	0,48
403,654	0,48
404,112	0,48
404,57	0,48
405,028	0,48
405,486	0,48
405,944	0,48
406,402	0,48
406,859	0,48
407,317	0,48
407,775	0,48
408,233	0,48
408,691	0,48
409,148	0,48
409,606	0,48
410,064	0,48
410,521	0,48
410,979	0,48
411,436	0,48
411,894	0,48
412,351	0,48
412,809	0,47
413,266	0,47
413,724	0,47
414,181	0,47
414,638	0,47
415,096	0,47
415,553	0,47
416,01	0,47
416,467	0,47
416,925	0,47
417,382	0,47
417,839	0,47
418,296	0,47
418,753	0,47
419,21	0,47
419,667	0,47
420,124	0,47
420,581	0,47
421,038	0,47
421,495	0,47
421,952	0,47
422,409	0,47
422,866	0,47
423,322	0,47
423,779	0,47
424,236	0,47
424,693	0,47
425,149	0,47
425,606	0,47
426,063	0,47
426,519	0,47
426,976	0,47
427,433	0,47
427,889	0,47
428,346	0,47
428,802	0,47
429,258	0,47
429,715	0,47
430,171	0,47
430,628	0,47
431,084	0,47
431,54	0,47
431,997	0,47
432,453	0,47
432,909	0,47
433,365	0,47
433,821	0,47
434,277	0,47
434,734	0,47
435,19	0,47
435,646	0,46
436,102	0,46
436,558	0,46
437,014	0,46
437,47	0,46
437,925	0,46
438,381	0,47
438,837	0,47
439,293	0,47
439,749	0,47
440,205	0,47
440,66	0,47
441,116	0,47
441,572	0,47
442,027	0,47
442,483	0,47
442,939	0,47
443,394	0,47
443,85	0,47
444,305	0,47
444,761	0,47
445,216	0,47
445,672	0,47
446,127	0,47
446,582	0,47
447,038	0,47
447,493	0,47
447,948	0,47
448,403	0,47
448,859	0,47
449,314	0,47
449,769	0,47
450,224	0,47
450,679	0,47
451,134	0,47
451,589	0,47
452,044	0,47
452,499	0,47
452,954	0,47
453,409	0,47
453,864	0,47
454,319	0,47
454,774	0,47
455,229	0,47
455,684	0,47
456,138	0,47
456,593	0,47
457,048	0,47
457,503	0,47
457,957	0,47
458,412	0,47
458,866	0,47
459,321	0,47
459,776	0,47
460,23	0,47
460,685	0,47
461,139	0,47
461,593	0,47
462,048	0,47
462,502	0,47
462,957	0,47
463,411	0,48
463,865	0,48
464,319	0,48
464,774	0,48
465,228	0,48
465,682	0,48
466,136	0,48
466,59	0,48
467,044	0,48
467,499	0,48
467,953	0,48
468,407	0,48
468,861	0,48
469,315	0,48
469,768	0,48
470,222	0,48
470,676	0,48
471,13	0,48
471,584	0,48
472,038	0,49
472,491	0,49
472,945	0,49
473,399	0,49
473,852	0,49
474,306	0,49
474,76	0,49
475,213	0,49
475,667	0,49
476,12	0,49
476,574	0,49
477,027	0,49
477,481	0,49
477,934	0,49
478,388	0,49
478,841	0,5
479,294	0,5
479,748	0,5
480,201	0,5
480,654	0,5
481,107	0,5
481,561	0,5
482,014	0,5
482,467	0,5
482,92	0,5
483,373	0,51
483,826	0,51
484,279	0,51
484,732	0,51
485,185	0,51
485,638	0,51
486,091	0,51
486,544	0,52
486,997	0,52
487,449	0,52
487,902	0,52
488,355	0,52
488,808	0,52
489,26	0,53
489,713	0,53
490,166	0,53
490,618	0,53
491,071	0,53
491,523	0,53
491,976	0,54
492,429	0,54
492,881	0,54
493,333	0,54
493,786	0,54
494,238	0,55
494,691	0,55
495,143	0,55
495,595	0,55
496,048	0,56
496,5	0,56
496,952	0,56
497,404	0,56
497,856	0,57
498,309	0,57
498,761	0,57
499,213	0,57
499,665	0,58
500,117	0,58
500,569	0,58
501,021	0,58
501,473	0,59
501,925	0,59
502,377	0,59
502,828	0,6
503,28	0,6
503,732	0,6
504,184	0,6
504,636	0,61
505,087	0,61
505,539	0,61
505,991	0,61
506,442	0,62
506,894	0,62
507,345	0,62
507,797	0,63
508,249	0,63
508,7	0,63
509,151	0,63
509,603	0,64
510,054	0,64
510,506	0,64
510,957	0,65
511,408	0,65
511,86	0,65
512,311	0,65
512,762	0,66
513,213	0,66
513,665	0,66
514,116	0,66
514,567	0,66
515,018	0,67
515,469	0,67
515,92	0,67
516,371	0,67
516,822	0,68
517,273	0,68
517,724	0,68
518,175	0,68
518,626	0,69
519,076	0,69
519,527	0,69
519,978	0,69
520,429	0,69
520,88	0,69
521,33	0,7
521,781	0,7
522,232	0,7
522,682	0,7
523,133	0,7
523,583	0,7
524,034	0,7
524,484	0,7
524,935	0,7
525,385	0,71
525,836	0,71
526,286	0,71
526,736	0,71
527,187	0,71
527,637	0,71
528,087	0,71
528,538	0,7
528,988	0,7
529,438	0,7
529,888	0,7
530,338	0,7
530,788	0,7
531,238	0,7
531,688	0,7
532,139	0,7
532,589	0,7
533,038	0,7
533,488	0,7
533,938	0,7
534,388	0,7
534,838	0,7
535,288	0,69
535,738	0,69
536,187	0,69
536,637	0,69
537,087	0,68
537,537	0,68
537,986	0,68
538,436	0,68
538,885	0,67
539,335	0,67
539,785	0,67
540,234	0,67
540,684	0,66
541,133	0,66
541,582	0,66
542,032	0,65
542,481	0,65
542,931	0,65
543,38	0,64
543,829	0,64
544,278	0,64
544,728	0,63
545,177	0,63
545,626	0,63
546,075	0,63
546,524	0,62
546,973	0,62
547,422	0,62
547,871	0,62
548,32	0,61
548,769	0,61
549,218	0,61
549,667	0,61
550,116	0,61
550,565	0,61
551,014	0,6
551,463	0,6
551,911	0,6
552,36	0,6
552,809	0,59
553,258	0,59
553,706	0,59
554,155	0,58
554,603	0,58
555,052	0,58
555,501	0,58
555,949	0,57
556,398	0,57
556,846	0,57
557,294	0,56
557,743	0,56
558,191	0,56
558,64	0,56
559,088	0,55
559,536	0,55
559,985	0,55
560,433	0,54
560,881	0,54
561,329	0,54
561,777	0,54
562,225	0,53
562,674	0,53
563,122	0,53
563,57	0,53
564,018	0,52
564,466	0,52
564,914	0,52
565,362	0,51
565,809	0,51
566,257	0,51
566,705	0,51
567,153	0,5
567,601	0,5
568,048	0,5
568,496	0,5
568,944	0,49
569,392	0,49
569,839	0,49
570,287	0,49
570,734	0,49
571,182	0,48
571,63	0,48
572,077	0,48
572,525	0,48
572,972	0,47
573,419	0,47
573,867	0,47
574,314	0,47
574,761	0,46
575,209	0,46
575,656	0,46
576,103	0,46
576,551	0,46
576,998	0,46
577,445	0,46
577,892	0,45
578,339	0,45
578,786	0,45
579,233	0,45
579,68	0,45
580,127	0,45
580,574	0,44
581,021	0,44
581,468	0,44
581,915	0,44
582,362	0,44
582,809	0,43
583,255	0,43
583,702	0,43
584,149	0,43
584,596	0,43
585,042	0,43
585,489	0,42
585,936	0,42
586,382	0,42
586,829	0,42
587,275	0,42
587,722	0,42
588,168	0,42
588,615	0,42
589,061	0,42
589,508	0,41
589,954	0,41
590,4	0,41
590,847	0,41
591,293	0,41
591,739	0,41
592,185	0,41
592,632	0,41
593,078	0,41
593,524	0,41
593,97	0,4
594,416	0,4
594,862	0,4
595,308	0,4
595,754	0,4
596,2	0,4
596,646	0,4
597,092	0,4
597,538	0,4
597,984	0,39
598,43	0,39
598,876	0,39
599,321	0,39
599,767	0,39
600,213	0,39
600,659	0,39
601,104	0,39
601,55	0,39
601,995	0,39
602,441	0,39
602,887	0,38
603,332	0,38
603,778	0,38
604,223	0,38
604,668	0,38
605,114	0,38
605,559	0,38
606,005	0,38
606,45	0,38
606,895	0,38
607,341	0,38
607,786	0,38
608,231	0,38
608,676	0,38
609,121	0,37
609,566	0,37
610,012	0,36
610,457	0,36
610,902	0,36
611,347	0,36
611,792	0,36
612,237	0,35
612,682	0,35
613,127	0,35
613,571	0,35
614,016	0,36
614,461	0,36
614,906	0,36
615,351	0,36
615,795	0,36
616,24	0,36
616,685	0,36
617,129	0,36
617,574	0,36
618,019	0,36
618,463	0,36
618,908	0,36
619,352	0,36
619,797	0,36
620,241	0,36
620,686	0,36
621,13	0,36
621,574	0,36
622,019	0,36
622,463	0,36
622,907	0,36
623,352	0,35
623,796	0,35
624,24	0,35
624,684	0,35
625,128	0,35
625,572	0,35
626,016	0,35
626,461	0,35
626,905	0,35
627,349	0,35
627,793	0,35
628,236	0,35
628,68	0,35
629,124	0,35
629,568	0,35
630,012	0,35
630,456	0,35
630,9	0,35
631,343	0,35
631,787	0,35
632,231	0,35
632,674	0,35
633,118	0,35
633,562	0,35
634,005	0,35
634,449	0,35
634,892	0,35
635,336	0,35
635,779	0,35
636,223	0,35
636,666	0,35
637,109	0,35
637,553	0,34
637,996	0,34
638,439	0,34
638,883	0,34
639,326	0,34
639,769	0,34
640,212	0,34
640,655	0,34
641,099	0,34
641,542	0,34
641,985	0,34
642,428	0,34
642,871	0,34
643,314	0,34
643,757	0,34
644,2	0,34
644,643	0,34
645,085	0,34
645,528	0,34
645,971	0,34
646,414	0,34
646,857	0,34
647,299	0,34
647,742	0,34
648,185	0,34
648,627	0,33
649,07	0,33
649,513	0,33
649,955	0,33
650,398	0,33
650,84	0,33
651,283	0,33
651,725	0,33
652,168	0,33
652,61	0,33
653,052	0,33
653,495	0,33
653,937	0,26
654,379	0,21
654,821	0,21
655,264	0,21
655,706	0,21
656,148	0,21
656,59	0,21
657,032	0,21
657,474	0,21
657,916	0,21
658,358	0,21
658,8	0,26
659,242	0,33
659,684	0,33
660,126	0,33
660,568	0,33
661,01	0,33
661,452	0,33
661,894	0,33
662,335	0,33
662,777	0,33
663,219	0,33
663,661	0,33
664,102	0,33
664,544	0,33
664,985	0,33
665,427	0,33
665,869	0,33
666,31	0,33
666,752	0,33
667,193	0,33
667,634	0,33
668,076	0,33
668,517	0,33
668,959	0,33
669,4	0,33
669,841	0,33
670,282	0,33
670,724	0,33
671,165	0,33
671,606	0,33
672,047	0,33
672,488	0,33
672,929	0,33
673,37	0,33
673,811	0,33
674,252	0,33
674,693	0,32
675,134	0,32
675,575	0,32
676,016	0,32
676,457	0,32
676,898	0,32
677,339	0,32
677,78	0,32
678,22	0,32
678,661	0,32
679,102	0,32
679,542	0,32
679,983	0,32
680,424	0,32
680,864	0,32
681,305	0,32
681,745	0,32
682,186	0,32
682,626	0,32
683,067	0,32
683,507	0,32
683,948	0,32
684,388	0,32
684,828	0,32
685,269	0,32
685,709	0,32
686,149	0,32
686,589	0,32
687,029	0,32
687,47	0,31
687,91	0,31
688,35	0,31
688,79	0,31
689,23	0,31
689,67	0,31
690,11	0,31
690,55	0,31
690,99	0,31
691,43	0,31
691,87	0,31
692,31	0,31
692,749	0,31
693,189	0,31
693,629	0,31
694,069	0,31
694,508	0,31
694,948	0,31
695,388	0,31
695,827	0,31
696,267	0,31
696,706	0,31
697,146	0,31
697,586	0,31
698,025	0,31
698,464	0,31
698,904	0,31
699,343	0,32
699,783	0,32
700,222	0,32
700,661	0,31
701,101	0,31
701,54	0,31
701,979	0,31
702,418	0,31
702,857	0,31
703,297	0,31
703,736	0,31
704,175	0,31
704,614	0,31
705,053	0,31
705,492	0,31
705,931	0,31
706,37	0,31
706,809	0,31
707,248	0,31
707,687	0,3
708,125	0,3
708,564	0,3
709,003	0,3
709,442	0,3
709,88	0,3
710,319	0,3
710,758	0,3
711,196	0,3
711,635	0,3
712,074	0,3
712,512	0,3
712,951	0,3
713,389	0,3
713,828	0,3
714,266	0,3
714,705	0,3
715,143	0,3
715,581	0,3
716,02	0,3
716,458	0,3
716,896	0,3
717,334	0,29
717,773	0,29
718,211	0,29
718,649	0,29
719,087	0,29
719,525	0,29
719,963	0,3
720,401	0,3
720,839	0,3
721,277	0,3
721,715	0,3
722,153	0,3
722,591	0,3
723,029	0,3
723,467	0,3
723,905	0,3
724,342	0,3
724,78	0,29
725,218	0,3
725,656	0,3
726,093	0,3
726,531	0,3
726,969	0,3
727,406	0,3
727,844	0,3
728,281	0,3
728,719	0,3
729,156	0,3
729,594	0,29
730,031	0,29
730,469	0,29
730,906	0,29
731,343	0,29
731,781	0,29
732,218	0,29
732,655	0,29
733,092	0,29
733,53	0,29
733,967	0,29
734,404	0,29
734,841	0,29
735,278	0,29
735,715	0,29
736,152	0,29
736,589	0,29
737,026	0,29
737,463	0,29
737,9	0,29
738,337	0,29
738,774	0,29
739,211	0,29
739,647	0,28
740,084	0,28
740,521	0,28
740,958	0,28
741,394	0,28
741,831	0,28
742,268	0,28
742,704	0,28
743,141	0,28
743,577	0,28
744,014	0,28
744,45	0,28
744,887	0,27
745,323	0,27
745,76	0,27
746,196	0,27
746,632	0,27
747,069	0,27
747,505	0,27
747,941	0,27
748,378	0,27
748,814	0,27
749,25	0,27
749,686	0,27
750,122	0,28
750,558	0,28
750,994	0,28
751,43	0,28
751,866	0,28
752,302	0,28
752,738	0,28
753,174	0,29
753,61	0,29
754,046	0,29
754,482	0,29
754,918	0,29
755,354	0,29
755,789	0,29
756,225	0,29
756,661	0,29
757,096	0,29
757,532	0,28
757,968	0,28
758,403	0,28
758,839	0,28
759,274	0,28
759,71	0,27
760,145	0,27
760,581	0,27
761,016	0,26
761,452	0,26
761,887	0,26
762,322	0,26
762,758	0,25
763,193	0,25
763,628	0,25
764,063	0,24
764,499	0,24
764,934	0,23
765,369	0,22
765,804	0,22
766,239	0,21
766,674	0,21
767,109	0,2
767,544	0,2
767,979	0,19
768,414	0,18
768,849	0,17
769,284	0,17
769,719	0,16
770,154	0,15
770,588	0,15
771,023	0,14
771,458	0,13
771,893	0,12
772,327	0,11
772,762	0,1
773,197	0,1
773,631	0,09
774,066	0,08
774,5	0,07
774,935	0,07
775,369	0,06
775,804	0,05
776,238	0,04
776,673	0,04
777,107	0,03
777,541	0,02
777,976	0,02
778,41	0,01
778,844	0
779,279	-0
779,713	-0,01
780,147	-0,02
780,581	-0,03
781,015	-0,04
781,449	-0,05
781,883	-0,05
782,317	-0,07
782,751	-0,08
783,185	-0,08
783,619	-0,09
784,053	-0,1
784,487	-0,1
784,921	-0,11
785,355	-0,11
785,789	-0,12
786,223	-0,13
786,656	-0,14
787,09	-0,15
787,524	-0,16
787,957	-0,18
788,391	-0,2
788,825	-0,21
789,258	-0,22
789,692	-0,23
790,125	-0,25
790,559	-0,26
790,992	-0,28
791,426	-0,3
791,859	-0,31
792,293	-0,34
792,726	-0,35
793,159	-0,37
793,593	-0,38
794,026	-0,4
794,459	-0,43
794,892	-0,46
795,326	-0,49
795,759	-0,52
796,192	-0,57
796,625	-0,61
797,058	-0,64
797,491	-0,68
797,924	-0,72
798,357	-0,77
798,79	-0,81
799,223	-0,85
799,656	-0,91
800,089	-0,96
800,522	-1
800,955	-1,04
801,387	-1,1
801,82	-1,15
802,253	-1,21
802,686	-1,29
803,118	-1,35
803,551	-1,4
803,984	-1,44
804,416	-1,48
804,849	-1,51
805,281	-1,63
805,714	-1,97
806,146	-2,42
806,579	-2,69
807,011	-2,86
807,444	-2,95
807,876	-3,05
808,308	-3,09
808,741	-3,12
809,173	-3,17
809,605	-3,19
810,037	-3,27
810,47	-3,19
810,902	-3
811,334	-2,85
811,766	-2,71
812,198	-2,48
812,63	-2,05
813,062	-1,81
813,494	-1,71
813,926	-1,62
814,358	-1,57
814,79	-1,48
815,222	-1,43
815,654	-1,37
816,086	-1,31
816,518	-1,25
816,949	-1,2
817,381	-1,16
817,813	-1,14
818,245	-1,1
818,676	-1,06
819,108	-1,03
819,54	-1,01
819,971	-0,99
820,403	-0,94
820,834	-0,93
821,266	-0,88
821,697	-0,86
822,129	-0,84
822,56	-0,81
822,991	-0,79
823,423	-0,76
823,854	-0,75
824,286	-0,73
824,717	-0,72
825,148	-0,7
825,579	-0,69
826,01	-0,68
826,442	-0,67
826,873	-0,65
827,304	-0,62
827,735	-0,61
828,166	-0,61
828,597	-0,61
829,028	-0,61
829,459	-0,62
829,89	-0,61
830,321	-0,57
830,752	-0,59
831,183	-0,58
831,613	-0,57
832,044	-0,57
832,475	-0,55
832,906	-0,57
833,336	-0,56
833,767	-0,56
834,198	-0,55
834,628	-0,54
835,059	-0,56
835,49	-0,57
835,92	-0,54
836,351	-0,55
836,781	-0,54
837,212	-0,56
837,642	-0,56
838,072	-0,54
838,503	-0,54
838,933	-0,52
839,364	-0,52
839,794	-0,5
840,224	-0,49
840,654	-0,53
841,085	-0,53
841,515	-0,51
841,945	-0,51
842,375	-0,46
842,805	-0,45
843,235	-0,45
843,665	-0,46
844,095	-0,45
844,525	-0,47
844,955	-0,48
845,385	-0,46
845,815	-0,43
846,245	-0,46
846,675	-0,48
847,105	-0,49
847,534	-0,5
847,964	-0,47
848,394	-0,46
848,824	-0,48
849,253	-0,47
849,683	-0,48
850,112	-0,49
850,542	-0,52
850,972	-0,53
851,401	-0,5
851,831	-0,48
852,26	-0,49
852,69	-0,54
853,119	-0,53
853,548	-0,54
853,978	-0,55
854,407	-0,53
854,836	-0,53
855,266	-0,52
855,695	-0,54
856,124	-0,55
856,553	-0,56
856,983	-0,58
857,412	-0,56
857,841	-0,58
858,27	-0,58
858,699	-0,58
859,128	-0,61
859,557	-0,62
859,986	-0,63
860,415	-0,61
860,844	-0,58
861,273	-0,59
861,702	-0,6
862,13	-0,58
862,559	-0,59
862,988	-0,57
863,417	-0,56
863,845	-0,55
864,274	-0,56
864,703	-0,55
865,131	-0,56
865,56	-0,57
865,989	-0,59
866,417	-0,56
866,846	-0,57
867,274	-0,56
867,703	-0,59
868,131	-0,6
868,559	-0,6
868,988	-0,62
869,416	-0,62
869,844	-0,63
870,273	-0,65
870,701	-0,63
871,129	-0,66
871,557	-0,68
871,986	-0,68
872,414	-0,68
872,842	-0,66
873,27	-0,64
873,698	-0,6
874,126	-0,64
874,554	-0,62
874,982	-0,61
875,41	-0,65
875,838	-0,6
876,266	-0,58
876,694	-0,58
877,122	-0,57
877,549	-0,62
877,977	-0,59
878,405	-0,62
878,833	-0,59
879,26	-0,57
879,688	-0,57
880,116	-0,55
880,543	-0,54
880,971	-0,54
881,399	-0,57
881,826	-0,57
882,254	-0,55
882,681	-0,6
883,109	-0,56
883,536	-0,56
883,963	-0,58
884,391	-0,56
884,818	-0,54
885,245	-0,58
885,673	-0,6
886,1	-0,58
886,527	-0,58
886,954	-0,54
887,381	-0,56
887,809	-0,57
888,236	-0,58
888,663	-0,59
889,09	-0,62
889,517	-0,64
889,944	-0,63
890,371	-0,62
890,798	-0,62
891,225	-0,62
891,652	-0,66
892,078	-0,63
892,505	-0,65
892,932	-0,61
893,359	-0,63
893,786	-0,63
894,212	-0,59
894,639	-0,61
895,066	-0,62
895,492	-0,57
895,919	-0,57
896,346	-0,56
896,772	-0,57
897,199	-0,54
897,625	-0,57
898,052	-0,53
898,478	-0,52
898,904	-0,53
899,331	-0,53
899,757	-0,55
900,183	-0,57
900,61	-0,55
901,036	-0,56
901,462	-0,55
901,888	-0,54
902,315	-0,53
902,741	-0,58
903,167	-0,57
903,593	-0,59
904,019	-0,58
904,445	-0,55
904,871	-0,58
905,297	-0,6
905,723	-0,59
906,149	-0,58
906,575	-0,58
907,001	-0,58
907,427	-0,54
907,852	-0,55
908,278	-0,55
908,704	-0,54
909,13	-0,53
909,555	-0,52
909,981	-0,51
910,407	-0,51
910,832	-0,52
911,258	-0,53
911,684	-0,53
912,109	-0,54
912,535	-0,55
912,96	-0,51
913,386	-0,54
913,811	-0,54
914,236	-0,56
914,662	-0,54
915,087	-0,57
915,512	-0,57
915,938	-0,6
916,363	-0,58
916,788	-0,59
917,213	-0,57
917,639	-0,62
918,064	-0,59
918,489	-0,6
918,914	-0,61
919,339	-0,62
919,764	-0,6
920,189	-0,59
920,614	-0,6
921,039	-0,62
921,464	-0,57
921,889	-0,6
922,314	-0,61
922,738	-0,63
923,163	-0,64
923,588	-0,63
924,013	-0,62
924,437	-0,61
924,862	-0,63
925,287	-0,59
925,711	-0,6
926,136	-0,62
926,561	-0,6
926,985	-0,6
927,41	-0,57
927,834	-0,55
928,259	-0,52
928,683	-0,51
929,108	-0,48
929,532	-0,49
929,956	-0,47
930,381	-0,46
930,805	-0,45
931,229	-0,45
931,653	-0,44
932,078	-0,44
932,502	-0,45
932,926	-0,46
933,35	-0,47
933,774	-0,46
934,198	-0,44
934,622	-0,43
935,046	-0,44
935,47	-0,45
935,894	-0,44
936,318	-0,44
936,742	-0,44
937,166	-0,45
937,59	-0,44
938,014	-0,46
938,437	-0,47
938,861	-0,49
939,285	-0,5
939,709	-0,49
940,132	-0,48
940,556	-0,49
940,98	-0,48
941,403	-0,47
941,827	-0,46
942,25	-0,48
942,674	-0,47
943,097	-0,47
943,521	-0,46
943,944	-0,47
944,368	-0,47
944,791	-0,46
945,214	-0,49
945,638	-0,49
946,061	-0,53
946,484	-0,54
946,907	-0,52
947,331	-0,51
947,754	-0,54
948,177	-0,52
948,6	-0,53
949,023	-0,52
949,446	-0,52
949,869	-0,49
950,292	-0,49
950,715	-0,45
951,138	-0,43
951,561	-0,42
951,984	-0,42
952,407	-0,41
952,83	-0,39
953,252	-0,34
953,675	-0,34
954,098	-0,35
954,521	-0,34
954,943	-0,34
955,366	-0,35
955,789	-0,33
956,211	-0,35
956,634	-0,36
957,056	-0,33
957,479	-0,35
957,902	-0,38
958,324	-0,38
958,746	-0,37
959,169	-0,38
959,591	-0,37
960,014	-0,38
960,436	-0,38
960,858	-0,39
961,281	-0,38
961,703	-0,4
962,125	-0,4
962,547	-0,38
962,969	-0,39
963,391	-0,4
963,814	-0,4
964,236	-0,4
964,658	-0,37
965,08	-0,38
965,502	-0,37
965,924	-0,34
966,346	-0,34
966,768	-0,33
967,189	-0,36
967,611	-0,35
968,033	-0,35
968,455	-0,33
968,877	-0,34
969,298	-0,35
969,72	-0,36
970,142	-0,35
970,563	-0,35
970,985	-0,34
971,407	-0,33
971,828	-0,31
972,25	-0,31
972,671	-0,29
973,093	-0,28
973,514	-0,27
973,936	-0,25
974,357	-0,24
974,778	-0,24
975,2	-0,24
975,621	-0,23
976,042	-0,21
976,464	-0,2
976,885	-0,19
977,306	-0,18
977,727	-0,18
978,148	-0,19
978,57	-0,18
978,991	-0,16
979,412	-0,15
979,833	-0,14
980,254	-0,13
980,675	-0,13
981,096	-0,13
981,517	-0,12
981,937	-0,11
982,358	-0,09
982,779	-0,07
983,2	-0,07
983,621	-0,07
984,042	-0,06
984,462	-0,06
984,883	-0,04
985,304	-0,03
985,724	-0,02
986,145	-0,01
986,565	0,01
986,986	0,01
987,407	0,02
987,827	0,03
988,248	0,04
988,668	0,05
989,088	0,06
989,509	0,07
989,929	0,08
990,35	0,09
990,77	0,09
991,19	0,1
991,61	0,11
992,031	0,12
992,451	0,12
992,871	0,13
993,291	0,14
993,711	0,15
994,131	0,15
994,551	0,16
994,971	0,16
995,391	0,16
995,811	0,17
996,231	0,17
996,651	0,18
997,071	0,18
997,491	0,19
997,911	0,19
998,331	0,2
998,75	0,2
999,17	0,21
999,59	0,21
1000,009	0,21
1000,429	0,22
1000,849	0,22
1001,268	0,22
1001,688	0,23
1002,107	0,23
1002,527	0,23
1002,946	0,23
1003,366	0,23
1003,785	0,24
1004,205	0,24
1004,624	0,24
1005,044	0,24
1005,463	0,24
1005,882	0,24
1006,301	0,24
1006,721	0,24
1007,14	0,25
1007,559	0,25
1007,978	0,25
1008,397	0,25
1008,816	0,25
1009,235	0,25
1009,655	0,24
1010,074	0,24
1010,492	0,24
1010,911	0,24
1011,33	0,24
1011,749	0,24
1012,168	0,24
1012,587	0,24
1013,006	0,24
1013,425	0,24
1013,843	0,23
1014,262	0,23
1014,681	0,23
1015,099	0,23
1015,518	0,23
1015,937	0,23
1016,355	0,23
1016,774	0,23
1017,192	0,24
1017,611	0,24
1018,029	0,24
1018,448	0,24
1018,866	0,24
1019,285	0,24
1019,703	0,24
1020,121	0,24
1020,54	0,24
1020,958	0,24
1021,376	0,24
1021,794	0,24
1022,213	0,24
1022,631	0,24
1023,049	0,24
1023,467	0,24
1023,885	0,24
1024,303	0,24
1024,721	0,24
1025,139	0,24
1025,557	0,24
1025,975	0,23
1026,393	0,23
1026,811	0,23
1027,229	0,23
1027,647	0,23
1028,065	0,23
1028,482	0,23
1028,9	0,23
1029,318	0,23
1029,735	0,23
1030,153	0,23
1030,571	0,23
1030,988	0,23
1031,406	0,23
1031,823	0,23
1032,241	0,23
1032,659	0,23
1033,076	0,23
1033,493	0,23
1033,911	0,23
1034,328	0,23
1034,746	0,23
1035,163	0,23
1035,58	0,23
1035,997	0,23
1036,415	0,23
1036,832	0,23
1037,249	0,23
1037,666	0,23
1038,083	0,23
1038,501	0,23
1038,918	0,23
1039,335	0,23
1039,752	0,23
1040,169	0,23
1040,586	0,22
1041,003	0,22
1041,419	0,22
1041,836	0,22
1042,253	0,22
1042,67	0,22
1043,087	0,22
1043,504	0,22
1043,92	0,22
1044,337	0,22
1044,754	0,22
1045,17	0,22
1045,587	0,22
1046,004	0,22
1046,42	0,22
1046,837	0,22
1047,253	0,22
1047,67	0,22
1048,086	0,22
1048,503	0,22
1048,919	0,22
1049,335	0,22
1049,752	0,22
1050,168	0,22
1050,584	0,22
1051,001	0,22
1051,417	0,22
1051,833	0,22
1052,249	0,22
1052,665	0,22
1053,081	0,22
1053,497	0,22
1053,914	0,22
1054,33	0,22
1054,746	0,22
1055,162	0,22
1055,578	0,22
1055,993	0,22
1056,409	0,22
1056,825	0,22
1057,241	0,22
1057,657	0,22
1058,073	0,22
1058,488	0,22
1058,904	0,22
1059,32	0,22
1059,736	0,22
1060,151	0,23
1060,567	0,23
1060,982	0,23
1061,398	0,23
1061,813	0,23
1062,229	0,23
1062,644	0,23
1063,06	0,22
1063,475	0,22
1063,891	0,22
1064,306	0,22
1064,721	0,22
1065,137	0,22
1065,552	0,22
1065,967	0,22
1066,382	0,22
1066,798	0,22
1067,213	0,22
1067,628	0,22
1068,043	0,22
1068,458	0,22
1068,873	0,22
1069,288	0,22
1069,703	0,23
1070,118	0,23
1070,533	0,23
1070,948	0,23
1071,363	0,23
1071,778	0,23
1072,193	0,23
1072,607	0,23
1073,022	0,23
1073,437	0,23
1073,852	0,23
1074,266	0,23
1074,681	0,23
1075,096	0,23
1075,51	0,23
1075,925	0,23
1076,339	0,23
1076,754	0,23
1077,168	0,23
1077,583	0,23
1077,997	0,23
1078,412	0,23
1078,826	0,23
1079,24	0,23
1079,655	0,23
1080,069	0,22
1080,483	0,22
1080,897	0,22
1081,312	0,22
1081,726	0,22
1082,14	0,22
1082,554	0,22
1082,968	0,22
1083,382	0,22
1083,796	0,22
1084,21	0,22
1084,624	0,21
1085,038	0,21
1085,452	0,21
1085,866	0,21
1086,28	0,21
1086,694	0,21
1087,108	0,21
1087,521	0,21
1087,935	0,21
1088,349	0,21
1088,763	0,21
1089,176	0,2
1089,59	0,2
1090,004	0,2
1090,417	0,2
1090,831	0,2
1091,244	0,19
1091,658	0,19
1092,071	0,19
1092,485	0,19
1092,898	0,19
1093,312	0,19
1093,725	0,19
1094,138	0,19
1094,552	0,18
1094,965	0,18
1095,378	0,18
1095,791	0,18
1096,205	0,18
1096,618	0,18
1097,031	0,18
1097,444	0,17
1097,857	0,17
1098,27	0,17
1098,683	0,17
1099,096	0,17
1099,509	0,17
1099,922	0,16
1100,335	0,16
1100,748	0,16
1101,161	0,15
1101,574	0,15
1101,986	0,15
1102,399	0,15
1102,812	0,14
1103,225	0,14
1103,637	0,14
1104,05	0,14
1104,463	0,14
1104,875	0,13
1105,288	0,13
1105,7	0,13
1106,113	0,12
1106,525	0,12
1106,938	0,12
1107,35	0,12
1107,763	0,11
1108,175	0,11
1108,588	0,11
1109	0,1
1109,412	0,09
1109,824	0,09
1110,237	0,1
1110,649	0,09
1111,061	0,08
