Data from 18C-808nm-8A_Absorbance__873__00873.txt Node

Date: Mon Jul 17 16:52:46 CEST 2023
User: Laser008
Spectrometer: MAYP115816
Trigger mode: 0
Integration Time (sec): 2,500000E-1
Scans to average: 10
Electric dark correction enabled: true
Nonlinearity correction enabled: true
Boxcar width: 5
XAxis mode: Wavelengths
Number of Pixels in Spectrum: 2068
>>>>>Begin Spectral Data<<<<<
198,914	-0,66
199,384	-0,46
199,855	-0,34
200,325	-0,28
200,796	-0,26
201,266	-0,22
201,737	-0,22
202,207	-0,21
202,677	-0,21
203,147	-0,2
203,618	-0,17
204,088	-0,16
204,558	-0,15
205,028	-0,15
205,498	-0,15
205,968	-0,15
206,439	-0,15
206,909	-0,14
207,379	-0,15
207,849	-0,15
208,319	-0,16
208,789	-0,16
209,258	-0,16
209,728	-0,16
210,198	-0,16
210,668	-0,16
211,138	-0,15
211,608	-0,15
212,077	-0,15
212,547	-0,15
213,017	-0,15
213,486	-0,15
213,956	-0,15
214,426	-0,16
214,895	-0,16
215,365	-0,16
215,834	-0,16
216,304	-0,17
216,773	-0,18
217,243	-0,19
217,712	-0,2
218,181	-0,2
218,651	-0,2
219,12	-0,19
219,589	-0,19
220,058	-0,17
220,528	-0,18
220,997	-0,18
221,466	-0,2
221,935	-0,2
222,404	-0,2
222,873	-0,19
223,342	-0,19
223,812	-0,19
224,281	-0,19
224,749	-0,2
225,218	-0,21
225,687	-0,21
226,156	-0,21
226,625	-0,19
227,094	-0,19
227,563	-0,2
228,031	-0,21
228,5	-0,21
228,969	-0,22
229,438	-0,21
229,906	-0,2
230,375	-0,19
230,844	-0,19
231,312	-0,19
231,781	-0,2
232,249	-0,18
232,718	-0,18
233,186	-0,17
233,655	-0,17
234,123	-0,17
234,591	-0,17
235,06	-0,17
235,528	-0,19
235,996	-0,18
236,465	-0,18
236,933	-0,18
237,401	-0,18
237,869	-0,17
238,337	-0,18
238,805	-0,17
239,274	-0,16
239,742	-0,16
240,21	-0,16
240,678	-0,15
241,146	-0,14
241,614	-0,15
242,081	-0,14
242,549	-0,14
243,017	-0,14
243,485	-0,15
243,953	-0,14
244,421	-0,14
244,888	-0,14
245,356	-0,13
245,824	-0,13
246,291	-0,14
246,759	-0,14
247,227	-0,14
247,694	-0,13
248,162	-0,12
248,629	-0,11
249,097	-0,12
249,564	-0,12
250,032	-0,13
250,499	-0,12
250,967	-0,13
251,434	-0,13
251,901	-0,13
252,369	-0,14
252,836	-0,15
253,303	-0,17
253,77	-0,18
254,237	-0,18
254,705	-0,18
255,172	-0,18
255,639	-0,19
256,106	-0,2
256,573	-0,2
257,04	-0,2
257,507	-0,2
257,974	-0,2
258,441	-0,19
258,908	-0,19
259,375	-0,21
259,841	-0,21
260,308	-0,21
260,775	-0,2
261,242	-0,2
261,709	-0,2
262,175	-0,21
262,642	-0,2
263,109	-0,19
263,575	-0,2
264,042	-0,19
264,508	-0,18
264,975	-0,2
265,441	-0,2
265,908	-0,22
266,374	-0,21
266,841	-0,21
267,307	-0,21
267,773	-0,2
268,24	-0,21
268,706	-0,21
269,172	-0,23
269,639	-0,24
270,105	-0,21
270,571	-0,22
271,037	-0,22
271,503	-0,23
271,969	-0,23
272,435	-0,23
272,902	-0,25
273,368	-0,26
273,834	-0,26
274,3	-0,26
274,765	-0,27
275,231	-0,27
275,697	-0,26
276,163	-0,26
276,629	-0,25
277,095	-0,25
277,56	-0,24
278,026	-0,24
278,492	-0,22
278,958	-0,22
279,423	-0,22
279,889	-0,21
280,354	-0,21
280,82	-0,21
281,286	-0,23
281,751	-0,23
282,217	-0,22
282,682	-0,22
283,147	-0,22
283,613	-0,23
284,078	-0,23
284,544	-0,24
285,009	-0,24
285,474	-0,23
285,939	-0,25
286,405	-0,24
286,87	-0,23
287,335	-0,23
287,8	-0,23
288,265	-0,21
288,73	-0,22
289,195	-0,25
289,66	-0,25
290,125	-0,24
290,59	-0,25
291,055	-0,23
291,52	-0,24
291,985	-0,24
292,45	-0,26
292,915	-0,26
293,38	-0,26
293,844	-0,24
294,309	-0,22
294,774	-0,21
295,239	-0,22
295,703	-0,22
296,168	-0,21
296,632	-0,2
297,097	-0,18
297,562	-0,17
298,026	-0,17
298,491	-0,16
298,955	-0,16
299,419	-0,15
299,884	-0,16
300,348	-0,15
300,813	-0,14
301,277	-0,15
301,741	-0,15
302,205	-0,15
302,67	-0,15
303,134	-0,16
303,598	-0,16
304,062	-0,15
304,526	-0,16
304,99	-0,17
305,454	-0,17
305,919	-0,17
306,383	-0,17
306,847	-0,17
307,31	-0,18
307,774	-0,18
308,238	-0,17
308,702	-0,17
309,166	-0,18
309,63	-0,18
310,094	-0,15
310,557	-0,15
311,021	-0,15
311,485	-0,15
311,948	-0,15
312,412	-0,14
312,876	-0,13
313,339	-0,14
313,803	-0,14
314,266	-0,14
314,73	-0,14
315,193	-0,15
315,657	-0,14
316,12	-0,13
316,584	-0,13
317,047	-0,13
317,51	-0,12
317,973	-0,12
318,437	-0,11
318,9	-0,1
319,363	-0,1
319,826	-0,09
320,29	-0,1
320,753	-0,1
321,216	-0,09
321,679	-0,09
322,142	-0,08
322,605	-0,09
323,068	-0,09
323,531	-0,08
323,994	-0,08
324,457	-0,08
324,92	-0,07
325,382	-0,06
325,845	-0,06
326,308	-0,06
326,771	-0,06
327,233	-0,06
327,696	-0,05
328,159	-0,05
328,622	-0,04
329,084	-0,04
329,547	-0,03
330,009	-0,03
330,472	-0,03
330,934	-0,02
331,397	-0,02
331,859	-0,01
332,322	-0,01
332,784	-0,02
333,246	-0,01
333,709	-0,01
334,171	-0,01
334,633	-0,01
335,096	-0,01
335,558	-0,01
336,02	-0,02
336,482	-0,01
336,944	-0
337,406	0
337,868	0,01
338,331	0,01
338,793	0,01
339,255	0,02
339,717	0,02
340,178	0,02
340,64	0,03
341,102	0,03
341,564	0,04
342,026	0,05
342,488	0,05
342,949	0,06
343,411	0,08
343,873	0,1
344,335	0,12
344,796	0,14
345,258	0,16
345,719	0,18
346,181	0,21
346,643	0,22
347,104	0,24
347,566	0,25
348,027	0,27
348,488	0,28
348,95	0,28
349,411	0,29
349,873	0,3
350,334	0,31
350,795	0,31
351,256	0,32
351,718	0,32
352,179	0,33
352,64	0,33
353,101	0,33
353,562	0,33
354,023	0,33
354,484	0,33
354,945	0,33
355,406	0,33
355,867	0,33
356,328	0,33
356,789	0,33
357,25	0,33
357,711	0,33
358,172	0,34
358,633	0,34
359,093	0,34
359,554	0,34
360,015	0,34
360,476	0,34
360,936	0,34
361,397	0,34
361,858	0,34
362,318	0,34
362,779	0,34
363,239	0,34
363,7	0,34
364,16	0,34
364,621	0,34
365,081	0,34
365,541	0,34
366,002	0,34
366,462	0,34
366,922	0,34
367,383	0,34
367,843	0,34
368,303	0,34
368,763	0,34
369,223	0,34
369,684	0,34
370,144	0,34
370,604	0,34
371,064	0,34
371,524	0,34
371,984	0,34
372,444	0,34
372,904	0,34
373,363	0,34
373,823	0,34
374,283	0,34
374,743	0,34
375,203	0,34
375,663	0,34
376,122	0,34
376,582	0,34
377,042	0,34
377,501	0,34
377,961	0,34
378,42	0,34
378,88	0,34
379,34	0,34
379,799	0,33
380,259	0,33
380,718	0,33
381,177	0,33
381,637	0,33
382,096	0,33
382,555	0,33
383,015	0,33
383,474	0,33
383,933	0,33
384,393	0,33
384,852	0,33
385,311	0,33
385,77	0,33
386,229	0,33
386,688	0,33
387,147	0,33
387,606	0,33
388,065	0,33
388,524	0,33
388,983	0,33
389,442	0,33
389,901	0,33
390,36	0,33
390,819	0,33
391,277	0,33
391,736	0,33
392,195	0,33
392,654	0,33
393,112	0,33
393,571	0,33
394,03	0,33
394,488	0,33
394,947	0,33
395,405	0,33
395,864	0,33
396,322	0,33
396,781	0,33
397,239	0,33
397,698	0,33
398,156	0,33
398,614	0,33
399,073	0,33
399,531	0,33
399,989	0,33
400,447	0,33
400,905	0,33
401,364	0,33
401,822	0,33
402,28	0,32
402,738	0,32
403,196	0,32
403,654	0,32
404,112	0,32
404,57	0,32
405,028	0,32
405,486	0,32
405,944	0,32
406,402	0,32
406,859	0,32
407,317	0,32
407,775	0,32
408,233	0,32
408,691	0,32
409,148	0,32
409,606	0,32
410,064	0,32
410,521	0,32
410,979	0,32
411,436	0,32
411,894	0,32
412,351	0,32
412,809	0,32
413,266	0,32
413,724	0,32
414,181	0,32
414,638	0,32
415,096	0,32
415,553	0,32
416,01	0,32
416,467	0,32
416,925	0,32
417,382	0,32
417,839	0,32
418,296	0,32
418,753	0,32
419,21	0,32
419,667	0,32
420,124	0,32
420,581	0,32
421,038	0,32
421,495	0,32
421,952	0,32
422,409	0,32
422,866	0,32
423,322	0,32
423,779	0,32
424,236	0,32
424,693	0,32
425,149	0,32
425,606	0,32
426,063	0,32
426,519	0,32
426,976	0,32
427,433	0,32
427,889	0,32
428,346	0,32
428,802	0,32
429,258	0,32
429,715	0,32
430,171	0,31
430,628	0,31
431,084	0,31
431,54	0,31
431,997	0,31
432,453	0,31
432,909	0,31
433,365	0,31
433,821	0,31
434,277	0,31
434,734	0,31
435,19	0,31
435,646	0,31
436,102	0,31
436,558	0,31
437,014	0,31
437,47	0,31
437,925	0,31
438,381	0,31
438,837	0,31
439,293	0,31
439,749	0,31
440,205	0,31
440,66	0,31
441,116	0,31
441,572	0,31
442,027	0,31
442,483	0,31
442,939	0,31
443,394	0,31
443,85	0,31
444,305	0,31
444,761	0,31
445,216	0,31
445,672	0,31
446,127	0,31
446,582	0,31
447,038	0,31
447,493	0,31
447,948	0,31
448,403	0,31
448,859	0,31
449,314	0,31
449,769	0,31
450,224	0,31
450,679	0,31
451,134	0,31
451,589	0,31
452,044	0,31
452,499	0,31
452,954	0,31
453,409	0,31
453,864	0,31
454,319	0,31
454,774	0,31
455,229	0,31
455,684	0,31
456,138	0,31
456,593	0,31
457,048	0,31
457,503	0,31
457,957	0,31
458,412	0,31
458,866	0,31
459,321	0,31
459,776	0,31
460,23	0,31
460,685	0,31
461,139	0,31
461,593	0,31
462,048	0,31
462,502	0,31
462,957	0,31
463,411	0,31
463,865	0,31
464,319	0,32
464,774	0,32
465,228	0,32
465,682	0,32
466,136	0,32
466,59	0,32
467,044	0,32
467,499	0,32
467,953	0,32
468,407	0,32
468,861	0,32
469,315	0,32
469,768	0,32
470,222	0,32
470,676	0,32
471,13	0,32
471,584	0,32
472,038	0,32
472,491	0,32
472,945	0,32
473,399	0,32
473,852	0,32
474,306	0,32
474,76	0,32
475,213	0,32
475,667	0,32
476,12	0,32
476,574	0,32
477,027	0,32
477,481	0,32
477,934	0,32
478,388	0,33
478,841	0,33
479,294	0,33
479,748	0,33
480,201	0,33
480,654	0,33
481,107	0,33
481,561	0,33
482,014	0,33
482,467	0,33
482,92	0,33
483,373	0,33
483,826	0,33
484,279	0,33
484,732	0,34
485,185	0,34
485,638	0,34
486,091	0,34
486,544	0,34
486,997	0,34
487,449	0,34
487,902	0,34
488,355	0,34
488,808	0,34
489,26	0,34
489,713	0,35
490,166	0,35
490,618	0,35
491,071	0,35
491,523	0,35
491,976	0,35
492,429	0,35
492,881	0,36
493,333	0,36
493,786	0,36
494,238	0,36
494,691	0,36
495,143	0,36
495,595	0,36
496,048	0,37
496,5	0,37
496,952	0,37
497,404	0,37
497,856	0,37
498,309	0,37
498,761	0,38
499,213	0,38
499,665	0,38
500,117	0,38
500,569	0,38
501,021	0,39
501,473	0,39
501,925	0,39
502,377	0,39
502,828	0,39
503,28	0,4
503,732	0,4
504,184	0,4
504,636	0,4
505,087	0,4
505,539	0,4
505,991	0,41
506,442	0,41
506,894	0,41
507,345	0,41
507,797	0,41
508,249	0,42
508,7	0,42
509,151	0,42
509,603	0,42
510,054	0,42
510,506	0,43
510,957	0,43
511,408	0,43
511,86	0,43
512,311	0,43
512,762	0,43
513,213	0,43
513,665	0,44
514,116	0,44
514,567	0,44
515,018	0,44
515,469	0,44
515,92	0,44
516,371	0,45
516,822	0,45
517,273	0,45
517,724	0,45
518,175	0,45
518,626	0,45
519,076	0,46
519,527	0,46
519,978	0,46
520,429	0,46
520,88	0,46
521,33	0,46
521,781	0,46
522,232	0,46
522,682	0,47
523,133	0,47
523,583	0,47
524,034	0,47
524,484	0,47
524,935	0,47
525,385	0,47
525,836	0,47
526,286	0,47
526,736	0,47
527,187	0,47
527,637	0,47
528,087	0,47
528,538	0,47
528,988	0,47
529,438	0,47
529,888	0,47
530,338	0,47
530,788	0,47
531,238	0,47
531,688	0,47
532,139	0,47
532,589	0,47
533,038	0,47
533,488	0,47
533,938	0,47
534,388	0,47
534,838	0,47
535,288	0,47
535,738	0,47
536,187	0,46
536,637	0,46
537,087	0,46
537,537	0,46
537,986	0,46
538,436	0,46
538,885	0,46
539,335	0,45
539,785	0,45
540,234	0,45
540,684	0,45
541,133	0,45
541,582	0,44
542,032	0,44
542,481	0,44
542,931	0,44
543,38	0,44
543,829	0,44
544,278	0,43
544,728	0,43
545,177	0,43
545,626	0,43
546,075	0,43
546,524	0,43
546,973	0,42
547,422	0,42
547,871	0,42
548,32	0,42
548,769	0,42
549,218	0,42
549,667	0,42
550,116	0,42
550,565	0,42
551,014	0,42
551,463	0,42
551,911	0,42
552,36	0,41
552,809	0,41
553,258	0,41
553,706	0,41
554,155	0,41
554,603	0,41
555,052	0,41
555,501	0,4
555,949	0,4
556,398	0,4
556,846	0,4
557,294	0,4
557,743	0,4
558,191	0,39
558,64	0,39
559,088	0,39
559,536	0,39
559,985	0,39
560,433	0,39
560,881	0,38
561,329	0,38
561,777	0,38
562,225	0,38
562,674	0,38
563,122	0,38
563,57	0,38
564,018	0,37
564,466	0,37
564,914	0,37
565,362	0,37
565,809	0,37
566,257	0,37
566,705	0,37
567,153	0,36
567,601	0,36
568,048	0,36
568,496	0,36
568,944	0,36
569,392	0,36
569,839	0,35
570,287	0,35
570,734	0,35
571,182	0,35
571,63	0,35
572,077	0,35
572,525	0,35
572,972	0,35
573,419	0,34
573,867	0,34
574,314	0,34
574,761	0,34
575,209	0,34
575,656	0,34
576,103	0,34
576,551	0,34
576,998	0,34
577,445	0,34
577,892	0,33
578,339	0,33
578,786	0,33
579,233	0,33
579,68	0,33
580,127	0,33
580,574	0,33
581,021	0,33
581,468	0,33
581,915	0,33
582,362	0,33
582,809	0,32
583,255	0,32
583,702	0,32
584,149	0,32
584,596	0,32
585,042	0,32
585,489	0,32
585,936	0,32
586,382	0,32
586,829	0,32
587,275	0,32
587,722	0,32
588,168	0,32
588,615	0,31
589,061	0,31
589,508	0,31
589,954	0,31
590,4	0,31
590,847	0,31
591,293	0,31
591,739	0,31
592,185	0,31
592,632	0,31
593,078	0,31
593,524	0,31
593,97	0,31
594,416	0,31
594,862	0,31
595,308	0,31
595,754	0,3
596,2	0,3
596,646	0,3
597,092	0,3
597,538	0,3
597,984	0,3
598,43	0,3
598,876	0,3
599,321	0,3
599,767	0,3
600,213	0,3
600,659	0,3
601,104	0,3
601,55	0,3
601,995	0,3
602,441	0,3
602,887	0,3
603,332	0,3
603,778	0,29
604,223	0,29
604,668	0,29
605,114	0,29
605,559	0,29
606,005	0,29
606,45	0,29
606,895	0,29
607,341	0,29
607,786	0,29
608,231	0,29
608,676	0,29
609,121	0,29
609,566	0,28
610,012	0,28
610,457	0,28
610,902	0,28
611,347	0,28
611,792	0,28
612,237	0,27
612,682	0,27
613,127	0,27
613,571	0,27
614,016	0,28
614,461	0,28
614,906	0,28
615,351	0,28
615,795	0,28
616,24	0,28
616,685	0,28
617,129	0,28
617,574	0,28
618,019	0,28
618,463	0,28
618,908	0,28
619,352	0,28
619,797	0,28
620,241	0,28
620,686	0,28
621,13	0,28
621,574	0,28
622,019	0,28
622,463	0,28
622,907	0,28
623,352	0,28
623,796	0,28
624,24	0,28
624,684	0,28
625,128	0,28
625,572	0,28
626,016	0,28
626,461	0,28
626,905	0,28
627,349	0,28
627,793	0,28
628,236	0,28
628,68	0,28
629,124	0,28
629,568	0,28
630,012	0,28
630,456	0,28
630,9	0,28
631,343	0,28
631,787	0,28
632,231	0,28
632,674	0,28
633,118	0,28
633,562	0,28
634,005	0,28
634,449	0,28
634,892	0,28
635,336	0,28
635,779	0,28
636,223	0,28
636,666	0,28
637,109	0,28
637,553	0,27
637,996	0,27
638,439	0,27
638,883	0,27
639,326	0,27
639,769	0,27
640,212	0,27
640,655	0,27
641,099	0,27
641,542	0,27
641,985	0,27
642,428	0,27
642,871	0,27
643,314	0,27
643,757	0,27
644,2	0,27
644,643	0,27
645,085	0,27
645,528	0,27
645,971	0,27
646,414	0,27
646,857	0,27
647,299	0,27
647,742	0,27
648,185	0,27
648,627	0,27
649,07	0,27
649,513	0,27
649,955	0,27
650,398	0,27
650,84	0,27
651,283	0,27
651,725	0,27
652,168	0,27
652,61	0,27
653,052	0,27
653,495	0,26
653,937	0,21
654,379	0,17
654,821	0,17
655,264	0,17
655,706	0,17
656,148	0,17
656,59	0,17
657,032	0,17
657,474	0,17
657,916	0,17
658,358	0,17
658,8	0,21
659,242	0,26
659,684	0,27
660,126	0,27
660,568	0,27
661,01	0,27
661,452	0,27
661,894	0,27
662,335	0,26
662,777	0,26
663,219	0,26
663,661	0,26
664,102	0,26
664,544	0,26
664,985	0,26
665,427	0,26
665,869	0,26
666,31	0,26
666,752	0,26
667,193	0,26
667,634	0,26
668,076	0,26
668,517	0,26
668,959	0,26
669,4	0,26
669,841	0,26
670,282	0,26
670,724	0,26
671,165	0,26
671,606	0,26
672,047	0,26
672,488	0,26
672,929	0,26
673,37	0,26
673,811	0,26
674,252	0,26
674,693	0,26
675,134	0,26
675,575	0,26
676,016	0,26
676,457	0,26
676,898	0,26
677,339	0,26
677,78	0,26
678,22	0,26
678,661	0,26
679,102	0,26
679,542	0,26
679,983	0,26
680,424	0,26
680,864	0,26
681,305	0,26
681,745	0,26
682,186	0,26
682,626	0,26
683,067	0,26
683,507	0,26
683,948	0,26
684,388	0,26
684,828	0,26
685,269	0,26
685,709	0,26
686,149	0,26
686,589	0,26
687,029	0,25
687,47	0,25
687,91	0,25
688,35	0,25
688,79	0,25
689,23	0,25
689,67	0,25
690,11	0,25
690,55	0,25
690,99	0,25
691,43	0,25
691,87	0,25
692,31	0,25
692,749	0,25
693,189	0,25
693,629	0,25
694,069	0,25
694,508	0,25
694,948	0,25
695,388	0,25
695,827	0,25
696,267	0,25
696,706	0,25
697,146	0,25
697,586	0,25
698,025	0,25
698,464	0,25
698,904	0,25
699,343	0,25
699,783	0,25
700,222	0,25
700,661	0,25
701,101	0,25
701,54	0,25
701,979	0,25
702,418	0,25
702,857	0,25
703,297	0,25
703,736	0,25
704,175	0,25
704,614	0,25
705,053	0,25
705,492	0,25
705,931	0,25
706,37	0,25
706,809	0,25
707,248	0,24
707,687	0,24
708,125	0,24
708,564	0,24
709,003	0,24
709,442	0,24
709,88	0,24
710,319	0,24
710,758	0,24
711,196	0,24
711,635	0,24
712,074	0,24
712,512	0,24
712,951	0,24
713,389	0,24
713,828	0,24
714,266	0,24
714,705	0,24
715,143	0,24
715,581	0,24
716,02	0,24
716,458	0,24
716,896	0,24
717,334	0,24
717,773	0,24
718,211	0,23
718,649	0,23
719,087	0,23
719,525	0,24
719,963	0,24
720,401	0,24
720,839	0,24
721,277	0,24
721,715	0,24
722,153	0,24
722,591	0,24
723,029	0,24
723,467	0,24
723,905	0,24
724,342	0,24
724,78	0,23
725,218	0,23
725,656	0,23
726,093	0,23
726,531	0,23
726,969	0,23
727,406	0,23
727,844	0,23
728,281	0,23
728,719	0,23
729,156	0,23
729,594	0,23
730,031	0,23
730,469	0,23
730,906	0,23
731,343	0,23
731,781	0,23
732,218	0,23
732,655	0,23
733,092	0,23
733,53	0,23
733,967	0,23
734,404	0,23
734,841	0,23
735,278	0,23
735,715	0,23
736,152	0,23
736,589	0,23
737,026	0,23
737,463	0,23
737,9	0,23
738,337	0,22
738,774	0,22
739,211	0,22
739,647	0,22
740,084	0,22
740,521	0,22
740,958	0,22
741,394	0,22
741,831	0,22
742,268	0,22
742,704	0,22
743,141	0,22
743,577	0,22
744,014	0,22
744,45	0,22
744,887	0,22
745,323	0,21
745,76	0,21
746,196	0,21
746,632	0,21
747,069	0,21
747,505	0,21
747,941	0,21
748,378	0,21
748,814	0,21
749,25	0,21
749,686	0,22
750,122	0,22
750,558	0,22
750,994	0,22
751,43	0,22
751,866	0,22
752,302	0,22
752,738	0,22
753,174	0,22
753,61	0,22
754,046	0,23
754,482	0,23
754,918	0,23
755,354	0,23
755,789	0,23
756,225	0,23
756,661	0,23
757,096	0,23
757,532	0,22
757,968	0,22
758,403	0,22
758,839	0,22
759,274	0,22
759,71	0,22
760,145	0,21
760,581	0,21
761,016	0,21
761,452	0,2
761,887	0,2
762,322	0,2
762,758	0,2
763,193	0,19
763,628	0,19
764,063	0,18
764,499	0,18
764,934	0,18
765,369	0,17
765,804	0,17
766,239	0,16
766,674	0,16
767,109	0,15
767,544	0,15
767,979	0,14
768,414	0,13
768,849	0,12
769,284	0,12
769,719	0,11
770,154	0,11
770,588	0,1
771,023	0,09
771,458	0,08
771,893	0,08
772,327	0,07
772,762	0,06
773,197	0,05
773,631	0,04
774,066	0,04
774,5	0,03
774,935	0,03
775,369	0,02
775,804	0,01
776,238	0,01
776,673	-0
777,107	-0,01
777,541	-0,01
777,976	-0,02
778,41	-0,03
778,844	-0,04
779,279	-0,04
779,713	-0,04
780,147	-0,05
780,581	-0,05
781,015	-0,06
781,449	-0,07
781,883	-0,08
782,317	-0,1
782,751	-0,1
783,185	-0,1
783,619	-0,11
784,053	-0,12
784,487	-0,12
784,921	-0,13
785,355	-0,14
785,789	-0,15
786,223	-0,16
786,656	-0,16
787,09	-0,17
787,524	-0,18
787,957	-0,19
788,391	-0,21
788,825	-0,23
789,258	-0,25
789,692	-0,26
790,125	-0,27
790,559	-0,29
790,992	-0,31
791,426	-0,33
791,859	-0,34
792,293	-0,38
792,726	-0,39
793,159	-0,41
793,593	-0,43
794,026	-0,45
794,459	-0,48
794,892	-0,51
795,326	-0,53
795,759	-0,57
796,192	-0,61
796,625	-0,66
797,058	-0,69
797,491	-0,73
797,924	-0,77
798,357	-0,82
798,79	-0,86
799,223	-0,91
799,656	-0,96
800,089	-1,01
800,522	-1,05
800,955	-1,1
801,387	-1,16
801,82	-1,21
802,253	-1,27
802,686	-1,35
803,118	-1,41
803,551	-1,46
803,984	-1,51
804,416	-1,55
804,849	-1,6
805,281	-1,76
805,714	-2,13
806,146	-2,52
806,579	-2,75
807,011	-2,9
807,444	-2,99
807,876	-3,06
808,308	-3,09
808,741	-3,12
809,173	-3,17
809,605	-3,19
810,037	-3,26
810,47	-3,17
810,902	-2,97
811,334	-2,81
811,766	-2,64
812,198	-2,38
812,63	-1,99
813,062	-1,81
813,494	-1,72
813,926	-1,64
814,358	-1,58
814,79	-1,5
815,222	-1,44
815,654	-1,39
816,086	-1,33
816,518	-1,27
816,949	-1,22
817,381	-1,18
817,813	-1,16
818,245	-1,12
818,676	-1,08
819,108	-1,04
819,54	-1,03
819,971	-1,01
820,403	-0,96
820,834	-0,94
821,266	-0,9
821,697	-0,87
822,129	-0,86
822,56	-0,83
822,991	-0,81
823,423	-0,78
823,854	-0,77
824,286	-0,75
824,717	-0,73
825,148	-0,71
825,579	-0,7
826,01	-0,68
826,442	-0,68
826,873	-0,66
827,304	-0,63
827,735	-0,62
828,166	-0,62
828,597	-0,62
829,028	-0,61
829,459	-0,62
829,89	-0,62
830,321	-0,57
830,752	-0,58
831,183	-0,56
831,613	-0,55
832,044	-0,54
832,475	-0,52
832,906	-0,53
833,336	-0,54
833,767	-0,54
834,198	-0,53
834,628	-0,51
835,059	-0,54
835,49	-0,55
835,92	-0,53
836,351	-0,53
836,781	-0,53
837,212	-0,55
837,642	-0,55
838,072	-0,53
838,503	-0,54
838,933	-0,52
839,364	-0,53
839,794	-0,52
840,224	-0,5
840,654	-0,55
841,085	-0,56
841,515	-0,53
841,945	-0,53
842,375	-0,48
842,805	-0,47
843,235	-0,46
843,665	-0,47
844,095	-0,45
844,525	-0,46
844,955	-0,47
845,385	-0,45
845,815	-0,42
846,245	-0,45
846,675	-0,46
847,105	-0,49
847,534	-0,49
847,964	-0,48
848,394	-0,46
848,824	-0,5
849,253	-0,49
849,683	-0,49
850,112	-0,49
850,542	-0,53
850,972	-0,53
851,401	-0,5
851,831	-0,48
852,26	-0,49
852,69	-0,52
853,119	-0,52
853,548	-0,52
853,978	-0,53
854,407	-0,51
854,836	-0,51
855,266	-0,5
855,695	-0,52
856,124	-0,53
856,553	-0,54
856,983	-0,56
857,412	-0,55
857,841	-0,55
858,27	-0,55
858,699	-0,56
859,128	-0,59
859,557	-0,6
859,986	-0,6
860,415	-0,58
860,844	-0,56
861,273	-0,55
861,702	-0,55
862,13	-0,52
862,559	-0,55
862,988	-0,53
863,417	-0,51
863,845	-0,5
864,274	-0,52
864,703	-0,51
865,131	-0,52
865,56	-0,53
865,989	-0,56
866,417	-0,53
866,846	-0,55
867,274	-0,54
867,703	-0,55
868,131	-0,57
868,559	-0,57
868,988	-0,58
869,416	-0,57
869,844	-0,58
870,273	-0,61
870,701	-0,59
871,129	-0,61
871,557	-0,64
871,986	-0,64
872,414	-0,66
872,842	-0,63
873,27	-0,61
873,698	-0,58
874,126	-0,62
874,554	-0,6
874,982	-0,61
875,41	-0,64
875,838	-0,59
876,266	-0,57
876,694	-0,57
877,122	-0,57
877,549	-0,61
877,977	-0,59
878,405	-0,62
878,833	-0,59
879,26	-0,57
879,688	-0,57
880,116	-0,55
880,543	-0,53
880,971	-0,52
881,399	-0,55
881,826	-0,55
882,254	-0,53
882,681	-0,56
883,109	-0,52
883,536	-0,53
883,963	-0,54
884,391	-0,53
884,818	-0,51
885,245	-0,54
885,673	-0,56
886,1	-0,53
886,527	-0,54
886,954	-0,51
887,381	-0,52
887,809	-0,53
888,236	-0,55
888,663	-0,56
889,09	-0,6
889,517	-0,62
889,944	-0,61
890,371	-0,6
890,798	-0,61
891,225	-0,61
891,652	-0,63
892,078	-0,61
892,505	-0,63
892,932	-0,59
893,359	-0,59
893,786	-0,6
894,212	-0,56
894,639	-0,59
895,066	-0,61
895,492	-0,55
895,919	-0,55
896,346	-0,54
896,772	-0,55
897,199	-0,52
897,625	-0,54
898,052	-0,51
898,478	-0,49
898,904	-0,5
899,331	-0,49
899,757	-0,5
900,183	-0,52
900,61	-0,5
901,036	-0,52
901,462	-0,52
901,888	-0,52
902,315	-0,51
902,741	-0,56
903,167	-0,54
903,593	-0,57
904,019	-0,57
904,445	-0,54
904,871	-0,57
905,297	-0,6
905,723	-0,58
906,149	-0,57
906,575	-0,58
907,001	-0,58
907,427	-0,54
907,852	-0,54
908,278	-0,54
908,704	-0,52
909,13	-0,52
909,555	-0,51
909,981	-0,5
910,407	-0,5
910,832	-0,5
911,258	-0,5
911,684	-0,5
912,109	-0,5
912,535	-0,52
912,96	-0,48
913,386	-0,52
913,811	-0,51
914,236	-0,53
914,662	-0,51
915,087	-0,54
915,512	-0,55
915,938	-0,56
916,363	-0,56
916,788	-0,58
917,213	-0,56
917,639	-0,61
918,064	-0,58
918,489	-0,59
918,914	-0,59
919,339	-0,6
919,764	-0,57
920,189	-0,57
920,614	-0,59
921,039	-0,59
921,464	-0,55
921,889	-0,57
922,314	-0,59
922,738	-0,62
923,163	-0,62
923,588	-0,62
924,013	-0,62
924,437	-0,61
924,862	-0,63
925,287	-0,59
925,711	-0,6
926,136	-0,62
926,561	-0,6
926,985	-0,58
927,41	-0,55
927,834	-0,53
928,259	-0,5
928,683	-0,49
929,108	-0,47
929,532	-0,47
929,956	-0,47
930,381	-0,46
930,805	-0,46
931,229	-0,46
931,653	-0,44
932,078	-0,44
932,502	-0,45
932,926	-0,46
933,35	-0,46
933,774	-0,45
934,198	-0,43
934,622	-0,42
935,046	-0,43
935,47	-0,43
935,894	-0,42
936,318	-0,42
936,742	-0,42
937,166	-0,43
937,59	-0,43
938,014	-0,45
938,437	-0,45
938,861	-0,48
939,285	-0,48
939,709	-0,48
940,132	-0,49
940,556	-0,49
940,98	-0,49
941,403	-0,47
941,827	-0,48
942,25	-0,48
942,674	-0,47
943,097	-0,47
943,521	-0,47
943,944	-0,48
944,368	-0,47
944,791	-0,45
945,214	-0,48
945,638	-0,48
946,061	-0,52
946,484	-0,52
946,907	-0,51
947,331	-0,51
947,754	-0,55
948,177	-0,51
948,6	-0,51
949,023	-0,51
949,446	-0,51
949,869	-0,49
950,292	-0,49
950,715	-0,46
951,138	-0,44
951,561	-0,42
951,984	-0,42
952,407	-0,41
952,83	-0,4
953,252	-0,37
953,675	-0,37
954,098	-0,37
954,521	-0,36
954,943	-0,36
955,366	-0,36
955,789	-0,34
956,211	-0,36
956,634	-0,36
957,056	-0,33
957,479	-0,34
957,902	-0,36
958,324	-0,36
958,746	-0,34
959,169	-0,36
959,591	-0,36
960,014	-0,37
960,436	-0,37
960,858	-0,37
961,281	-0,37
961,703	-0,39
962,125	-0,39
962,547	-0,38
962,969	-0,39
963,391	-0,39
963,814	-0,39
964,236	-0,38
964,658	-0,35
965,08	-0,36
965,502	-0,35
965,924	-0,33
966,346	-0,33
966,768	-0,32
967,189	-0,34
967,611	-0,33
968,033	-0,33
968,455	-0,32
968,877	-0,33
969,298	-0,35
969,72	-0,35
970,142	-0,34
970,563	-0,34
970,985	-0,33
971,407	-0,33
971,828	-0,3
972,25	-0,29
972,671	-0,28
973,093	-0,27
973,514	-0,26
973,936	-0,25
974,357	-0,23
974,778	-0,24
975,2	-0,23
975,621	-0,23
976,042	-0,21
976,464	-0,21
976,885	-0,2
977,306	-0,2
977,727	-0,2
978,148	-0,19
978,57	-0,18
978,991	-0,16
979,412	-0,15
979,833	-0,14
980,254	-0,14
980,675	-0,14
981,096	-0,13
981,517	-0,11
981,937	-0,11
982,358	-0,1
982,779	-0,09
983,2	-0,09
983,621	-0,09
984,042	-0,08
984,462	-0,07
984,883	-0,06
985,304	-0,05
985,724	-0,04
986,145	-0,04
986,565	-0,03
986,986	-0,02
987,407	-0,01
987,827	-0,01
988,248	0,01
988,668	0,01
989,088	0,02
989,509	0,03
989,929	0,03
990,35	0,04
990,77	0,05
991,19	0,06
991,61	0,06
992,031	0,07
992,451	0,07
992,871	0,08
993,291	0,08
993,711	0,08
994,131	0,09
994,551	0,09
994,971	0,1
995,391	0,1
995,811	0,1
996,231	0,11
996,651	0,11
997,071	0,11
997,491	0,12
997,911	0,12
998,331	0,13
998,75	0,13
999,17	0,14
999,59	0,14
1000,009	0,14
1000,429	0,14
1000,849	0,15
1001,268	0,15
1001,688	0,15
1002,107	0,15
1002,527	0,16
1002,946	0,16
1003,366	0,16
1003,785	0,16
1004,205	0,16
1004,624	0,16
1005,044	0,17
1005,463	0,17
1005,882	0,17
1006,301	0,17
1006,721	0,17
1007,14	0,17
1007,559	0,17
1007,978	0,17
1008,397	0,17
1008,816	0,17
1009,235	0,17
1009,655	0,17
1010,074	0,17
1010,492	0,16
1010,911	0,16
1011,33	0,16
1011,749	0,16
1012,168	0,16
1012,587	0,16
1013,006	0,16
1013,425	0,16
1013,843	0,16
1014,262	0,16
1014,681	0,16
1015,099	0,16
1015,518	0,16
1015,937	0,16
1016,355	0,16
1016,774	0,16
1017,192	0,16
1017,611	0,16
1018,029	0,16
1018,448	0,16
1018,866	0,16
1019,285	0,16
1019,703	0,16
1020,121	0,16
1020,54	0,16
1020,958	0,16
1021,376	0,16
1021,794	0,16
1022,213	0,16
1022,631	0,16
1023,049	0,16
1023,467	0,16
1023,885	0,16
1024,303	0,16
1024,721	0,16
1025,139	0,16
1025,557	0,16
1025,975	0,16
1026,393	0,16
1026,811	0,15
1027,229	0,15
1027,647	0,15
1028,065	0,15
1028,482	0,15
1028,9	0,15
1029,318	0,15
1029,735	0,15
1030,153	0,15
1030,571	0,15
1030,988	0,15
1031,406	0,15
1031,823	0,15
1032,241	0,15
1032,659	0,15
1033,076	0,16
1033,493	0,16
1033,911	0,16
1034,328	0,16
1034,746	0,16
1035,163	0,16
1035,58	0,15
1035,997	0,16
1036,415	0,16
1036,832	0,15
1037,249	0,15
1037,666	0,15
1038,083	0,15
1038,501	0,15
1038,918	0,15
1039,335	0,15
1039,752	0,15
1040,169	0,15
1040,586	0,15
1041,003	0,15
1041,419	0,15
1041,836	0,15
1042,253	0,15
1042,67	0,15
1043,087	0,15
1043,504	0,15
1043,92	0,14
1044,337	0,14
1044,754	0,14
1045,17	0,14
1045,587	0,14
1046,004	0,14
1046,42	0,14
1046,837	0,14
1047,253	0,14
1047,67	0,14
1048,086	0,14
1048,503	0,14
1048,919	0,14
1049,335	0,14
1049,752	0,14
1050,168	0,14
1050,584	0,14
1051,001	0,14
1051,417	0,14
1051,833	0,14
1052,249	0,14
1052,665	0,14
1053,081	0,14
1053,497	0,14
1053,914	0,14
1054,33	0,14
1054,746	0,14
1055,162	0,14
1055,578	0,14
1055,993	0,14
1056,409	0,14
1056,825	0,14
1057,241	0,14
1057,657	0,14
1058,073	0,14
1058,488	0,14
1058,904	0,14
1059,32	0,14
1059,736	0,14
1060,151	0,14
1060,567	0,14
1060,982	0,14
1061,398	0,14
1061,813	0,14
1062,229	0,14
1062,644	0,14
1063,06	0,14
1063,475	0,14
1063,891	0,14
1064,306	0,14
1064,721	0,14
1065,137	0,14
1065,552	0,14
1065,967	0,14
1066,382	0,14
1066,798	0,14
1067,213	0,14
1067,628	0,14
1068,043	0,14
1068,458	0,14
1068,873	0,14
1069,288	0,14
1069,703	0,14
1070,118	0,14
1070,533	0,14
1070,948	0,15
1071,363	0,15
1071,778	0,15
1072,193	0,15
1072,607	0,15
1073,022	0,15
1073,437	0,15
1073,852	0,15
1074,266	0,15
1074,681	0,15
1075,096	0,15
1075,51	0,15
1075,925	0,15
1076,339	0,15
1076,754	0,15
1077,168	0,15
1077,583	0,15
1077,997	0,15
1078,412	0,15
1078,826	0,15
1079,24	0,15
1079,655	0,15
1080,069	0,14
1080,483	0,14
1080,897	0,14
1081,312	0,14
1081,726	0,14
1082,14	0,14
1082,554	0,14
1082,968	0,14
1083,382	0,14
1083,796	0,14
1084,21	0,14
1084,624	0,14
1085,038	0,14
1085,452	0,14
1085,866	0,14
1086,28	0,13
1086,694	0,13
1087,108	0,13
1087,521	0,13
1087,935	0,13
1088,349	0,13
1088,763	0,13
1089,176	0,13
1089,59	0,13
1090,004	0,12
1090,417	0,12
1090,831	0,12
1091,244	0,12
1091,658	0,12
1092,071	0,12
1092,485	0,12
1092,898	0,11
1093,312	0,11
1093,725	0,11
1094,138	0,11
1094,552	0,11
1094,965	0,11
1095,378	0,11
1095,791	0,11
1096,205	0,11
1096,618	0,11
1097,031	0,11
1097,444	0,11
1097,857	0,11
1098,27	0,11
1098,683	0,11
1099,096	0,1
1099,509	0,1
1099,922	0,1
1100,335	0,1
1100,748	0,09
1101,161	0,09
1101,574	0,09
1101,986	0,09
1102,399	0,08
1102,812	0,08
1103,225	0,08
1103,637	0,07
1104,05	0,07
1104,463	0,07
1104,875	0,07
1105,288	0,07
1105,7	0,06
1106,113	0,06
1106,525	0,05
1106,938	0,05
1107,35	0,05
1107,763	0,05
1108,175	0,05
1108,588	0,04
1109	0,04
1109,412	0,04
1109,824	0,04
1110,237	0,04
1110,649	0,04
1111,061	0,05
