Data from 18C-808nm-8A_Absorbance__1176__01176.txt Node

Date: Mon Jul 17 17:05:23 CEST 2023
User: Laser008
Spectrometer: MAYP115816
Trigger mode: 0
Integration Time (sec): 2,500000E-1
Scans to average: 10
Electric dark correction enabled: true
Nonlinearity correction enabled: true
Boxcar width: 5
XAxis mode: Wavelengths
Number of Pixels in Spectrum: 2068
>>>>>Begin Spectral Data<<<<<
198,914	-0,75
199,384	-0,53
199,855	-0,41
200,325	-0,33
200,796	-0,3
201,266	-0,25
201,737	-0,23
202,207	-0,21
202,677	-0,2
203,147	-0,18
203,618	-0,15
204,088	-0,14
204,558	-0,13
205,028	-0,12
205,498	-0,12
205,968	-0,12
206,439	-0,13
206,909	-0,13
207,379	-0,13
207,849	-0,13
208,319	-0,14
208,789	-0,14
209,258	-0,14
209,728	-0,16
210,198	-0,15
210,668	-0,15
211,138	-0,14
211,608	-0,13
212,077	-0,13
212,547	-0,13
213,017	-0,13
213,486	-0,13
213,956	-0,13
214,426	-0,14
214,895	-0,14
215,365	-0,15
215,834	-0,16
216,304	-0,17
216,773	-0,18
217,243	-0,19
217,712	-0,21
218,181	-0,21
218,651	-0,21
219,12	-0,21
219,589	-0,21
220,058	-0,2
220,528	-0,2
220,997	-0,21
221,466	-0,22
221,935	-0,23
222,404	-0,23
222,873	-0,21
223,342	-0,21
223,812	-0,21
224,281	-0,21
224,749	-0,2
225,218	-0,21
225,687	-0,21
226,156	-0,2
226,625	-0,18
227,094	-0,18
227,563	-0,17
228,031	-0,19
228,5	-0,18
228,969	-0,19
229,438	-0,19
229,906	-0,18
230,375	-0,18
230,844	-0,18
231,312	-0,17
231,781	-0,19
232,249	-0,17
232,718	-0,18
233,186	-0,17
233,655	-0,17
234,123	-0,16
234,591	-0,16
235,06	-0,17
235,528	-0,18
235,996	-0,18
236,465	-0,17
236,933	-0,16
237,401	-0,17
237,869	-0,16
238,337	-0,16
238,805	-0,15
239,274	-0,15
239,742	-0,15
240,21	-0,13
240,678	-0,12
241,146	-0,11
241,614	-0,12
242,081	-0,11
242,549	-0,11
243,017	-0,12
243,485	-0,12
243,953	-0,12
244,421	-0,11
244,888	-0,11
245,356	-0,12
245,824	-0,12
246,291	-0,12
246,759	-0,13
247,227	-0,14
247,694	-0,13
248,162	-0,12
248,629	-0,11
249,097	-0,12
249,564	-0,12
250,032	-0,13
250,499	-0,13
250,967	-0,14
251,434	-0,15
251,901	-0,14
252,369	-0,14
252,836	-0,15
253,303	-0,17
253,77	-0,19
254,237	-0,18
254,705	-0,18
255,172	-0,19
255,639	-0,19
256,106	-0,2
256,573	-0,2
257,04	-0,2
257,507	-0,21
257,974	-0,21
258,441	-0,19
258,908	-0,2
259,375	-0,21
259,841	-0,21
260,308	-0,21
260,775	-0,22
261,242	-0,21
261,709	-0,21
262,175	-0,22
262,642	-0,22
263,109	-0,22
263,575	-0,24
264,042	-0,22
264,508	-0,21
264,975	-0,22
265,441	-0,22
265,908	-0,22
266,374	-0,21
266,841	-0,21
267,307	-0,21
267,773	-0,2
268,24	-0,2
268,706	-0,21
269,172	-0,22
269,639	-0,23
270,105	-0,22
270,571	-0,22
271,037	-0,23
271,503	-0,24
271,969	-0,23
272,435	-0,23
272,902	-0,24
273,368	-0,25
273,834	-0,24
274,3	-0,24
274,765	-0,24
275,231	-0,24
275,697	-0,24
276,163	-0,23
276,629	-0,23
277,095	-0,24
277,56	-0,24
278,026	-0,24
278,492	-0,23
278,958	-0,23
279,423	-0,23
279,889	-0,23
280,354	-0,23
280,82	-0,23
281,286	-0,24
281,751	-0,24
282,217	-0,23
282,682	-0,24
283,147	-0,24
283,613	-0,25
284,078	-0,25
284,544	-0,26
285,009	-0,26
285,474	-0,25
285,939	-0,26
286,405	-0,25
286,87	-0,25
287,335	-0,25
287,8	-0,24
288,265	-0,22
288,73	-0,23
289,195	-0,25
289,66	-0,25
290,125	-0,24
290,59	-0,25
291,055	-0,23
291,52	-0,24
291,985	-0,24
292,45	-0,26
292,915	-0,26
293,38	-0,26
293,844	-0,24
294,309	-0,23
294,774	-0,22
295,239	-0,23
295,703	-0,23
296,168	-0,22
296,632	-0,21
297,097	-0,2
297,562	-0,18
298,026	-0,18
298,491	-0,18
298,955	-0,18
299,419	-0,18
299,884	-0,18
300,348	-0,16
300,813	-0,16
301,277	-0,17
301,741	-0,17
302,205	-0,17
302,67	-0,17
303,134	-0,17
303,598	-0,17
304,062	-0,16
304,526	-0,16
304,99	-0,17
305,454	-0,17
305,919	-0,17
306,383	-0,17
306,847	-0,16
307,31	-0,17
307,774	-0,18
308,238	-0,18
308,702	-0,17
309,166	-0,19
309,63	-0,18
310,094	-0,16
310,557	-0,16
311,021	-0,15
311,485	-0,15
311,948	-0,15
312,412	-0,15
312,876	-0,15
313,339	-0,15
313,803	-0,16
314,266	-0,15
314,73	-0,16
315,193	-0,16
315,657	-0,16
316,12	-0,15
316,584	-0,14
317,047	-0,14
317,51	-0,13
317,973	-0,13
318,437	-0,12
318,9	-0,11
319,363	-0,09
319,826	-0,09
320,29	-0,1
320,753	-0,1
321,216	-0,1
321,679	-0,1
322,142	-0,1
322,605	-0,11
323,068	-0,1
323,531	-0,1
323,994	-0,11
324,457	-0,11
324,92	-0,09
325,382	-0,08
325,845	-0,08
326,308	-0,08
326,771	-0,08
327,233	-0,07
327,696	-0,05
328,159	-0,05
328,622	-0,04
329,084	-0,04
329,547	-0,03
330,009	-0,04
330,472	-0,03
330,934	-0,02
331,397	-0,02
331,859	-0,01
332,322	-0,01
332,784	-0,01
333,246	-0,01
333,709	-0,01
334,171	0
334,633	0,01
335,096	0,01
335,558	0,02
336,02	0,02
336,482	0,02
336,944	0,02
337,406	0,03
337,868	0,04
338,331	0,04
338,793	0,05
339,255	0,05
339,717	0,05
340,178	0,05
340,64	0,07
341,102	0,07
341,564	0,08
342,026	0,08
342,488	0,08
342,949	0,1
343,411	0,12
343,873	0,14
344,335	0,16
344,796	0,19
345,258	0,23
345,719	0,26
346,181	0,29
346,643	0,32
347,104	0,34
347,566	0,36
348,027	0,38
348,488	0,39
348,95	0,4
349,411	0,42
349,873	0,43
350,334	0,44
350,795	0,44
351,256	0,45
351,718	0,45
352,179	0,46
352,64	0,46
353,101	0,46
353,562	0,46
354,023	0,46
354,484	0,46
354,945	0,47
355,406	0,47
355,867	0,47
356,328	0,47
356,789	0,47
357,25	0,47
357,711	0,47
358,172	0,47
358,633	0,48
359,093	0,48
359,554	0,48
360,015	0,48
360,476	0,48
360,936	0,48
361,397	0,48
361,858	0,48
362,318	0,48
362,779	0,48
363,239	0,48
363,7	0,48
364,16	0,48
364,621	0,48
365,081	0,48
365,541	0,48
366,002	0,48
366,462	0,48
366,922	0,48
367,383	0,48
367,843	0,48
368,303	0,48
368,763	0,48
369,223	0,48
369,684	0,48
370,144	0,48
370,604	0,48
371,064	0,48
371,524	0,48
371,984	0,48
372,444	0,48
372,904	0,48
373,363	0,48
373,823	0,48
374,283	0,48
374,743	0,48
375,203	0,48
375,663	0,48
376,122	0,48
376,582	0,48
377,042	0,48
377,501	0,48
377,961	0,48
378,42	0,48
378,88	0,48
379,34	0,48
379,799	0,48
380,259	0,47
380,718	0,47
381,177	0,47
381,637	0,47
382,096	0,47
382,555	0,47
383,015	0,47
383,474	0,47
383,933	0,47
384,393	0,47
384,852	0,47
385,311	0,47
385,77	0,47
386,229	0,47
386,688	0,47
387,147	0,47
387,606	0,47
388,065	0,47
388,524	0,47
388,983	0,47
389,442	0,47
389,901	0,47
390,36	0,47
390,819	0,47
391,277	0,47
391,736	0,47
392,195	0,47
392,654	0,47
393,112	0,47
393,571	0,47
394,03	0,47
394,488	0,47
394,947	0,47
395,405	0,47
395,864	0,47
396,322	0,47
396,781	0,47
397,239	0,47
397,698	0,47
398,156	0,47
398,614	0,46
399,073	0,46
399,531	0,46
399,989	0,46
400,447	0,46
400,905	0,46
401,364	0,46
401,822	0,46
402,28	0,46
402,738	0,46
403,196	0,46
403,654	0,46
404,112	0,46
404,57	0,46
405,028	0,46
405,486	0,46
405,944	0,46
406,402	0,46
406,859	0,46
407,317	0,46
407,775	0,46
408,233	0,46
408,691	0,46
409,148	0,46
409,606	0,46
410,064	0,46
410,521	0,46
410,979	0,46
411,436	0,46
411,894	0,46
412,351	0,46
412,809	0,46
413,266	0,46
413,724	0,46
414,181	0,46
414,638	0,46
415,096	0,46
415,553	0,46
416,01	0,46
416,467	0,46
416,925	0,46
417,382	0,46
417,839	0,46
418,296	0,46
418,753	0,46
419,21	0,46
419,667	0,46
420,124	0,45
420,581	0,45
421,038	0,45
421,495	0,45
421,952	0,45
422,409	0,45
422,866	0,45
423,322	0,45
423,779	0,45
424,236	0,46
424,693	0,46
425,149	0,46
425,606	0,46
426,063	0,46
426,519	0,46
426,976	0,46
427,433	0,46
427,889	0,46
428,346	0,45
428,802	0,45
429,258	0,45
429,715	0,45
430,171	0,45
430,628	0,45
431,084	0,45
431,54	0,45
431,997	0,45
432,453	0,45
432,909	0,45
433,365	0,45
433,821	0,45
434,277	0,45
434,734	0,45
435,19	0,45
435,646	0,45
436,102	0,45
436,558	0,45
437,014	0,45
437,47	0,45
437,925	0,45
438,381	0,45
438,837	0,45
439,293	0,45
439,749	0,45
440,205	0,45
440,66	0,45
441,116	0,45
441,572	0,45
442,027	0,45
442,483	0,45
442,939	0,45
443,394	0,45
443,85	0,45
444,305	0,45
444,761	0,45
445,216	0,45
445,672	0,45
446,127	0,45
446,582	0,45
447,038	0,45
447,493	0,45
447,948	0,45
448,403	0,45
448,859	0,45
449,314	0,45
449,769	0,45
450,224	0,45
450,679	0,45
451,134	0,45
451,589	0,45
452,044	0,45
452,499	0,45
452,954	0,45
453,409	0,45
453,864	0,45
454,319	0,45
454,774	0,45
455,229	0,45
455,684	0,45
456,138	0,45
456,593	0,45
457,048	0,45
457,503	0,45
457,957	0,45
458,412	0,45
458,866	0,45
459,321	0,45
459,776	0,45
460,23	0,45
460,685	0,45
461,139	0,46
461,593	0,46
462,048	0,46
462,502	0,46
462,957	0,46
463,411	0,46
463,865	0,46
464,319	0,46
464,774	0,46
465,228	0,46
465,682	0,46
466,136	0,46
466,59	0,46
467,044	0,46
467,499	0,46
467,953	0,46
468,407	0,46
468,861	0,46
469,315	0,46
469,768	0,46
470,222	0,46
470,676	0,46
471,13	0,46
471,584	0,47
472,038	0,47
472,491	0,47
472,945	0,47
473,399	0,47
473,852	0,47
474,306	0,47
474,76	0,47
475,213	0,47
475,667	0,47
476,12	0,47
476,574	0,47
477,027	0,47
477,481	0,47
477,934	0,47
478,388	0,47
478,841	0,47
479,294	0,48
479,748	0,48
480,201	0,48
480,654	0,48
481,107	0,48
481,561	0,48
482,014	0,48
482,467	0,48
482,92	0,48
483,373	0,49
483,826	0,49
484,279	0,49
484,732	0,49
485,185	0,49
485,638	0,49
486,091	0,49
486,544	0,49
486,997	0,49
487,449	0,49
487,902	0,5
488,355	0,5
488,808	0,5
489,26	0,5
489,713	0,5
490,166	0,5
490,618	0,51
491,071	0,51
491,523	0,51
491,976	0,51
492,429	0,51
492,881	0,51
493,333	0,52
493,786	0,52
494,238	0,52
494,691	0,52
495,143	0,52
495,595	0,53
496,048	0,53
496,5	0,53
496,952	0,53
497,404	0,53
497,856	0,54
498,309	0,54
498,761	0,54
499,213	0,54
499,665	0,55
500,117	0,55
500,569	0,55
501,021	0,55
501,473	0,56
501,925	0,56
502,377	0,56
502,828	0,56
503,28	0,57
503,732	0,57
504,184	0,57
504,636	0,57
505,087	0,58
505,539	0,58
505,991	0,58
506,442	0,58
506,894	0,59
507,345	0,59
507,797	0,59
508,249	0,59
508,7	0,6
509,151	0,6
509,603	0,6
510,054	0,6
510,506	0,61
510,957	0,61
511,408	0,61
511,86	0,61
512,311	0,61
512,762	0,62
513,213	0,62
513,665	0,62
514,116	0,62
514,567	0,62
515,018	0,63
515,469	0,63
515,92	0,63
516,371	0,63
516,822	0,64
517,273	0,64
517,724	0,64
518,175	0,64
518,626	0,64
519,076	0,64
519,527	0,65
519,978	0,65
520,429	0,65
520,88	0,65
521,33	0,65
521,781	0,65
522,232	0,65
522,682	0,66
523,133	0,66
523,583	0,66
524,034	0,66
524,484	0,66
524,935	0,66
525,385	0,66
525,836	0,66
526,286	0,66
526,736	0,66
527,187	0,66
527,637	0,66
528,087	0,66
528,538	0,66
528,988	0,66
529,438	0,66
529,888	0,66
530,338	0,66
530,788	0,66
531,238	0,66
531,688	0,66
532,139	0,66
532,589	0,66
533,038	0,66
533,488	0,66
533,938	0,66
534,388	0,66
534,838	0,65
535,288	0,65
535,738	0,65
536,187	0,65
536,637	0,65
537,087	0,64
537,537	0,64
537,986	0,64
538,436	0,64
538,885	0,63
539,335	0,63
539,785	0,63
540,234	0,63
540,684	0,62
541,133	0,62
541,582	0,62
542,032	0,62
542,481	0,61
542,931	0,61
543,38	0,61
543,829	0,61
544,278	0,6
544,728	0,6
545,177	0,6
545,626	0,6
546,075	0,59
546,524	0,59
546,973	0,59
547,422	0,59
547,871	0,59
548,32	0,58
548,769	0,58
549,218	0,58
549,667	0,58
550,116	0,58
550,565	0,58
551,014	0,58
551,463	0,58
551,911	0,57
552,36	0,57
552,809	0,57
553,258	0,57
553,706	0,56
554,155	0,56
554,603	0,56
555,052	0,56
555,501	0,56
555,949	0,55
556,398	0,55
556,846	0,55
557,294	0,55
557,743	0,54
558,191	0,54
558,64	0,54
559,088	0,54
559,536	0,53
559,985	0,53
560,433	0,53
560,881	0,53
561,329	0,52
561,777	0,52
562,225	0,52
562,674	0,52
563,122	0,52
563,57	0,51
564,018	0,51
564,466	0,51
564,914	0,51
565,362	0,51
565,809	0,5
566,257	0,5
566,705	0,5
567,153	0,5
567,601	0,49
568,048	0,49
568,496	0,49
568,944	0,49
569,392	0,49
569,839	0,48
570,287	0,48
570,734	0,48
571,182	0,48
571,63	0,48
572,077	0,47
572,525	0,47
572,972	0,47
573,419	0,47
573,867	0,47
574,314	0,46
574,761	0,46
575,209	0,46
575,656	0,46
576,103	0,46
576,551	0,46
576,998	0,46
577,445	0,46
577,892	0,45
578,339	0,45
578,786	0,45
579,233	0,45
579,68	0,45
580,127	0,45
580,574	0,45
581,021	0,44
581,468	0,44
581,915	0,44
582,362	0,44
582,809	0,44
583,255	0,44
583,702	0,44
584,149	0,43
584,596	0,43
585,042	0,43
585,489	0,43
585,936	0,43
586,382	0,43
586,829	0,43
587,275	0,43
587,722	0,43
588,168	0,42
588,615	0,42
589,061	0,42
589,508	0,42
589,954	0,42
590,4	0,42
590,847	0,42
591,293	0,42
591,739	0,42
592,185	0,42
592,632	0,42
593,078	0,41
593,524	0,41
593,97	0,41
594,416	0,41
594,862	0,41
595,308	0,41
595,754	0,41
596,2	0,41
596,646	0,41
597,092	0,41
597,538	0,41
597,984	0,41
598,43	0,4
598,876	0,4
599,321	0,4
599,767	0,4
600,213	0,4
600,659	0,4
601,104	0,4
601,55	0,4
601,995	0,4
602,441	0,4
602,887	0,4
603,332	0,4
603,778	0,4
604,223	0,4
604,668	0,39
605,114	0,39
605,559	0,39
606,005	0,39
606,45	0,39
606,895	0,39
607,341	0,39
607,786	0,39
608,231	0,39
608,676	0,39
609,121	0,38
609,566	0,38
610,012	0,38
610,457	0,37
610,902	0,37
611,347	0,37
611,792	0,37
612,237	0,37
612,682	0,37
613,127	0,37
613,571	0,37
614,016	0,37
614,461	0,37
614,906	0,37
615,351	0,37
615,795	0,38
616,24	0,38
616,685	0,38
617,129	0,38
617,574	0,38
618,019	0,38
618,463	0,38
618,908	0,38
619,352	0,38
619,797	0,38
620,241	0,38
620,686	0,38
621,13	0,38
621,574	0,37
622,019	0,37
622,463	0,37
622,907	0,37
623,352	0,37
623,796	0,37
624,24	0,37
624,684	0,37
625,128	0,37
625,572	0,37
626,016	0,37
626,461	0,37
626,905	0,37
627,349	0,37
627,793	0,37
628,236	0,37
628,68	0,37
629,124	0,37
629,568	0,37
630,012	0,37
630,456	0,37
630,9	0,37
631,343	0,37
631,787	0,37
632,231	0,37
632,674	0,37
633,118	0,37
633,562	0,37
634,005	0,37
634,449	0,37
634,892	0,37
635,336	0,37
635,779	0,37
636,223	0,37
636,666	0,37
637,109	0,36
637,553	0,36
637,996	0,36
638,439	0,36
638,883	0,36
639,326	0,36
639,769	0,36
640,212	0,36
640,655	0,36
641,099	0,36
641,542	0,36
641,985	0,36
642,428	0,36
642,871	0,36
643,314	0,36
643,757	0,36
644,2	0,36
644,643	0,36
645,085	0,36
645,528	0,36
645,971	0,36
646,414	0,36
646,857	0,36
647,299	0,36
647,742	0,36
648,185	0,36
648,627	0,36
649,07	0,36
649,513	0,35
649,955	0,35
650,398	0,35
650,84	0,35
651,283	0,35
651,725	0,35
652,168	0,35
652,61	0,35
653,052	0,35
653,495	0,35
653,937	0,27
654,379	0,22
654,821	0,23
655,264	0,23
655,706	0,23
656,148	0,23
656,59	0,23
657,032	0,23
657,474	0,23
657,916	0,23
658,358	0,22
658,8	0,28
659,242	0,35
659,684	0,35
660,126	0,35
660,568	0,35
661,01	0,35
661,452	0,35
661,894	0,35
662,335	0,35
662,777	0,35
663,219	0,35
663,661	0,35
664,102	0,35
664,544	0,35
664,985	0,35
665,427	0,35
665,869	0,35
666,31	0,35
666,752	0,35
667,193	0,35
667,634	0,35
668,076	0,35
668,517	0,35
668,959	0,35
669,4	0,35
669,841	0,35
670,282	0,35
670,724	0,35
671,165	0,35
671,606	0,35
672,047	0,35
672,488	0,35
672,929	0,35
673,37	0,35
673,811	0,35
674,252	0,35
674,693	0,35
675,134	0,35
675,575	0,35
676,016	0,35
676,457	0,35
676,898	0,35
677,339	0,35
677,78	0,34
678,22	0,35
678,661	0,35
679,102	0,35
679,542	0,35
679,983	0,35
680,424	0,35
680,864	0,35
681,305	0,35
681,745	0,35
682,186	0,35
682,626	0,35
683,067	0,35
683,507	0,35
683,948	0,34
684,388	0,34
684,828	0,34
685,269	0,34
685,709	0,34
686,149	0,34
686,589	0,34
687,029	0,34
687,47	0,34
687,91	0,34
688,35	0,34
688,79	0,34
689,23	0,34
689,67	0,34
690,11	0,34
690,55	0,34
690,99	0,34
691,43	0,33
691,87	0,33
692,31	0,33
692,749	0,33
693,189	0,33
693,629	0,33
694,069	0,33
694,508	0,33
694,948	0,33
695,388	0,33
695,827	0,33
696,267	0,33
696,706	0,33
697,146	0,34
697,586	0,34
698,025	0,34
698,464	0,34
698,904	0,34
699,343	0,34
699,783	0,34
700,222	0,34
700,661	0,34
701,101	0,34
701,54	0,34
701,979	0,34
702,418	0,34
702,857	0,34
703,297	0,34
703,736	0,34
704,175	0,33
704,614	0,33
705,053	0,33
705,492	0,33
705,931	0,33
706,37	0,33
706,809	0,33
707,248	0,33
707,687	0,33
708,125	0,33
708,564	0,33
709,003	0,33
709,442	0,33
709,88	0,33
710,319	0,33
710,758	0,33
711,196	0,33
711,635	0,33
712,074	0,33
712,512	0,33
712,951	0,33
713,389	0,32
713,828	0,32
714,266	0,32
714,705	0,32
715,143	0,32
715,581	0,32
716,02	0,32
716,458	0,32
716,896	0,32
717,334	0,32
717,773	0,32
718,211	0,32
718,649	0,32
719,087	0,32
719,525	0,32
719,963	0,32
720,401	0,32
720,839	0,32
721,277	0,32
721,715	0,32
722,153	0,32
722,591	0,32
723,029	0,32
723,467	0,32
723,905	0,32
724,342	0,32
724,78	0,32
725,218	0,32
725,656	0,32
726,093	0,32
726,531	0,32
726,969	0,32
727,406	0,32
727,844	0,32
728,281	0,32
728,719	0,32
729,156	0,32
729,594	0,32
730,031	0,32
730,469	0,32
730,906	0,32
731,343	0,32
731,781	0,32
732,218	0,32
732,655	0,32
733,092	0,32
733,53	0,32
733,967	0,32
734,404	0,32
734,841	0,32
735,278	0,31
735,715	0,31
736,152	0,31
736,589	0,31
737,026	0,31
737,463	0,31
737,9	0,31
738,337	0,31
738,774	0,31
739,211	0,31
739,647	0,31
740,084	0,31
740,521	0,31
740,958	0,31
741,394	0,31
741,831	0,31
742,268	0,3
742,704	0,3
743,141	0,3
743,577	0,3
744,014	0,3
744,45	0,3
744,887	0,3
745,323	0,29
745,76	0,29
746,196	0,29
746,632	0,29
747,069	0,29
747,505	0,29
747,941	0,29
748,378	0,29
748,814	0,29
749,25	0,3
749,686	0,3
750,122	0,3
750,558	0,3
750,994	0,3
751,43	0,3
751,866	0,3
752,302	0,3
752,738	0,31
753,174	0,31
753,61	0,31
754,046	0,31
754,482	0,31
754,918	0,31
755,354	0,31
755,789	0,31
756,225	0,31
756,661	0,31
757,096	0,3
757,532	0,3
757,968	0,3
758,403	0,3
758,839	0,3
759,274	0,3
759,71	0,29
760,145	0,29
760,581	0,28
761,016	0,28
761,452	0,28
761,887	0,27
762,322	0,27
762,758	0,27
763,193	0,26
763,628	0,26
764,063	0,25
764,499	0,25
764,934	0,24
765,369	0,24
765,804	0,23
766,239	0,23
766,674	0,22
767,109	0,22
767,544	0,21
767,979	0,2
768,414	0,2
768,849	0,19
769,284	0,18
769,719	0,17
770,154	0,17
770,588	0,16
771,023	0,15
771,458	0,14
771,893	0,13
772,327	0,11
772,762	0,1
773,197	0,09
773,631	0,09
774,066	0,08
774,5	0,07
774,935	0,06
775,369	0,05
775,804	0,04
776,238	0,04
776,673	0,03
777,107	0,02
777,541	0,02
777,976	0,01
778,41	0
778,844	-0,01
779,279	-0,01
779,713	-0,02
780,147	-0,03
780,581	-0,04
781,015	-0,05
781,449	-0,06
781,883	-0,07
782,317	-0,08
782,751	-0,09
783,185	-0,1
783,619	-0,1
784,053	-0,11
784,487	-0,12
784,921	-0,12
785,355	-0,13
785,789	-0,14
786,223	-0,15
786,656	-0,16
787,09	-0,16
787,524	-0,17
787,957	-0,18
788,391	-0,2
788,825	-0,22
789,258	-0,23
789,692	-0,24
790,125	-0,26
790,559	-0,27
790,992	-0,29
791,426	-0,31
791,859	-0,33
792,293	-0,36
792,726	-0,37
793,159	-0,39
793,593	-0,41
794,026	-0,43
794,459	-0,46
794,892	-0,49
795,326	-0,52
795,759	-0,56
796,192	-0,61
796,625	-0,65
797,058	-0,68
797,491	-0,72
797,924	-0,76
798,357	-0,8
798,79	-0,85
799,223	-0,89
799,656	-0,94
800,089	-0,99
800,522	-1,03
800,955	-1,08
801,387	-1,13
801,82	-1,19
802,253	-1,25
802,686	-1,33
803,118	-1,39
803,551	-1,44
803,984	-1,48
804,416	-1,52
804,849	-1,57
805,281	-1,71
805,714	-2,09
806,146	-2,5
806,579	-2,74
807,011	-2,89
807,444	-2,98
807,876	-3,07
808,308	-3,1
808,741	-3,13
809,173	-3,18
809,605	-3,2
810,037	-3,27
810,47	-3,19
810,902	-2,99
811,334	-2,84
811,766	-2,68
812,198	-2,45
812,63	-2,03
813,062	-1,82
813,494	-1,72
813,926	-1,63
814,358	-1,58
814,79	-1,5
815,222	-1,44
815,654	-1,39
816,086	-1,33
816,518	-1,27
816,949	-1,22
817,381	-1,18
817,813	-1,16
818,245	-1,12
818,676	-1,08
819,108	-1,04
819,54	-1,03
819,971	-1,01
820,403	-0,96
820,834	-0,94
821,266	-0,89
821,697	-0,87
822,129	-0,86
822,56	-0,83
822,991	-0,81
823,423	-0,78
823,854	-0,77
824,286	-0,75
824,717	-0,73
825,148	-0,72
825,579	-0,7
826,01	-0,68
826,442	-0,67
826,873	-0,65
827,304	-0,62
827,735	-0,6
828,166	-0,61
828,597	-0,6
829,028	-0,6
829,459	-0,6
829,89	-0,6
830,321	-0,56
830,752	-0,57
831,183	-0,56
831,613	-0,55
832,044	-0,56
832,475	-0,54
832,906	-0,56
833,336	-0,56
833,767	-0,57
834,198	-0,56
834,628	-0,54
835,059	-0,57
835,49	-0,57
835,92	-0,55
836,351	-0,55
836,781	-0,55
837,212	-0,57
837,642	-0,57
838,072	-0,55
838,503	-0,56
838,933	-0,53
839,364	-0,54
839,794	-0,52
840,224	-0,52
840,654	-0,57
841,085	-0,57
841,515	-0,55
841,945	-0,55
842,375	-0,5
842,805	-0,49
843,235	-0,47
843,665	-0,49
844,095	-0,47
844,525	-0,49
844,955	-0,49
845,385	-0,46
845,815	-0,45
846,245	-0,47
846,675	-0,47
847,105	-0,49
847,534	-0,5
847,964	-0,49
848,394	-0,48
848,824	-0,5
849,253	-0,5
849,683	-0,5
850,112	-0,52
850,542	-0,54
850,972	-0,55
851,401	-0,53
851,831	-0,52
852,26	-0,52
852,69	-0,55
853,119	-0,55
853,548	-0,56
853,978	-0,56
854,407	-0,53
854,836	-0,53
855,266	-0,52
855,695	-0,54
856,124	-0,56
856,553	-0,57
856,983	-0,58
857,412	-0,57
857,841	-0,58
858,27	-0,57
858,699	-0,58
859,128	-0,62
859,557	-0,63
859,986	-0,65
860,415	-0,62
860,844	-0,6
861,273	-0,59
861,702	-0,6
862,13	-0,58
862,559	-0,6
862,988	-0,58
863,417	-0,57
863,845	-0,56
864,274	-0,56
864,703	-0,57
865,131	-0,57
865,56	-0,57
865,989	-0,61
866,417	-0,58
866,846	-0,58
867,274	-0,58
867,703	-0,6
868,131	-0,61
868,559	-0,62
868,988	-0,64
869,416	-0,62
869,844	-0,63
870,273	-0,66
870,701	-0,64
871,129	-0,67
871,557	-0,7
871,986	-0,69
872,414	-0,7
872,842	-0,67
873,27	-0,66
873,698	-0,62
874,126	-0,66
874,554	-0,65
874,982	-0,64
875,41	-0,66
875,838	-0,62
876,266	-0,59
876,694	-0,6
877,122	-0,59
877,549	-0,64
877,977	-0,61
878,405	-0,64
878,833	-0,61
879,26	-0,59
879,688	-0,59
880,116	-0,58
880,543	-0,56
880,971	-0,55
881,399	-0,58
881,826	-0,59
882,254	-0,57
882,681	-0,6
883,109	-0,57
883,536	-0,57
883,963	-0,58
884,391	-0,56
884,818	-0,54
885,245	-0,58
885,673	-0,6
886,1	-0,57
886,527	-0,56
886,954	-0,52
887,381	-0,54
887,809	-0,54
888,236	-0,57
888,663	-0,58
889,09	-0,63
889,517	-0,65
889,944	-0,64
890,371	-0,62
890,798	-0,63
891,225	-0,63
891,652	-0,66
892,078	-0,64
892,505	-0,67
892,932	-0,62
893,359	-0,63
893,786	-0,64
894,212	-0,6
894,639	-0,62
895,066	-0,65
895,492	-0,59
895,919	-0,59
896,346	-0,59
896,772	-0,59
897,199	-0,56
897,625	-0,59
898,052	-0,54
898,478	-0,52
898,904	-0,54
899,331	-0,53
899,757	-0,55
900,183	-0,57
900,61	-0,55
901,036	-0,56
901,462	-0,56
901,888	-0,56
902,315	-0,54
902,741	-0,6
903,167	-0,58
903,593	-0,61
904,019	-0,59
904,445	-0,56
904,871	-0,58
905,297	-0,6
905,723	-0,59
906,149	-0,58
906,575	-0,59
907,001	-0,59
907,427	-0,56
907,852	-0,56
908,278	-0,56
908,704	-0,54
909,13	-0,54
909,555	-0,53
909,981	-0,53
910,407	-0,53
910,832	-0,53
911,258	-0,52
911,684	-0,51
912,109	-0,51
912,535	-0,53
912,96	-0,49
913,386	-0,53
913,811	-0,52
914,236	-0,53
914,662	-0,51
915,087	-0,55
915,512	-0,56
915,938	-0,58
916,363	-0,58
916,788	-0,6
917,213	-0,56
917,639	-0,61
918,064	-0,58
918,489	-0,58
918,914	-0,59
919,339	-0,61
919,764	-0,58
920,189	-0,58
920,614	-0,6
921,039	-0,61
921,464	-0,57
921,889	-0,61
922,314	-0,62
922,738	-0,65
923,163	-0,67
923,588	-0,66
924,013	-0,65
924,437	-0,64
924,862	-0,65
925,287	-0,61
925,711	-0,62
926,136	-0,63
926,561	-0,62
926,985	-0,61
927,41	-0,58
927,834	-0,55
928,259	-0,53
928,683	-0,51
929,108	-0,48
929,532	-0,49
929,956	-0,49
930,381	-0,49
930,805	-0,49
931,229	-0,48
931,653	-0,46
932,078	-0,46
932,502	-0,48
932,926	-0,49
933,35	-0,48
933,774	-0,48
934,198	-0,46
934,622	-0,45
935,046	-0,45
935,47	-0,46
935,894	-0,46
936,318	-0,46
936,742	-0,45
937,166	-0,46
937,59	-0,45
938,014	-0,48
938,437	-0,49
938,861	-0,51
939,285	-0,52
939,709	-0,52
940,132	-0,52
940,556	-0,51
940,98	-0,51
941,403	-0,5
941,827	-0,5
942,25	-0,51
942,674	-0,49
943,097	-0,49
943,521	-0,49
943,944	-0,5
944,368	-0,49
944,791	-0,47
945,214	-0,49
945,638	-0,5
946,061	-0,53
946,484	-0,54
946,907	-0,53
947,331	-0,52
947,754	-0,56
948,177	-0,53
948,6	-0,53
949,023	-0,53
949,446	-0,53
949,869	-0,51
950,292	-0,52
950,715	-0,48
951,138	-0,46
951,561	-0,44
951,984	-0,45
952,407	-0,43
952,83	-0,42
953,252	-0,38
953,675	-0,38
954,098	-0,39
954,521	-0,38
954,943	-0,36
955,366	-0,37
955,789	-0,36
956,211	-0,38
956,634	-0,39
957,056	-0,37
957,479	-0,39
957,902	-0,41
958,324	-0,41
958,746	-0,39
959,169	-0,4
959,591	-0,41
960,014	-0,41
960,436	-0,41
960,858	-0,41
961,281	-0,4
961,703	-0,41
962,125	-0,4
962,547	-0,38
962,969	-0,39
963,391	-0,39
963,814	-0,39
964,236	-0,38
964,658	-0,36
965,08	-0,36
965,502	-0,35
965,924	-0,33
966,346	-0,34
966,768	-0,33
967,189	-0,35
967,611	-0,34
968,033	-0,34
968,455	-0,32
968,877	-0,33
969,298	-0,34
969,72	-0,35
970,142	-0,34
970,563	-0,34
970,985	-0,32
971,407	-0,32
971,828	-0,29
972,25	-0,29
972,671	-0,27
973,093	-0,28
973,514	-0,27
973,936	-0,25
974,357	-0,24
974,778	-0,24
975,2	-0,24
975,621	-0,23
976,042	-0,22
976,464	-0,21
976,885	-0,2
977,306	-0,2
977,727	-0,19
978,148	-0,18
978,57	-0,18
978,991	-0,15
979,412	-0,14
979,833	-0,13
980,254	-0,13
980,675	-0,14
981,096	-0,13
981,517	-0,12
981,937	-0,11
982,358	-0,1
982,779	-0,09
983,2	-0,09
983,621	-0,09
984,042	-0,08
984,462	-0,07
984,883	-0,05
985,304	-0,03
985,724	-0,03
986,145	-0,02
986,565	-0
986,986	0,01
987,407	0,02
987,827	0,03
988,248	0,05
988,668	0,06
989,088	0,06
989,509	0,07
989,929	0,08
990,35	0,09
990,77	0,1
991,19	0,11
991,61	0,12
992,031	0,12
992,451	0,13
992,871	0,14
993,291	0,14
993,711	0,15
994,131	0,15
994,551	0,16
994,971	0,17
995,391	0,17
995,811	0,18
996,231	0,18
996,651	0,19
997,071	0,19
997,491	0,2
997,911	0,2
998,331	0,21
998,75	0,22
999,17	0,22
999,59	0,22
1000,009	0,23
1000,429	0,23
1000,849	0,23
1001,268	0,24
1001,688	0,24
1002,107	0,24
1002,527	0,25
1002,946	0,25
1003,366	0,25
1003,785	0,25
1004,205	0,25
1004,624	0,26
1005,044	0,26
1005,463	0,26
1005,882	0,26
1006,301	0,26
1006,721	0,26
1007,14	0,26
1007,559	0,26
1007,978	0,26
1008,397	0,26
1008,816	0,26
1009,235	0,26
1009,655	0,26
1010,074	0,26
1010,492	0,26
1010,911	0,26
1011,33	0,26
1011,749	0,26
1012,168	0,25
1012,587	0,25
1013,006	0,25
1013,425	0,25
1013,843	0,25
1014,262	0,25
1014,681	0,25
1015,099	0,25
1015,518	0,25
1015,937	0,25
1016,355	0,25
1016,774	0,25
1017,192	0,25
1017,611	0,25
1018,029	0,25
1018,448	0,25
1018,866	0,25
1019,285	0,25
1019,703	0,25
1020,121	0,25
1020,54	0,26
1020,958	0,26
1021,376	0,26
1021,794	0,26
1022,213	0,26
1022,631	0,26
1023,049	0,25
1023,467	0,25
1023,885	0,25
1024,303	0,25
1024,721	0,25
1025,139	0,25
1025,557	0,25
1025,975	0,25
1026,393	0,25
1026,811	0,25
1027,229	0,25
1027,647	0,25
1028,065	0,25
1028,482	0,25
1028,9	0,25
1029,318	0,25
1029,735	0,25
1030,153	0,25
1030,571	0,25
1030,988	0,25
1031,406	0,25
1031,823	0,24
1032,241	0,24
1032,659	0,25
1033,076	0,25
1033,493	0,25
1033,911	0,25
1034,328	0,25
1034,746	0,25
1035,163	0,25
1035,58	0,25
1035,997	0,25
1036,415	0,25
1036,832	0,25
1037,249	0,25
1037,666	0,25
1038,083	0,25
1038,501	0,24
1038,918	0,24
1039,335	0,24
1039,752	0,24
1040,169	0,24
1040,586	0,24
1041,003	0,24
1041,419	0,24
1041,836	0,24
1042,253	0,24
1042,67	0,24
1043,087	0,24
1043,504	0,24
1043,92	0,24
1044,337	0,24
1044,754	0,24
1045,17	0,24
1045,587	0,23
1046,004	0,23
1046,42	0,23
1046,837	0,23
1047,253	0,23
1047,67	0,23
1048,086	0,23
1048,503	0,23
1048,919	0,23
1049,335	0,23
1049,752	0,23
1050,168	0,23
1050,584	0,23
1051,001	0,23
1051,417	0,23
1051,833	0,23
1052,249	0,23
1052,665	0,23
1053,081	0,23
1053,497	0,23
1053,914	0,24
1054,33	0,24
1054,746	0,24
1055,162	0,24
1055,578	0,24
1055,993	0,24
1056,409	0,24
1056,825	0,24
1057,241	0,24
1057,657	0,24
1058,073	0,24
1058,488	0,24
1058,904	0,24
1059,32	0,24
1059,736	0,24
1060,151	0,24
1060,567	0,24
1060,982	0,24
1061,398	0,24
1061,813	0,24
1062,229	0,24
1062,644	0,24
1063,06	0,24
1063,475	0,24
1063,891	0,24
1064,306	0,24
1064,721	0,24
1065,137	0,24
1065,552	0,24
1065,967	0,24
1066,382	0,24
1066,798	0,24
1067,213	0,24
1067,628	0,24
1068,043	0,24
1068,458	0,24
1068,873	0,24
1069,288	0,24
1069,703	0,24
1070,118	0,24
1070,533	0,24
1070,948	0,24
1071,363	0,24
1071,778	0,24
1072,193	0,24
1072,607	0,24
1073,022	0,24
1073,437	0,25
1073,852	0,25
1074,266	0,25
1074,681	0,25
1075,096	0,25
1075,51	0,25
1075,925	0,25
1076,339	0,25
1076,754	0,24
1077,168	0,24
1077,583	0,24
1077,997	0,24
1078,412	0,24
1078,826	0,24
1079,24	0,24
1079,655	0,24
1080,069	0,24
1080,483	0,24
1080,897	0,24
1081,312	0,24
1081,726	0,24
1082,14	0,23
1082,554	0,23
1082,968	0,23
1083,382	0,23
1083,796	0,23
1084,21	0,23
1084,624	0,23
1085,038	0,23
1085,452	0,23
1085,866	0,23
1086,28	0,23
1086,694	0,22
1087,108	0,22
1087,521	0,22
1087,935	0,22
1088,349	0,22
1088,763	0,22
1089,176	0,22
1089,59	0,22
1090,004	0,21
1090,417	0,21
1090,831	0,21
1091,244	0,21
1091,658	0,21
1092,071	0,2
1092,485	0,2
1092,898	0,2
1093,312	0,2
1093,725	0,2
1094,138	0,2
1094,552	0,19
1094,965	0,19
1095,378	0,19
1095,791	0,19
1096,205	0,19
1096,618	0,19
1097,031	0,19
1097,444	0,19
1097,857	0,18
1098,27	0,18
1098,683	0,18
1099,096	0,18
1099,509	0,17
1099,922	0,17
1100,335	0,17
1100,748	0,16
1101,161	0,16
1101,574	0,16
1101,986	0,16
1102,399	0,16
1102,812	0,15
1103,225	0,15
1103,637	0,15
1104,05	0,15
1104,463	0,14
1104,875	0,14
1105,288	0,14
1105,7	0,13
1106,113	0,13
1106,525	0,13
1106,938	0,12
1107,35	0,12
1107,763	0,12
1108,175	0,12
1108,588	0,11
1109	0,11
1109,412	0,11
1109,824	0,11
1110,237	0,11
1110,649	0,12
1111,061	0,12
