Data from 18C-808nm-8A_Absorbance__136__00136.txt Node

Date: Mon Jul 17 16:22:03 CEST 2023
User: Laser008
Spectrometer: MAYP115816
Trigger mode: 0
Integration Time (sec): 2,500000E-1
Scans to average: 10
Electric dark correction enabled: true
Nonlinearity correction enabled: true
Boxcar width: 5
XAxis mode: Wavelengths
Number of Pixels in Spectrum: 2068
>>>>>Begin Spectral Data<<<<<
198,914	-0,37
199,384	-0,19
199,855	-0,11
200,325	-0,05
200,796	-0,06
201,266	-0,02
201,737	-0,02
202,207	-0,01
202,677	-0,01
203,147	0
203,618	0,02
204,088	0,03
204,558	0,04
205,028	0,04
205,498	0,03
205,968	0,04
206,439	0,02
206,909	0,02
207,379	0,01
207,849	0,01
208,319	0,01
208,789	-0
209,258	0,01
209,728	-0
210,198	0,01
210,668	0,01
211,138	0,01
211,608	0,02
212,077	0,03
212,547	0,04
213,017	0,03
213,486	0,04
213,956	0,04
214,426	0,02
214,895	0,02
215,365	0,01
215,834	0,01
216,304	0
216,773	0
217,243	-0,02
217,712	-0,03
218,181	-0,03
218,651	-0,04
219,12	-0,04
219,589	-0,04
220,058	-0,02
220,528	-0,04
220,997	-0,04
221,466	-0,04
221,935	-0,04
222,404	-0,03
222,873	-0,03
223,342	-0,03
223,812	-0,02
224,281	-0,02
224,749	-0,02
225,218	-0,04
225,687	-0,04
226,156	-0,03
226,625	-0,02
227,094	-0,02
227,563	-0,02
228,031	-0,02
228,5	-0,02
228,969	-0,03
229,438	-0,02
229,906	-0,01
230,375	-0
230,844	-0
231,312	-0,01
231,781	-0,02
232,249	-0
232,718	-0,01
233,186	0,01
233,655	-0
234,123	-0
234,591	0
235,06	-0
235,528	-0,01
235,996	0
236,465	0,01
236,933	0,02
237,401	0,02
237,869	0,02
238,337	0,01
238,805	0,02
239,274	0,02
239,742	0,02
240,21	0,02
240,678	0,02
241,146	0,03
241,614	0,03
242,081	0,04
242,549	0,02
243,017	0,02
243,485	0,03
243,953	0,02
244,421	0,03
244,888	0,03
245,356	0,03
245,824	0,03
246,291	0,02
246,759	0,01
247,227	0
247,694	0,02
248,162	0,02
248,629	0,03
249,097	0,02
249,564	0,01
250,032	0,01
250,499	0,01
250,967	0,01
251,434	0,02
251,901	0,02
252,369	0,03
252,836	0,01
253,303	0
253,77	-0,01
254,237	-0
254,705	0
255,172	0,01
255,639	0,01
256,106	-0
256,573	-0,02
257,04	-0,01
257,507	-0,02
257,974	-0,02
258,441	0
258,908	-0,01
259,375	-0,02
259,841	-0,02
260,308	-0,03
260,775	-0,03
261,242	-0,02
261,709	-0,02
262,175	-0,02
262,642	-0,01
263,109	-0
263,575	-0,01
264,042	0,01
264,508	0,01
264,975	0,01
265,441	-0
265,908	-0,01
266,374	0,01
266,841	0,01
267,307	0
267,773	0,01
268,24	0
268,706	-0,01
269,172	-0,01
269,639	-0,03
270,105	-0,02
270,571	-0,02
271,037	-0,01
271,503	-0,03
271,969	-0,03
272,435	-0,02
272,902	-0,03
273,368	-0,04
273,834	-0,04
274,3	-0,05
274,765	-0,05
275,231	-0,05
275,697	-0,04
276,163	-0,04
276,629	-0,03
277,095	-0,03
277,56	-0,03
278,026	-0,03
278,492	-0,02
278,958	-0,02
279,423	-0,03
279,889	-0,01
280,354	-0,01
280,82	-0,01
281,286	-0,02
281,751	-0,03
282,217	-0,01
282,682	-0,01
283,147	-0,01
283,613	-0,01
284,078	-0,01
284,544	-0,02
285,009	-0,03
285,474	-0,04
285,939	-0,04
286,405	-0,02
286,87	-0,02
287,335	-0,03
287,8	-0,03
288,265	-0,02
288,73	-0,03
289,195	-0,05
289,66	-0,05
290,125	-0,02
290,59	-0,01
291,055	-0,01
291,52	-0,02
291,985	-0,02
292,45	-0,04
292,915	-0,03
293,38	-0,04
293,844	-0,02
294,309	-0,01
294,774	0,01
295,239	-0,02
295,703	-0,03
296,168	-0,02
296,632	-0,01
297,097	-0
297,562	0,02
298,026	0,01
298,491	0
298,955	-0
299,419	-0
299,884	-0
300,348	0
300,813	0,01
301,277	-0,01
301,741	-0,01
302,205	-0,01
302,67	-0
303,134	-0
303,598	0,01
304,062	0,01
304,526	0,02
304,99	0
305,454	0
305,919	0,01
306,383	0,01
306,847	0,02
307,31	0,02
307,774	0,02
308,238	0,02
308,702	0,02
309,166	0
309,63	0,01
310,094	0,04
310,557	0,05
311,021	0,06
311,485	0,04
311,948	0,04
312,412	0,03
312,876	0,03
313,339	0,02
313,803	0,02
314,266	0,02
314,73	0,02
315,193	0,02
315,657	0,02
316,12	0,02
316,584	0,04
317,047	0,04
317,51	0,04
317,973	0,04
318,437	0,05
318,9	0,05
319,363	0,05
319,826	0,05
320,29	0,05
320,753	0,05
321,216	0,04
321,679	0,03
322,142	0,03
322,605	0,03
323,068	0,03
323,531	0,03
323,994	0,04
324,457	0,05
324,92	0,06
325,382	0,05
325,845	0,06
326,308	0,06
326,771	0,07
327,233	0,09
327,696	0,09
328,159	0,09
328,622	0,1
329,084	0,1
329,547	0,1
330,009	0,1
330,472	0,11
330,934	0,11
331,397	0,11
331,859	0,11
332,322	0,11
332,784	0,11
333,246	0,11
333,709	0,1
334,171	0,1
334,633	0,1
335,096	0,1
335,558	0,09
336,02	0,09
336,482	0,09
336,944	0,1
337,406	0,1
337,868	0,1
338,331	0,1
338,793	0,1
339,255	0,1
339,717	0,1
340,178	0,1
340,64	0,1
341,102	0,1
341,564	0,11
342,026	0,11
342,488	0,1
342,949	0,11
343,411	0,11
343,873	0,13
344,335	0,13
344,796	0,14
345,258	0,15
345,719	0,16
346,181	0,17
346,643	0,18
347,104	0,18
347,566	0,19
348,027	0,19
348,488	0,2
348,95	0,2
349,411	0,2
349,873	0,21
350,334	0,21
350,795	0,21
351,256	0,21
351,718	0,21
352,179	0,22
352,64	0,22
353,101	0,22
353,562	0,22
354,023	0,22
354,484	0,22
354,945	0,22
355,406	0,22
355,867	0,22
356,328	0,22
356,789	0,22
357,25	0,22
357,711	0,22
358,172	0,22
358,633	0,22
359,093	0,22
359,554	0,22
360,015	0,22
360,476	0,22
360,936	0,22
361,397	0,22
361,858	0,22
362,318	0,22
362,779	0,22
363,239	0,22
363,7	0,22
364,16	0,22
364,621	0,22
365,081	0,22
365,541	0,22
366,002	0,22
366,462	0,22
366,922	0,22
367,383	0,22
367,843	0,22
368,303	0,22
368,763	0,22
369,223	0,22
369,684	0,22
370,144	0,22
370,604	0,22
371,064	0,22
371,524	0,22
371,984	0,22
372,444	0,22
372,904	0,22
373,363	0,22
373,823	0,22
374,283	0,22
374,743	0,22
375,203	0,22
375,663	0,22
376,122	0,22
376,582	0,22
377,042	0,22
377,501	0,22
377,961	0,22
378,42	0,22
378,88	0,22
379,34	0,22
379,799	0,22
380,259	0,22
380,718	0,22
381,177	0,22
381,637	0,22
382,096	0,22
382,555	0,22
383,015	0,22
383,474	0,22
383,933	0,22
384,393	0,22
384,852	0,22
385,311	0,22
385,77	0,22
386,229	0,22
386,688	0,22
387,147	0,22
387,606	0,22
388,065	0,22
388,524	0,22
388,983	0,22
389,442	0,22
389,901	0,21
390,36	0,21
390,819	0,21
391,277	0,21
391,736	0,21
392,195	0,21
392,654	0,21
393,112	0,21
393,571	0,21
394,03	0,21
394,488	0,21
394,947	0,21
395,405	0,21
395,864	0,21
396,322	0,21
396,781	0,21
397,239	0,21
397,698	0,21
398,156	0,21
398,614	0,21
399,073	0,21
399,531	0,21
399,989	0,21
400,447	0,21
400,905	0,21
401,364	0,21
401,822	0,21
402,28	0,21
402,738	0,21
403,196	0,21
403,654	0,21
404,112	0,21
404,57	0,21
405,028	0,21
405,486	0,21
405,944	0,21
406,402	0,21
406,859	0,21
407,317	0,21
407,775	0,21
408,233	0,21
408,691	0,21
409,148	0,21
409,606	0,21
410,064	0,21
410,521	0,21
410,979	0,21
411,436	0,21
411,894	0,21
412,351	0,21
412,809	0,21
413,266	0,21
413,724	0,21
414,181	0,21
414,638	0,21
415,096	0,21
415,553	0,21
416,01	0,21
416,467	0,21
416,925	0,21
417,382	0,21
417,839	0,21
418,296	0,21
418,753	0,21
419,21	0,21
419,667	0,21
420,124	0,21
420,581	0,21
421,038	0,21
421,495	0,21
421,952	0,21
422,409	0,21
422,866	0,21
423,322	0,21
423,779	0,21
424,236	0,21
424,693	0,21
425,149	0,21
425,606	0,21
426,063	0,21
426,519	0,21
426,976	0,21
427,433	0,21
427,889	0,21
428,346	0,21
428,802	0,21
429,258	0,21
429,715	0,21
430,171	0,21
430,628	0,2
431,084	0,2
431,54	0,2
431,997	0,2
432,453	0,2
432,909	0,2
433,365	0,2
433,821	0,2
434,277	0,2
434,734	0,2
435,19	0,2
435,646	0,2
436,102	0,2
436,558	0,2
437,014	0,2
437,47	0,2
437,925	0,2
438,381	0,2
438,837	0,2
439,293	0,2
439,749	0,2
440,205	0,2
440,66	0,2
441,116	0,2
441,572	0,2
442,027	0,2
442,483	0,2
442,939	0,2
443,394	0,2
443,85	0,2
444,305	0,2
444,761	0,2
445,216	0,2
445,672	0,2
446,127	0,2
446,582	0,2
447,038	0,2
447,493	0,2
447,948	0,2
448,403	0,2
448,859	0,2
449,314	0,2
449,769	0,2
450,224	0,2
450,679	0,2
451,134	0,2
451,589	0,2
452,044	0,2
452,499	0,2
452,954	0,2
453,409	0,2
453,864	0,2
454,319	0,2
454,774	0,2
455,229	0,2
455,684	0,2
456,138	0,2
456,593	0,2
457,048	0,2
457,503	0,2
457,957	0,2
458,412	0,2
458,866	0,2
459,321	0,2
459,776	0,2
460,23	0,2
460,685	0,2
461,139	0,2
461,593	0,2
462,048	0,2
462,502	0,2
462,957	0,2
463,411	0,2
463,865	0,2
464,319	0,2
464,774	0,2
465,228	0,2
465,682	0,2
466,136	0,2
466,59	0,2
467,044	0,2
467,499	0,2
467,953	0,2
468,407	0,2
468,861	0,2
469,315	0,2
469,768	0,2
470,222	0,2
470,676	0,2
471,13	0,2
471,584	0,2
472,038	0,2
472,491	0,2
472,945	0,2
473,399	0,2
473,852	0,2
474,306	0,2
474,76	0,2
475,213	0,2
475,667	0,2
476,12	0,2
476,574	0,2
477,027	0,2
477,481	0,2
477,934	0,2
478,388	0,2
478,841	0,2
479,294	0,21
479,748	0,21
480,201	0,21
480,654	0,21
481,107	0,21
481,561	0,21
482,014	0,21
482,467	0,21
482,92	0,21
483,373	0,21
483,826	0,21
484,279	0,21
484,732	0,21
485,185	0,21
485,638	0,21
486,091	0,21
486,544	0,21
486,997	0,21
487,449	0,21
487,902	0,21
488,355	0,21
488,808	0,21
489,26	0,21
489,713	0,22
490,166	0,22
490,618	0,22
491,071	0,22
491,523	0,22
491,976	0,22
492,429	0,22
492,881	0,22
493,333	0,22
493,786	0,22
494,238	0,22
494,691	0,22
495,143	0,22
495,595	0,23
496,048	0,23
496,5	0,23
496,952	0,23
497,404	0,23
497,856	0,23
498,309	0,23
498,761	0,23
499,213	0,23
499,665	0,23
500,117	0,24
500,569	0,24
501,021	0,24
501,473	0,24
501,925	0,24
502,377	0,24
502,828	0,24
503,28	0,24
503,732	0,24
504,184	0,25
504,636	0,25
505,087	0,25
505,539	0,25
505,991	0,25
506,442	0,25
506,894	0,25
507,345	0,25
507,797	0,25
508,249	0,26
508,7	0,26
509,151	0,26
509,603	0,26
510,054	0,26
510,506	0,26
510,957	0,26
511,408	0,26
511,86	0,26
512,311	0,27
512,762	0,27
513,213	0,27
513,665	0,27
514,116	0,27
514,567	0,27
515,018	0,27
515,469	0,27
515,92	0,27
516,371	0,28
516,822	0,28
517,273	0,28
517,724	0,28
518,175	0,28
518,626	0,28
519,076	0,28
519,527	0,28
519,978	0,28
520,429	0,29
520,88	0,29
521,33	0,29
521,781	0,29
522,232	0,29
522,682	0,29
523,133	0,29
523,583	0,29
524,034	0,29
524,484	0,29
524,935	0,29
525,385	0,29
525,836	0,3
526,286	0,3
526,736	0,3
527,187	0,3
527,637	0,3
528,087	0,3
528,538	0,3
528,988	0,3
529,438	0,3
529,888	0,3
530,338	0,3
530,788	0,3
531,238	0,3
531,688	0,3
532,139	0,3
532,589	0,3
533,038	0,3
533,488	0,3
533,938	0,3
534,388	0,3
534,838	0,3
535,288	0,3
535,738	0,3
536,187	0,3
536,637	0,3
537,087	0,3
537,537	0,3
537,986	0,3
538,436	0,3
538,885	0,3
539,335	0,3
539,785	0,3
540,234	0,3
540,684	0,3
541,133	0,29
541,582	0,29
542,032	0,29
542,481	0,29
542,931	0,29
543,38	0,29
543,829	0,29
544,278	0,29
544,728	0,29
545,177	0,29
545,626	0,29
546,075	0,29
546,524	0,29
546,973	0,29
547,422	0,29
547,871	0,29
548,32	0,29
548,769	0,29
549,218	0,29
549,667	0,29
550,116	0,29
550,565	0,29
551,014	0,29
551,463	0,29
551,911	0,29
552,36	0,29
552,809	0,29
553,258	0,29
553,706	0,29
554,155	0,29
554,603	0,29
555,052	0,29
555,501	0,29
555,949	0,29
556,398	0,29
556,846	0,29
557,294	0,29
557,743	0,29
558,191	0,29
558,64	0,29
559,088	0,29
559,536	0,29
559,985	0,29
560,433	0,29
560,881	0,29
561,329	0,29
561,777	0,29
562,225	0,29
562,674	0,29
563,122	0,29
563,57	0,29
564,018	0,29
564,466	0,29
564,914	0,28
565,362	0,28
565,809	0,28
566,257	0,28
566,705	0,28
567,153	0,28
567,601	0,28
568,048	0,28
568,496	0,28
568,944	0,28
569,392	0,28
569,839	0,28
570,287	0,28
570,734	0,28
571,182	0,28
571,63	0,28
572,077	0,28
572,525	0,28
572,972	0,28
573,419	0,28
573,867	0,28
574,314	0,28
574,761	0,28
575,209	0,27
575,656	0,27
576,103	0,27
576,551	0,27
576,998	0,27
577,445	0,27
577,892	0,27
578,339	0,27
578,786	0,27
579,233	0,27
579,68	0,27
580,127	0,27
580,574	0,27
581,021	0,27
581,468	0,27
581,915	0,27
582,362	0,27
582,809	0,27
583,255	0,27
583,702	0,27
584,149	0,27
584,596	0,27
585,042	0,27
585,489	0,27
585,936	0,27
586,382	0,27
586,829	0,27
587,275	0,27
587,722	0,27
588,168	0,27
588,615	0,27
589,061	0,27
589,508	0,26
589,954	0,26
590,4	0,26
590,847	0,26
591,293	0,26
591,739	0,26
592,185	0,26
592,632	0,26
593,078	0,26
593,524	0,26
593,97	0,26
594,416	0,26
594,862	0,26
595,308	0,26
595,754	0,26
596,2	0,26
596,646	0,26
597,092	0,26
597,538	0,26
597,984	0,26
598,43	0,26
598,876	0,26
599,321	0,26
599,767	0,26
600,213	0,26
600,659	0,26
601,104	0,26
601,55	0,26
601,995	0,26
602,441	0,26
602,887	0,26
603,332	0,26
603,778	0,26
604,223	0,26
604,668	0,26
605,114	0,26
605,559	0,26
606,005	0,26
606,45	0,26
606,895	0,26
607,341	0,26
607,786	0,26
608,231	0,26
608,676	0,26
609,121	0,25
609,566	0,25
610,012	0,25
610,457	0,25
610,902	0,25
611,347	0,25
611,792	0,24
612,237	0,24
612,682	0,24
613,127	0,24
613,571	0,24
614,016	0,25
614,461	0,25
614,906	0,25
615,351	0,25
615,795	0,25
616,24	0,25
616,685	0,25
617,129	0,25
617,574	0,25
618,019	0,25
618,463	0,25
618,908	0,25
619,352	0,25
619,797	0,25
620,241	0,25
620,686	0,25
621,13	0,25
621,574	0,25
622,019	0,25
622,463	0,25
622,907	0,25
623,352	0,25
623,796	0,25
624,24	0,25
624,684	0,25
625,128	0,25
625,572	0,25
626,016	0,25
626,461	0,25
626,905	0,25
627,349	0,25
627,793	0,25
628,236	0,25
628,68	0,25
629,124	0,25
629,568	0,25
630,012	0,25
630,456	0,25
630,9	0,25
631,343	0,25
631,787	0,25
632,231	0,25
632,674	0,25
633,118	0,25
633,562	0,25
634,005	0,25
634,449	0,25
634,892	0,25
635,336	0,25
635,779	0,25
636,223	0,25
636,666	0,25
637,109	0,25
637,553	0,25
637,996	0,25
638,439	0,25
638,883	0,25
639,326	0,25
639,769	0,25
640,212	0,25
640,655	0,24
641,099	0,24
641,542	0,24
641,985	0,24
642,428	0,24
642,871	0,24
643,314	0,24
643,757	0,24
644,2	0,24
644,643	0,24
645,085	0,24
645,528	0,24
645,971	0,24
646,414	0,24
646,857	0,24
647,299	0,24
647,742	0,24
648,185	0,24
648,627	0,24
649,07	0,24
649,513	0,24
649,955	0,24
650,398	0,24
650,84	0,24
651,283	0,24
651,725	0,24
652,168	0,24
652,61	0,24
653,052	0,24
653,495	0,24
653,937	0,19
654,379	0,16
654,821	0,16
655,264	0,16
655,706	0,16
656,148	0,16
656,59	0,16
657,032	0,16
657,474	0,16
657,916	0,16
658,358	0,15
658,8	0,19
659,242	0,24
659,684	0,24
660,126	0,24
660,568	0,24
661,01	0,24
661,452	0,24
661,894	0,24
662,335	0,24
662,777	0,24
663,219	0,24
663,661	0,24
664,102	0,24
664,544	0,24
664,985	0,24
665,427	0,24
665,869	0,24
666,31	0,24
666,752	0,24
667,193	0,24
667,634	0,24
668,076	0,24
668,517	0,24
668,959	0,24
669,4	0,24
669,841	0,24
670,282	0,24
670,724	0,24
671,165	0,24
671,606	0,24
672,047	0,24
672,488	0,24
672,929	0,24
673,37	0,24
673,811	0,24
674,252	0,24
674,693	0,23
675,134	0,23
675,575	0,23
676,016	0,23
676,457	0,23
676,898	0,23
677,339	0,23
677,78	0,23
678,22	0,23
678,661	0,23
679,102	0,23
679,542	0,23
679,983	0,23
680,424	0,23
680,864	0,23
681,305	0,23
681,745	0,23
682,186	0,23
682,626	0,23
683,067	0,23
683,507	0,23
683,948	0,23
684,388	0,23
684,828	0,23
685,269	0,23
685,709	0,23
686,149	0,23
686,589	0,23
687,029	0,23
687,47	0,23
687,91	0,23
688,35	0,23
688,79	0,23
689,23	0,23
689,67	0,23
690,11	0,23
690,55	0,23
690,99	0,23
691,43	0,23
691,87	0,22
692,31	0,22
692,749	0,22
693,189	0,22
693,629	0,22
694,069	0,22
694,508	0,22
694,948	0,22
695,388	0,22
695,827	0,22
696,267	0,22
696,706	0,22
697,146	0,22
697,586	0,22
698,025	0,22
698,464	0,22
698,904	0,22
699,343	0,22
699,783	0,23
700,222	0,23
700,661	0,22
701,101	0,22
701,54	0,22
701,979	0,22
702,418	0,22
702,857	0,22
703,297	0,22
703,736	0,22
704,175	0,22
704,614	0,22
705,053	0,22
705,492	0,22
705,931	0,22
706,37	0,22
706,809	0,22
707,248	0,22
707,687	0,22
708,125	0,22
708,564	0,22
709,003	0,22
709,442	0,22
709,88	0,22
710,319	0,22
710,758	0,22
711,196	0,22
711,635	0,22
712,074	0,22
712,512	0,22
712,951	0,22
713,389	0,22
713,828	0,22
714,266	0,21
714,705	0,21
715,143	0,21
715,581	0,21
716,02	0,21
716,458	0,21
716,896	0,21
717,334	0,21
717,773	0,21
718,211	0,21
718,649	0,21
719,087	0,21
719,525	0,21
719,963	0,21
720,401	0,21
720,839	0,21
721,277	0,21
721,715	0,21
722,153	0,21
722,591	0,21
723,029	0,21
723,467	0,21
723,905	0,21
724,342	0,21
724,78	0,21
725,218	0,21
725,656	0,21
726,093	0,21
726,531	0,21
726,969	0,21
727,406	0,21
727,844	0,21
728,281	0,21
728,719	0,21
729,156	0,21
729,594	0,21
730,031	0,21
730,469	0,2
730,906	0,2
731,343	0,2
731,781	0,2
732,218	0,2
732,655	0,2
733,092	0,2
733,53	0,2
733,967	0,2
734,404	0,2
734,841	0,2
735,278	0,2
735,715	0,2
736,152	0,2
736,589	0,2
737,026	0,2
737,463	0,2
737,9	0,2
738,337	0,2
738,774	0,19
739,211	0,19
739,647	0,19
740,084	0,19
740,521	0,19
740,958	0,19
741,394	0,19
741,831	0,19
742,268	0,19
742,704	0,19
743,141	0,19
743,577	0,19
744,014	0,19
744,45	0,19
744,887	0,19
745,323	0,19
745,76	0,19
746,196	0,19
746,632	0,18
747,069	0,18
747,505	0,18
747,941	0,18
748,378	0,18
748,814	0,18
749,25	0,19
749,686	0,19
750,122	0,19
750,558	0,19
750,994	0,19
751,43	0,19
751,866	0,19
752,302	0,19
752,738	0,19
753,174	0,19
753,61	0,2
754,046	0,2
754,482	0,2
754,918	0,2
755,354	0,2
755,789	0,2
756,225	0,2
756,661	0,2
757,096	0,2
757,532	0,2
757,968	0,2
758,403	0,19
758,839	0,19
759,274	0,19
759,71	0,19
760,145	0,19
760,581	0,19
761,016	0,18
761,452	0,18
761,887	0,18
762,322	0,18
762,758	0,18
763,193	0,17
763,628	0,17
764,063	0,17
764,499	0,16
764,934	0,16
765,369	0,16
765,804	0,16
766,239	0,16
766,674	0,15
767,109	0,15
767,544	0,14
767,979	0,14
768,414	0,14
768,849	0,13
769,284	0,13
769,719	0,12
770,154	0,12
770,588	0,12
771,023	0,11
771,458	0,11
771,893	0,1
772,327	0,1
772,762	0,1
773,197	0,1
773,631	0,09
774,066	0,09
774,5	0,08
774,935	0,08
775,369	0,08
775,804	0,07
776,238	0,07
776,673	0,06
777,107	0,06
777,541	0,06
777,976	0,05
778,41	0,05
778,844	0,05
779,279	0,05
779,713	0,04
780,147	0,04
780,581	0,04
781,015	0,03
781,449	0,03
781,883	0,02
782,317	0,01
782,751	0
783,185	-0
783,619	-0,01
784,053	-0,02
784,487	-0,03
784,921	-0,04
785,355	-0,05
785,789	-0,05
786,223	-0,07
786,656	-0,08
787,09	-0,09
787,524	-0,1
787,957	-0,11
788,391	-0,14
788,825	-0,16
789,258	-0,18
789,692	-0,2
790,125	-0,22
790,559	-0,24
790,992	-0,27
791,426	-0,3
791,859	-0,32
792,293	-0,35
792,726	-0,37
793,159	-0,4
793,593	-0,43
794,026	-0,46
794,459	-0,49
794,892	-0,53
795,326	-0,57
795,759	-0,61
796,192	-0,67
796,625	-0,72
797,058	-0,76
797,491	-0,81
797,924	-0,86
798,357	-0,93
798,79	-0,98
799,223	-1,03
799,656	-1,09
800,089	-1,14
800,522	-1,19
800,955	-1,24
801,387	-1,3
801,82	-1,36
802,253	-1,43
802,686	-1,52
803,118	-1,58
803,551	-1,64
803,984	-1,73
804,416	-1,92
804,849	-2,23
805,281	-2,47
805,714	-2,65
806,146	-2,84
806,579	-2,99
807,011	-3,07
807,444	-3,07
807,876	-3,09
808,308	-3,11
808,741	-3,13
809,173	-3,17
809,605	-3,14
810,037	-3,14
810,47	-2,97
810,902	-2,7
811,334	-2,41
811,766	-2,05
812,198	-1,87
812,63	-1,76
813,062	-1,69
813,494	-1,62
813,926	-1,54
814,358	-1,49
814,79	-1,41
815,222	-1,36
815,654	-1,31
816,086	-1,25
816,518	-1,19
816,949	-1,14
817,381	-1,09
817,813	-1,08
818,245	-1,03
818,676	-0,99
819,108	-0,96
819,54	-0,94
819,971	-0,91
820,403	-0,85
820,834	-0,84
821,266	-0,79
821,697	-0,76
822,129	-0,75
822,56	-0,71
822,991	-0,68
823,423	-0,66
823,854	-0,64
824,286	-0,61
824,717	-0,6
825,148	-0,57
825,579	-0,56
826,01	-0,54
826,442	-0,53
826,873	-0,51
827,304	-0,47
827,735	-0,46
828,166	-0,46
828,597	-0,45
829,028	-0,44
829,459	-0,43
829,89	-0,43
830,321	-0,38
830,752	-0,38
831,183	-0,37
831,613	-0,37
832,044	-0,36
832,475	-0,36
832,906	-0,36
833,336	-0,36
833,767	-0,37
834,198	-0,36
834,628	-0,34
835,059	-0,36
835,49	-0,37
835,92	-0,34
836,351	-0,33
836,781	-0,33
837,212	-0,33
837,642	-0,34
838,072	-0,31
838,503	-0,31
838,933	-0,29
839,364	-0,3
839,794	-0,28
840,224	-0,28
840,654	-0,31
841,085	-0,32
841,515	-0,29
841,945	-0,31
842,375	-0,28
842,805	-0,26
843,235	-0,25
843,665	-0,26
844,095	-0,23
844,525	-0,25
844,955	-0,24
845,385	-0,21
845,815	-0,19
846,245	-0,21
846,675	-0,2
847,105	-0,21
847,534	-0,21
847,964	-0,21
848,394	-0,21
848,824	-0,24
849,253	-0,23
849,683	-0,23
850,112	-0,24
850,542	-0,26
850,972	-0,26
851,401	-0,23
851,831	-0,22
852,26	-0,23
852,69	-0,24
853,119	-0,22
853,548	-0,24
853,978	-0,26
854,407	-0,24
854,836	-0,23
855,266	-0,22
855,695	-0,22
856,124	-0,24
856,553	-0,25
856,983	-0,27
857,412	-0,27
857,841	-0,3
858,27	-0,29
858,699	-0,28
859,128	-0,31
859,557	-0,32
859,986	-0,34
860,415	-0,32
860,844	-0,3
861,273	-0,3
861,702	-0,31
862,13	-0,29
862,559	-0,3
862,988	-0,28
863,417	-0,26
863,845	-0,27
864,274	-0,26
864,703	-0,25
865,131	-0,26
865,56	-0,28
865,989	-0,28
866,417	-0,26
866,846	-0,26
867,274	-0,25
867,703	-0,27
868,131	-0,28
868,559	-0,27
868,988	-0,29
869,416	-0,29
869,844	-0,31
870,273	-0,33
870,701	-0,32
871,129	-0,35
871,557	-0,37
871,986	-0,37
872,414	-0,37
872,842	-0,36
873,27	-0,35
873,698	-0,32
874,126	-0,34
874,554	-0,31
874,982	-0,31
875,41	-0,34
875,838	-0,3
876,266	-0,26
876,694	-0,25
877,122	-0,25
877,549	-0,28
877,977	-0,27
878,405	-0,29
878,833	-0,27
879,26	-0,27
879,688	-0,26
880,116	-0,24
880,543	-0,22
880,971	-0,22
881,399	-0,23
881,826	-0,25
882,254	-0,24
882,681	-0,25
883,109	-0,22
883,536	-0,23
883,963	-0,23
884,391	-0,2
884,818	-0,2
885,245	-0,2
885,673	-0,24
886,1	-0,22
886,527	-0,22
886,954	-0,19
887,381	-0,21
887,809	-0,23
888,236	-0,25
888,663	-0,25
889,09	-0,29
889,517	-0,3
889,944	-0,33
890,371	-0,33
890,798	-0,34
891,225	-0,33
891,652	-0,36
892,078	-0,33
892,505	-0,34
892,932	-0,3
893,359	-0,31
893,786	-0,32
894,212	-0,29
894,639	-0,28
895,066	-0,29
895,492	-0,24
895,919	-0,22
896,346	-0,23
896,772	-0,24
897,199	-0,22
897,625	-0,24
898,052	-0,22
898,478	-0,2
898,904	-0,23
899,331	-0,24
899,757	-0,25
900,183	-0,26
900,61	-0,25
901,036	-0,24
901,462	-0,25
901,888	-0,23
902,315	-0,24
902,741	-0,28
903,167	-0,26
903,593	-0,28
904,019	-0,26
904,445	-0,24
904,871	-0,28
905,297	-0,3
905,723	-0,3
906,149	-0,29
906,575	-0,31
907,001	-0,29
907,427	-0,27
907,852	-0,27
908,278	-0,26
908,704	-0,24
909,13	-0,22
909,555	-0,22
909,981	-0,23
910,407	-0,21
910,832	-0,21
911,258	-0,21
911,684	-0,22
912,109	-0,22
912,535	-0,22
912,96	-0,19
913,386	-0,23
913,811	-0,23
914,236	-0,23
914,662	-0,2
915,087	-0,24
915,512	-0,23
915,938	-0,24
916,363	-0,22
916,788	-0,22
917,213	-0,21
917,639	-0,26
918,064	-0,24
918,489	-0,23
918,914	-0,25
919,339	-0,27
919,764	-0,25
920,189	-0,26
920,614	-0,29
921,039	-0,3
921,464	-0,27
921,889	-0,29
922,314	-0,3
922,738	-0,33
923,163	-0,34
923,588	-0,35
924,013	-0,34
924,437	-0,33
924,862	-0,34
925,287	-0,31
925,711	-0,31
926,136	-0,33
926,561	-0,31
926,985	-0,3
927,41	-0,27
927,834	-0,26
928,259	-0,24
928,683	-0,25
929,108	-0,23
929,532	-0,24
929,956	-0,23
930,381	-0,22
930,805	-0,22
931,229	-0,23
931,653	-0,22
932,078	-0,23
932,502	-0,25
932,926	-0,26
933,35	-0,24
933,774	-0,23
934,198	-0,21
934,622	-0,19
935,046	-0,21
935,47	-0,21
935,894	-0,19
936,318	-0,19
936,742	-0,16
937,166	-0,16
937,59	-0,14
938,014	-0,17
938,437	-0,18
938,861	-0,21
939,285	-0,23
939,709	-0,23
940,132	-0,24
940,556	-0,25
940,98	-0,24
941,403	-0,24
941,827	-0,24
942,25	-0,25
942,674	-0,24
943,097	-0,24
943,521	-0,22
943,944	-0,23
944,368	-0,22
944,791	-0,2
945,214	-0,22
945,638	-0,22
946,061	-0,24
946,484	-0,26
946,907	-0,25
947,331	-0,24
947,754	-0,28
948,177	-0,26
948,6	-0,26
949,023	-0,25
949,446	-0,24
949,869	-0,22
950,292	-0,23
950,715	-0,19
951,138	-0,18
951,561	-0,15
951,984	-0,15
952,407	-0,13
952,83	-0,11
953,252	-0,08
953,675	-0,08
954,098	-0,09
954,521	-0,08
954,943	-0,08
955,366	-0,09
955,789	-0,08
956,211	-0,1
956,634	-0,1
957,056	-0,07
957,479	-0,09
957,902	-0,1
958,324	-0,11
958,746	-0,09
959,169	-0,1
959,591	-0,1
960,014	-0,11
960,436	-0,12
960,858	-0,12
961,281	-0,13
961,703	-0,15
962,125	-0,15
962,547	-0,14
962,969	-0,14
963,391	-0,15
963,814	-0,14
964,236	-0,13
964,658	-0,11
965,08	-0,11
965,502	-0,11
965,924	-0,1
966,346	-0,1
966,768	-0,09
967,189	-0,11
967,611	-0,11
968,033	-0,11
968,455	-0,12
968,877	-0,13
969,298	-0,15
969,72	-0,15
970,142	-0,15
970,563	-0,14
970,985	-0,14
971,407	-0,12
971,828	-0,12
972,25	-0,11
972,671	-0,09
973,093	-0,09
973,514	-0,08
973,936	-0,06
974,357	-0,06
974,778	-0,06
975,2	-0,06
975,621	-0,06
976,042	-0,06
976,464	-0,04
976,885	-0,04
977,306	-0,05
977,727	-0,04
978,148	-0,04
978,57	-0,04
978,991	-0,02
979,412	-0,02
979,833	-0,01
980,254	-0,01
980,675	-0,01
981,096	-0,01
981,517	0
981,937	0
982,358	0,02
982,779	0,02
983,2	0,03
983,621	0,02
984,042	0,04
984,462	0,03
984,883	0,04
985,304	0,05
985,724	0,05
986,145	0,06
986,565	0,07
986,986	0,07
987,407	0,06
987,827	0,07
988,248	0,08
988,668	0,08
989,088	0,08
989,509	0,08
989,929	0,09
990,35	0,09
990,77	0,09
991,19	0,09
991,61	0,09
992,031	0,09
992,451	0,09
992,871	0,09
993,291	0,1
993,711	0,1
994,131	0,1
994,551	0,1
994,971	0,1
995,391	0,1
995,811	0,1
996,231	0,1
996,651	0,1
997,071	0,1
997,491	0,1
997,911	0,1
998,331	0,11
998,75	0,11
999,17	0,11
999,59	0,11
1000,009	0,11
1000,429	0,11
1000,849	0,11
1001,268	0,11
1001,688	0,11
1002,107	0,11
1002,527	0,12
1002,946	0,12
1003,366	0,12
1003,785	0,12
1004,205	0,12
1004,624	0,12
1005,044	0,12
1005,463	0,12
1005,882	0,12
1006,301	0,12
1006,721	0,12
1007,14	0,12
1007,559	0,12
1007,978	0,12
1008,397	0,12
1008,816	0,12
1009,235	0,12
1009,655	0,12
1010,074	0,12
1010,492	0,12
1010,911	0,11
1011,33	0,11
1011,749	0,11
1012,168	0,11
1012,587	0,11
1013,006	0,11
1013,425	0,11
1013,843	0,11
1014,262	0,11
1014,681	0,11
1015,099	0,11
1015,518	0,11
1015,937	0,11
1016,355	0,11
1016,774	0,11
1017,192	0,11
1017,611	0,11
1018,029	0,11
1018,448	0,11
1018,866	0,11
1019,285	0,11
1019,703	0,11
1020,121	0,11
1020,54	0,11
1020,958	0,11
1021,376	0,11
1021,794	0,11
1022,213	0,11
1022,631	0,11
1023,049	0,11
1023,467	0,11
1023,885	0,11
1024,303	0,11
1024,721	0,11
1025,139	0,11
1025,557	0,11
1025,975	0,11
1026,393	0,11
1026,811	0,11
1027,229	0,11
1027,647	0,11
1028,065	0,11
1028,482	0,11
1028,9	0,11
1029,318	0,11
1029,735	0,11
1030,153	0,11
1030,571	0,11
1030,988	0,11
1031,406	0,11
1031,823	0,11
1032,241	0,11
1032,659	0,11
1033,076	0,11
1033,493	0,11
1033,911	0,11
1034,328	0,11
1034,746	0,11
1035,163	0,11
1035,58	0,11
1035,997	0,11
1036,415	0,11
1036,832	0,11
1037,249	0,11
1037,666	0,11
1038,083	0,11
1038,501	0,11
1038,918	0,11
1039,335	0,11
1039,752	0,11
1040,169	0,11
1040,586	0,11
1041,003	0,11
1041,419	0,11
1041,836	0,11
1042,253	0,11
1042,67	0,11
1043,087	0,11
1043,504	0,11
1043,92	0,11
1044,337	0,11
1044,754	0,11
1045,17	0,11
1045,587	0,11
1046,004	0,11
1046,42	0,11
1046,837	0,11
1047,253	0,11
1047,67	0,11
1048,086	0,11
1048,503	0,11
1048,919	0,1
1049,335	0,1
1049,752	0,1
1050,168	0,1
1050,584	0,1
1051,001	0,1
1051,417	0,1
1051,833	0,1
1052,249	0,1
1052,665	0,1
1053,081	0,1
1053,497	0,1
1053,914	0,1
1054,33	0,1
1054,746	0,1
1055,162	0,1
1055,578	0,1
1055,993	0,1
1056,409	0,1
1056,825	0,1
1057,241	0,1
1057,657	0,1
1058,073	0,1
1058,488	0,1
1058,904	0,1
1059,32	0,1
1059,736	0,1
1060,151	0,1
1060,567	0,1
1060,982	0,1
1061,398	0,1
1061,813	0,1
1062,229	0,1
1062,644	0,1
1063,06	0,1
1063,475	0,1
1063,891	0,1
1064,306	0,1
1064,721	0,1
1065,137	0,1
1065,552	0,1
1065,967	0,1
1066,382	0,1
1066,798	0,1
1067,213	0,1
1067,628	0,1
1068,043	0,1
1068,458	0,1
1068,873	0,1
1069,288	0,1
1069,703	0,1
1070,118	0,1
1070,533	0,1
1070,948	0,1
1071,363	0,1
1071,778	0,1
1072,193	0,1
1072,607	0,1
1073,022	0,1
1073,437	0,1
1073,852	0,1
1074,266	0,1
1074,681	0,1
1075,096	0,1
1075,51	0,1
1075,925	0,1
1076,339	0,1
1076,754	0,1
1077,168	0,1
1077,583	0,1
1077,997	0,1
1078,412	0,1
1078,826	0,1
1079,24	0,1
1079,655	0,1
1080,069	0,1
1080,483	0,1
1080,897	0,1
1081,312	0,1
1081,726	0,1
1082,14	0,1
1082,554	0,1
1082,968	0,1
1083,382	0,1
1083,796	0,1
1084,21	0,1
1084,624	0,1
1085,038	0,09
1085,452	0,1
1085,866	0,1
1086,28	0,1
1086,694	0,09
1087,108	0,09
1087,521	0,09
1087,935	0,09
1088,349	0,09
1088,763	0,09
1089,176	0,09
1089,59	0,09
1090,004	0,09
1090,417	0,09
1090,831	0,09
1091,244	0,09
1091,658	0,08
1092,071	0,08
1092,485	0,08
1092,898	0,08
1093,312	0,08
1093,725	0,08
1094,138	0,08
1094,552	0,08
1094,965	0,08
1095,378	0,08
1095,791	0,08
1096,205	0,08
1096,618	0,08
1097,031	0,08
1097,444	0,08
1097,857	0,08
1098,27	0,08
1098,683	0,08
1099,096	0,08
1099,509	0,08
1099,922	0,08
1100,335	0,08
1100,748	0,08
1101,161	0,08
1101,574	0,07
1101,986	0,07
1102,399	0,07
1102,812	0,07
1103,225	0,07
1103,637	0,07
1104,05	0,06
1104,463	0,06
1104,875	0,07
1105,288	0,07
1105,7	0,06
1106,113	0,06
1106,525	0,07
1106,938	0,06
1107,35	0,06
1107,763	0,06
1108,175	0,06
1108,588	0,06
1109	0,06
1109,412	0,06
1109,824	0,05
1110,237	0,05
1110,649	0,05
1111,061	0,05
