Data from 18C-808nm-8A_Absorbance__1028__01028.txt Node

Date: Mon Jul 17 16:59:13 CEST 2023
User: Laser008
Spectrometer: MAYP115816
Trigger mode: 0
Integration Time (sec): 2,500000E-1
Scans to average: 10
Electric dark correction enabled: true
Nonlinearity correction enabled: true
Boxcar width: 5
XAxis mode: Wavelengths
Number of Pixels in Spectrum: 2068
>>>>>Begin Spectral Data<<<<<
198,914	-0,69
199,384	-0,47
199,855	-0,36
200,325	-0,27
200,796	-0,25
201,266	-0,21
201,737	-0,2
202,207	-0,19
202,677	-0,19
203,147	-0,17
203,618	-0,15
204,088	-0,14
204,558	-0,13
205,028	-0,12
205,498	-0,14
205,968	-0,13
206,439	-0,14
206,909	-0,13
207,379	-0,14
207,849	-0,13
208,319	-0,14
208,789	-0,14
209,258	-0,13
209,728	-0,15
210,198	-0,15
210,668	-0,14
211,138	-0,14
211,608	-0,14
212,077	-0,15
212,547	-0,14
213,017	-0,14
213,486	-0,16
213,956	-0,16
214,426	-0,17
214,895	-0,16
215,365	-0,16
215,834	-0,17
216,304	-0,18
216,773	-0,17
217,243	-0,19
217,712	-0,21
218,181	-0,21
218,651	-0,21
219,12	-0,2
219,589	-0,21
220,058	-0,2
220,528	-0,21
220,997	-0,21
221,466	-0,22
221,935	-0,22
222,404	-0,21
222,873	-0,19
223,342	-0,18
223,812	-0,18
224,281	-0,18
224,749	-0,18
225,218	-0,2
225,687	-0,2
226,156	-0,2
226,625	-0,18
227,094	-0,19
227,563	-0,2
228,031	-0,21
228,5	-0,22
228,969	-0,22
229,438	-0,22
229,906	-0,2
230,375	-0,2
230,844	-0,19
231,312	-0,19
231,781	-0,2
232,249	-0,19
232,718	-0,18
233,186	-0,17
233,655	-0,18
234,123	-0,17
234,591	-0,18
235,06	-0,19
235,528	-0,19
235,996	-0,18
236,465	-0,18
236,933	-0,18
237,401	-0,17
237,869	-0,16
238,337	-0,17
238,805	-0,16
239,274	-0,15
239,742	-0,14
240,21	-0,14
240,678	-0,13
241,146	-0,13
241,614	-0,13
242,081	-0,12
242,549	-0,12
243,017	-0,12
243,485	-0,12
243,953	-0,12
244,421	-0,12
244,888	-0,12
245,356	-0,12
245,824	-0,12
246,291	-0,12
246,759	-0,12
247,227	-0,13
247,694	-0,12
248,162	-0,12
248,629	-0,11
249,097	-0,12
249,564	-0,13
250,032	-0,14
250,499	-0,13
250,967	-0,14
251,434	-0,14
251,901	-0,15
252,369	-0,15
252,836	-0,16
253,303	-0,17
253,77	-0,19
254,237	-0,19
254,705	-0,18
255,172	-0,17
255,639	-0,17
256,106	-0,19
256,573	-0,19
257,04	-0,2
257,507	-0,2
257,974	-0,2
258,441	-0,19
258,908	-0,18
259,375	-0,19
259,841	-0,19
260,308	-0,2
260,775	-0,2
261,242	-0,18
261,709	-0,18
262,175	-0,18
262,642	-0,18
263,109	-0,18
263,575	-0,19
264,042	-0,17
264,508	-0,17
264,975	-0,19
265,441	-0,19
265,908	-0,2
266,374	-0,2
266,841	-0,2
267,307	-0,2
267,773	-0,2
268,24	-0,2
268,706	-0,21
269,172	-0,22
269,639	-0,24
270,105	-0,22
270,571	-0,23
271,037	-0,24
271,503	-0,25
271,969	-0,24
272,435	-0,24
272,902	-0,25
273,368	-0,26
273,834	-0,26
274,3	-0,26
274,765	-0,25
275,231	-0,25
275,697	-0,24
276,163	-0,23
276,629	-0,23
277,095	-0,23
277,56	-0,23
278,026	-0,23
278,492	-0,22
278,958	-0,22
279,423	-0,22
279,889	-0,22
280,354	-0,22
280,82	-0,22
281,286	-0,23
281,751	-0,24
282,217	-0,23
282,682	-0,23
283,147	-0,24
283,613	-0,24
284,078	-0,24
284,544	-0,25
285,009	-0,26
285,474	-0,26
285,939	-0,27
286,405	-0,26
286,87	-0,25
287,335	-0,25
287,8	-0,24
288,265	-0,22
288,73	-0,23
289,195	-0,25
289,66	-0,25
290,125	-0,23
290,59	-0,24
291,055	-0,23
291,52	-0,24
291,985	-0,24
292,45	-0,26
292,915	-0,26
293,38	-0,26
293,844	-0,25
294,309	-0,23
294,774	-0,22
295,239	-0,22
295,703	-0,22
296,168	-0,21
296,632	-0,2
297,097	-0,19
297,562	-0,18
298,026	-0,18
298,491	-0,19
298,955	-0,18
299,419	-0,17
299,884	-0,17
300,348	-0,17
300,813	-0,16
301,277	-0,17
301,741	-0,17
302,205	-0,17
302,67	-0,16
303,134	-0,15
303,598	-0,15
304,062	-0,15
304,526	-0,16
304,99	-0,17
305,454	-0,17
305,919	-0,17
306,383	-0,16
306,847	-0,15
307,31	-0,17
307,774	-0,18
308,238	-0,18
308,702	-0,18
309,166	-0,2
309,63	-0,19
310,094	-0,17
310,557	-0,16
311,021	-0,16
311,485	-0,17
311,948	-0,17
312,412	-0,16
312,876	-0,15
313,339	-0,15
313,803	-0,15
314,266	-0,15
314,73	-0,16
315,193	-0,15
315,657	-0,15
316,12	-0,14
316,584	-0,13
317,047	-0,12
317,51	-0,11
317,973	-0,11
318,437	-0,1
318,9	-0,09
319,363	-0,07
319,826	-0,07
320,29	-0,08
320,753	-0,08
321,216	-0,08
321,679	-0,08
322,142	-0,08
322,605	-0,1
323,068	-0,1
323,531	-0,09
323,994	-0,09
324,457	-0,09
324,92	-0,08
325,382	-0,07
325,845	-0,07
326,308	-0,08
326,771	-0,07
327,233	-0,06
327,696	-0,05
328,159	-0,04
328,622	-0,03
329,084	-0,04
329,547	-0,03
330,009	-0,03
330,472	-0,02
330,934	-0,01
331,397	-0
331,859	-0
332,322	-0
332,784	-0
333,246	0
333,709	-0
334,171	0,01
334,633	0
335,096	-0,01
335,558	-0
336,02	-0,01
336,482	-0,01
336,944	0
337,406	0,01
337,868	0,01
338,331	0,01
338,793	0,02
339,255	0,02
339,717	0,02
340,178	0,04
340,64	0,04
341,102	0,05
341,564	0,05
342,026	0,06
342,488	0,07
342,949	0,08
343,411	0,1
343,873	0,11
344,335	0,13
344,796	0,16
345,258	0,19
345,719	0,21
346,181	0,24
346,643	0,26
347,104	0,28
347,566	0,3
348,027	0,31
348,488	0,32
348,95	0,33
349,411	0,34
349,873	0,35
350,334	0,36
350,795	0,37
351,256	0,37
351,718	0,37
352,179	0,38
352,64	0,38
353,101	0,38
353,562	0,38
354,023	0,38
354,484	0,38
354,945	0,38
355,406	0,38
355,867	0,38
356,328	0,39
356,789	0,39
357,25	0,39
357,711	0,39
358,172	0,39
358,633	0,39
359,093	0,39
359,554	0,39
360,015	0,39
360,476	0,39
360,936	0,39
361,397	0,39
361,858	0,39
362,318	0,39
362,779	0,39
363,239	0,39
363,7	0,39
364,16	0,39
364,621	0,4
365,081	0,4
365,541	0,4
366,002	0,4
366,462	0,39
366,922	0,39
367,383	0,39
367,843	0,39
368,303	0,39
368,763	0,39
369,223	0,39
369,684	0,39
370,144	0,39
370,604	0,39
371,064	0,39
371,524	0,39
371,984	0,39
372,444	0,39
372,904	0,39
373,363	0,39
373,823	0,39
374,283	0,39
374,743	0,39
375,203	0,39
375,663	0,39
376,122	0,39
376,582	0,39
377,042	0,39
377,501	0,39
377,961	0,39
378,42	0,39
378,88	0,39
379,34	0,39
379,799	0,39
380,259	0,39
380,718	0,39
381,177	0,39
381,637	0,39
382,096	0,39
382,555	0,39
383,015	0,39
383,474	0,39
383,933	0,39
384,393	0,39
384,852	0,39
385,311	0,39
385,77	0,39
386,229	0,38
386,688	0,38
387,147	0,38
387,606	0,38
388,065	0,38
388,524	0,38
388,983	0,38
389,442	0,38
389,901	0,38
390,36	0,38
390,819	0,38
391,277	0,38
391,736	0,38
392,195	0,38
392,654	0,38
393,112	0,38
393,571	0,38
394,03	0,38
394,488	0,38
394,947	0,38
395,405	0,38
395,864	0,38
396,322	0,38
396,781	0,38
397,239	0,38
397,698	0,38
398,156	0,38
398,614	0,38
399,073	0,38
399,531	0,38
399,989	0,38
400,447	0,38
400,905	0,38
401,364	0,38
401,822	0,38
402,28	0,38
402,738	0,38
403,196	0,38
403,654	0,38
404,112	0,38
404,57	0,38
405,028	0,38
405,486	0,38
405,944	0,38
406,402	0,37
406,859	0,37
407,317	0,37
407,775	0,37
408,233	0,37
408,691	0,37
409,148	0,37
409,606	0,37
410,064	0,37
410,521	0,37
410,979	0,37
411,436	0,37
411,894	0,37
412,351	0,37
412,809	0,37
413,266	0,37
413,724	0,37
414,181	0,37
414,638	0,37
415,096	0,37
415,553	0,37
416,01	0,37
416,467	0,37
416,925	0,37
417,382	0,37
417,839	0,37
418,296	0,37
418,753	0,37
419,21	0,37
419,667	0,37
420,124	0,37
420,581	0,37
421,038	0,37
421,495	0,37
421,952	0,37
422,409	0,37
422,866	0,37
423,322	0,37
423,779	0,37
424,236	0,37
424,693	0,37
425,149	0,37
425,606	0,37
426,063	0,37
426,519	0,37
426,976	0,37
427,433	0,37
427,889	0,37
428,346	0,37
428,802	0,37
429,258	0,37
429,715	0,37
430,171	0,37
430,628	0,37
431,084	0,37
431,54	0,37
431,997	0,37
432,453	0,37
432,909	0,37
433,365	0,36
433,821	0,36
434,277	0,36
434,734	0,36
435,19	0,36
435,646	0,36
436,102	0,36
436,558	0,36
437,014	0,36
437,47	0,36
437,925	0,36
438,381	0,36
438,837	0,36
439,293	0,36
439,749	0,36
440,205	0,36
440,66	0,36
441,116	0,36
441,572	0,36
442,027	0,36
442,483	0,36
442,939	0,36
443,394	0,36
443,85	0,36
444,305	0,36
444,761	0,36
445,216	0,36
445,672	0,36
446,127	0,36
446,582	0,36
447,038	0,36
447,493	0,36
447,948	0,36
448,403	0,36
448,859	0,36
449,314	0,36
449,769	0,36
450,224	0,36
450,679	0,36
451,134	0,36
451,589	0,36
452,044	0,36
452,499	0,37
452,954	0,37
453,409	0,37
453,864	0,37
454,319	0,37
454,774	0,37
455,229	0,37
455,684	0,37
456,138	0,37
456,593	0,37
457,048	0,37
457,503	0,36
457,957	0,36
458,412	0,36
458,866	0,36
459,321	0,36
459,776	0,37
460,23	0,37
460,685	0,37
461,139	0,37
461,593	0,37
462,048	0,37
462,502	0,37
462,957	0,37
463,411	0,37
463,865	0,37
464,319	0,37
464,774	0,37
465,228	0,37
465,682	0,37
466,136	0,37
466,59	0,37
467,044	0,37
467,499	0,37
467,953	0,37
468,407	0,37
468,861	0,37
469,315	0,37
469,768	0,37
470,222	0,37
470,676	0,37
471,13	0,38
471,584	0,38
472,038	0,38
472,491	0,38
472,945	0,38
473,399	0,38
473,852	0,38
474,306	0,38
474,76	0,38
475,213	0,38
475,667	0,38
476,12	0,38
476,574	0,38
477,027	0,38
477,481	0,38
477,934	0,38
478,388	0,38
478,841	0,38
479,294	0,38
479,748	0,38
480,201	0,39
480,654	0,39
481,107	0,39
481,561	0,39
482,014	0,39
482,467	0,39
482,92	0,39
483,373	0,39
483,826	0,39
484,279	0,39
484,732	0,39
485,185	0,39
485,638	0,4
486,091	0,4
486,544	0,4
486,997	0,4
487,449	0,4
487,902	0,4
488,355	0,4
488,808	0,4
489,26	0,4
489,713	0,41
490,166	0,41
490,618	0,41
491,071	0,41
491,523	0,41
491,976	0,41
492,429	0,42
492,881	0,42
493,333	0,42
493,786	0,42
494,238	0,42
494,691	0,42
495,143	0,43
495,595	0,43
496,048	0,43
496,5	0,43
496,952	0,43
497,404	0,43
497,856	0,44
498,309	0,44
498,761	0,44
499,213	0,44
499,665	0,44
500,117	0,45
500,569	0,45
501,021	0,45
501,473	0,45
501,925	0,46
502,377	0,46
502,828	0,46
503,28	0,46
503,732	0,46
504,184	0,47
504,636	0,47
505,087	0,47
505,539	0,47
505,991	0,47
506,442	0,48
506,894	0,48
507,345	0,48
507,797	0,48
508,249	0,49
508,7	0,49
509,151	0,49
509,603	0,49
510,054	0,5
510,506	0,5
510,957	0,5
511,408	0,5
511,86	0,5
512,311	0,5
512,762	0,51
513,213	0,51
513,665	0,51
514,116	0,51
514,567	0,51
515,018	0,52
515,469	0,52
515,92	0,52
516,371	0,52
516,822	0,52
517,273	0,52
517,724	0,53
518,175	0,53
518,626	0,53
519,076	0,53
519,527	0,53
519,978	0,53
520,429	0,53
520,88	0,54
521,33	0,54
521,781	0,54
522,232	0,54
522,682	0,54
523,133	0,54
523,583	0,54
524,034	0,55
524,484	0,55
524,935	0,55
525,385	0,55
525,836	0,55
526,286	0,55
526,736	0,55
527,187	0,55
527,637	0,55
528,087	0,55
528,538	0,55
528,988	0,55
529,438	0,55
529,888	0,55
530,338	0,55
530,788	0,55
531,238	0,55
531,688	0,55
532,139	0,55
532,589	0,55
533,038	0,55
533,488	0,55
533,938	0,54
534,388	0,54
534,838	0,54
535,288	0,54
535,738	0,54
536,187	0,54
536,637	0,54
537,087	0,54
537,537	0,53
537,986	0,53
538,436	0,53
538,885	0,53
539,335	0,52
539,785	0,52
540,234	0,52
540,684	0,52
541,133	0,52
541,582	0,52
542,032	0,51
542,481	0,51
542,931	0,51
543,38	0,51
543,829	0,5
544,278	0,5
544,728	0,5
545,177	0,5
545,626	0,49
546,075	0,49
546,524	0,49
546,973	0,49
547,422	0,49
547,871	0,49
548,32	0,49
548,769	0,48
549,218	0,48
549,667	0,48
550,116	0,48
550,565	0,48
551,014	0,48
551,463	0,48
551,911	0,48
552,36	0,47
552,809	0,47
553,258	0,47
553,706	0,47
554,155	0,47
554,603	0,47
555,052	0,46
555,501	0,46
555,949	0,46
556,398	0,46
556,846	0,46
557,294	0,45
557,743	0,45
558,191	0,45
558,64	0,45
559,088	0,45
559,536	0,44
559,985	0,44
560,433	0,44
560,881	0,44
561,329	0,44
561,777	0,43
562,225	0,43
562,674	0,43
563,122	0,43
563,57	0,43
564,018	0,43
564,466	0,42
564,914	0,42
565,362	0,42
565,809	0,42
566,257	0,42
566,705	0,41
567,153	0,41
567,601	0,41
568,048	0,41
568,496	0,41
568,944	0,41
569,392	0,4
569,839	0,4
570,287	0,4
570,734	0,4
571,182	0,4
571,63	0,4
572,077	0,39
572,525	0,39
572,972	0,39
573,419	0,39
573,867	0,39
574,314	0,39
574,761	0,38
575,209	0,38
575,656	0,38
576,103	0,38
576,551	0,38
576,998	0,38
577,445	0,38
577,892	0,38
578,339	0,38
578,786	0,38
579,233	0,37
579,68	0,37
580,127	0,37
580,574	0,37
581,021	0,37
581,468	0,37
581,915	0,37
582,362	0,37
582,809	0,36
583,255	0,36
583,702	0,36
584,149	0,36
584,596	0,36
585,042	0,36
585,489	0,36
585,936	0,36
586,382	0,36
586,829	0,35
587,275	0,35
587,722	0,35
588,168	0,35
588,615	0,35
589,061	0,35
589,508	0,35
589,954	0,35
590,4	0,35
590,847	0,35
591,293	0,35
591,739	0,35
592,185	0,35
592,632	0,35
593,078	0,34
593,524	0,34
593,97	0,34
594,416	0,34
594,862	0,34
595,308	0,34
595,754	0,34
596,2	0,34
596,646	0,34
597,092	0,34
597,538	0,34
597,984	0,34
598,43	0,34
598,876	0,34
599,321	0,34
599,767	0,33
600,213	0,33
600,659	0,33
601,104	0,33
601,55	0,33
601,995	0,33
602,441	0,33
602,887	0,33
603,332	0,33
603,778	0,33
604,223	0,33
604,668	0,33
605,114	0,33
605,559	0,33
606,005	0,33
606,45	0,33
606,895	0,33
607,341	0,33
607,786	0,33
608,231	0,33
608,676	0,32
609,121	0,32
609,566	0,32
610,012	0,31
610,457	0,31
610,902	0,31
611,347	0,31
611,792	0,31
612,237	0,31
612,682	0,3
613,127	0,3
613,571	0,31
614,016	0,31
614,461	0,31
614,906	0,31
615,351	0,31
615,795	0,31
616,24	0,31
616,685	0,31
617,129	0,31
617,574	0,31
618,019	0,31
618,463	0,31
618,908	0,31
619,352	0,31
619,797	0,31
620,241	0,31
620,686	0,31
621,13	0,31
621,574	0,31
622,019	0,31
622,463	0,31
622,907	0,31
623,352	0,31
623,796	0,31
624,24	0,31
624,684	0,31
625,128	0,31
625,572	0,31
626,016	0,31
626,461	0,31
626,905	0,31
627,349	0,31
627,793	0,31
628,236	0,31
628,68	0,31
629,124	0,31
629,568	0,31
630,012	0,31
630,456	0,3
630,9	0,3
631,343	0,3
631,787	0,3
632,231	0,31
632,674	0,31
633,118	0,3
633,562	0,31
634,005	0,31
634,449	0,31
634,892	0,31
635,336	0,31
635,779	0,31
636,223	0,31
636,666	0,3
637,109	0,3
637,553	0,3
637,996	0,3
638,439	0,3
638,883	0,3
639,326	0,3
639,769	0,3
640,212	0,3
640,655	0,3
641,099	0,3
641,542	0,3
641,985	0,3
642,428	0,3
642,871	0,3
643,314	0,3
643,757	0,3
644,2	0,3
644,643	0,3
645,085	0,3
645,528	0,3
645,971	0,3
646,414	0,3
646,857	0,3
647,299	0,3
647,742	0,3
648,185	0,3
648,627	0,29
649,07	0,29
649,513	0,29
649,955	0,29
650,398	0,29
650,84	0,29
651,283	0,29
651,725	0,29
652,168	0,29
652,61	0,29
653,052	0,29
653,495	0,29
653,937	0,23
654,379	0,18
654,821	0,19
655,264	0,19
655,706	0,19
656,148	0,19
656,59	0,19
657,032	0,19
657,474	0,19
657,916	0,19
658,358	0,18
658,8	0,23
659,242	0,29
659,684	0,29
660,126	0,29
660,568	0,29
661,01	0,29
661,452	0,29
661,894	0,29
662,335	0,29
662,777	0,29
663,219	0,29
663,661	0,29
664,102	0,29
664,544	0,29
664,985	0,29
665,427	0,29
665,869	0,29
666,31	0,29
666,752	0,29
667,193	0,29
667,634	0,29
668,076	0,29
668,517	0,29
668,959	0,29
669,4	0,29
669,841	0,29
670,282	0,29
670,724	0,29
671,165	0,29
671,606	0,29
672,047	0,29
672,488	0,29
672,929	0,29
673,37	0,29
673,811	0,29
674,252	0,29
674,693	0,29
675,134	0,29
675,575	0,29
676,016	0,29
676,457	0,29
676,898	0,29
677,339	0,29
677,78	0,29
678,22	0,29
678,661	0,29
679,102	0,29
679,542	0,29
679,983	0,29
680,424	0,29
680,864	0,29
681,305	0,29
681,745	0,29
682,186	0,29
682,626	0,29
683,067	0,29
683,507	0,29
683,948	0,29
684,388	0,29
684,828	0,29
685,269	0,28
685,709	0,28
686,149	0,28
686,589	0,28
687,029	0,28
687,47	0,28
687,91	0,28
688,35	0,28
688,79	0,28
689,23	0,28
689,67	0,28
690,11	0,28
690,55	0,27
690,99	0,27
691,43	0,27
691,87	0,27
692,31	0,27
692,749	0,27
693,189	0,27
693,629	0,27
694,069	0,27
694,508	0,27
694,948	0,27
695,388	0,27
695,827	0,27
696,267	0,27
696,706	0,28
697,146	0,28
697,586	0,28
698,025	0,28
698,464	0,28
698,904	0,28
699,343	0,28
699,783	0,28
700,222	0,28
700,661	0,28
701,101	0,28
701,54	0,28
701,979	0,28
702,418	0,28
702,857	0,28
703,297	0,28
703,736	0,28
704,175	0,28
704,614	0,28
705,053	0,27
705,492	0,27
705,931	0,27
706,37	0,27
706,809	0,27
707,248	0,27
707,687	0,27
708,125	0,27
708,564	0,27
709,003	0,27
709,442	0,27
709,88	0,27
710,319	0,27
710,758	0,27
711,196	0,27
711,635	0,27
712,074	0,27
712,512	0,27
712,951	0,27
713,389	0,27
713,828	0,27
714,266	0,26
714,705	0,26
715,143	0,26
715,581	0,26
716,02	0,26
716,458	0,26
716,896	0,26
717,334	0,26
717,773	0,26
718,211	0,26
718,649	0,26
719,087	0,26
719,525	0,26
719,963	0,26
720,401	0,26
720,839	0,26
721,277	0,26
721,715	0,26
722,153	0,26
722,591	0,26
723,029	0,26
723,467	0,26
723,905	0,26
724,342	0,26
724,78	0,26
725,218	0,26
725,656	0,26
726,093	0,26
726,531	0,26
726,969	0,26
727,406	0,26
727,844	0,26
728,281	0,26
728,719	0,26
729,156	0,26
729,594	0,26
730,031	0,26
730,469	0,26
730,906	0,26
731,343	0,26
731,781	0,26
732,218	0,26
732,655	0,26
733,092	0,26
733,53	0,26
733,967	0,26
734,404	0,26
734,841	0,26
735,278	0,25
735,715	0,25
736,152	0,25
736,589	0,25
737,026	0,25
737,463	0,25
737,9	0,25
738,337	0,25
738,774	0,25
739,211	0,25
739,647	0,25
740,084	0,25
740,521	0,25
740,958	0,25
741,394	0,25
741,831	0,25
742,268	0,25
742,704	0,25
743,141	0,24
743,577	0,24
744,014	0,24
744,45	0,24
744,887	0,24
745,323	0,24
745,76	0,24
746,196	0,24
746,632	0,24
747,069	0,24
747,505	0,24
747,941	0,24
748,378	0,24
748,814	0,24
749,25	0,24
749,686	0,24
750,122	0,24
750,558	0,24
750,994	0,24
751,43	0,24
751,866	0,24
752,302	0,25
752,738	0,25
753,174	0,25
753,61	0,25
754,046	0,25
754,482	0,25
754,918	0,25
755,354	0,25
755,789	0,25
756,225	0,25
756,661	0,25
757,096	0,25
757,532	0,25
757,968	0,25
758,403	0,24
758,839	0,24
759,274	0,24
759,71	0,24
760,145	0,24
760,581	0,23
761,016	0,23
761,452	0,23
761,887	0,22
762,322	0,22
762,758	0,22
763,193	0,22
763,628	0,21
764,063	0,21
764,499	0,2
764,934	0,2
765,369	0,19
765,804	0,19
766,239	0,18
766,674	0,18
767,109	0,17
767,544	0,16
767,979	0,16
768,414	0,15
768,849	0,14
769,284	0,14
769,719	0,13
770,154	0,13
770,588	0,12
771,023	0,11
771,458	0,11
771,893	0,1
772,327	0,09
772,762	0,08
773,197	0,08
773,631	0,07
774,066	0,06
774,5	0,05
774,935	0,05
775,369	0,04
775,804	0,03
776,238	0,02
776,673	0,01
777,107	0
777,541	-0
777,976	-0,01
778,41	-0,02
778,844	-0,02
779,279	-0,03
779,713	-0,03
780,147	-0,04
780,581	-0,04
781,015	-0,05
781,449	-0,06
781,883	-0,06
782,317	-0,08
782,751	-0,09
783,185	-0,09
783,619	-0,1
784,053	-0,11
784,487	-0,12
784,921	-0,12
785,355	-0,13
785,789	-0,14
786,223	-0,15
786,656	-0,16
787,09	-0,17
787,524	-0,18
787,957	-0,18
788,391	-0,21
788,825	-0,22
789,258	-0,23
789,692	-0,25
790,125	-0,26
790,559	-0,28
790,992	-0,29
791,426	-0,32
791,859	-0,33
792,293	-0,36
792,726	-0,38
793,159	-0,4
793,593	-0,41
794,026	-0,44
794,459	-0,47
794,892	-0,49
795,326	-0,52
795,759	-0,56
796,192	-0,6
796,625	-0,65
797,058	-0,67
797,491	-0,72
797,924	-0,76
798,357	-0,81
798,79	-0,85
799,223	-0,9
799,656	-0,95
800,089	-1
800,522	-1,04
800,955	-1,09
801,387	-1,14
801,82	-1,2
802,253	-1,26
802,686	-1,34
803,118	-1,4
803,551	-1,45
803,984	-1,5
804,416	-1,54
804,849	-1,59
805,281	-1,75
805,714	-2,15
806,146	-2,52
806,579	-2,76
807,011	-2,9
807,444	-2,99
807,876	-3,07
808,308	-3,1
808,741	-3,12
809,173	-3,18
809,605	-3,2
810,037	-3,27
810,47	-3,17
810,902	-2,97
811,334	-2,82
811,766	-2,65
812,198	-2,39
812,63	-1,99
813,062	-1,81
813,494	-1,72
813,926	-1,63
814,358	-1,58
814,79	-1,5
815,222	-1,44
815,654	-1,39
816,086	-1,32
816,518	-1,27
816,949	-1,21
817,381	-1,17
817,813	-1,15
818,245	-1,11
818,676	-1,07
819,108	-1,04
819,54	-1,03
819,971	-1
820,403	-0,95
820,834	-0,93
821,266	-0,89
821,697	-0,87
822,129	-0,85
822,56	-0,82
822,991	-0,8
823,423	-0,77
823,854	-0,76
824,286	-0,73
824,717	-0,71
825,148	-0,7
825,579	-0,69
826,01	-0,67
826,442	-0,67
826,873	-0,65
827,304	-0,61
827,735	-0,61
828,166	-0,61
828,597	-0,61
829,028	-0,61
829,459	-0,61
829,89	-0,61
830,321	-0,57
830,752	-0,58
831,183	-0,57
831,613	-0,56
832,044	-0,56
832,475	-0,55
832,906	-0,56
833,336	-0,57
833,767	-0,57
834,198	-0,56
834,628	-0,54
835,059	-0,58
835,49	-0,58
835,92	-0,55
836,351	-0,56
836,781	-0,55
837,212	-0,56
837,642	-0,56
838,072	-0,54
838,503	-0,54
838,933	-0,52
839,364	-0,52
839,794	-0,5
840,224	-0,49
840,654	-0,53
841,085	-0,53
841,515	-0,5
841,945	-0,51
842,375	-0,46
842,805	-0,45
843,235	-0,44
843,665	-0,45
844,095	-0,44
844,525	-0,46
844,955	-0,46
845,385	-0,44
845,815	-0,43
846,245	-0,45
846,675	-0,45
847,105	-0,47
847,534	-0,48
847,964	-0,47
848,394	-0,45
848,824	-0,49
849,253	-0,48
849,683	-0,48
850,112	-0,5
850,542	-0,53
850,972	-0,53
851,401	-0,51
851,831	-0,49
852,26	-0,5
852,69	-0,54
853,119	-0,53
853,548	-0,53
853,978	-0,54
854,407	-0,51
854,836	-0,51
855,266	-0,49
855,695	-0,51
856,124	-0,52
856,553	-0,54
856,983	-0,55
857,412	-0,54
857,841	-0,55
858,27	-0,55
858,699	-0,55
859,128	-0,59
859,557	-0,6
859,986	-0,62
860,415	-0,59
860,844	-0,56
861,273	-0,56
861,702	-0,57
862,13	-0,55
862,559	-0,57
862,988	-0,54
863,417	-0,53
863,845	-0,52
864,274	-0,52
864,703	-0,52
865,131	-0,53
865,56	-0,54
865,989	-0,57
866,417	-0,54
866,846	-0,55
867,274	-0,54
867,703	-0,57
868,131	-0,59
868,559	-0,59
868,988	-0,61
869,416	-0,61
869,844	-0,63
870,273	-0,65
870,701	-0,62
871,129	-0,65
871,557	-0,67
871,986	-0,67
872,414	-0,67
872,842	-0,64
873,27	-0,62
873,698	-0,59
874,126	-0,62
874,554	-0,61
874,982	-0,61
875,41	-0,64
875,838	-0,6
876,266	-0,57
876,694	-0,57
877,122	-0,57
877,549	-0,63
877,977	-0,6
878,405	-0,63
878,833	-0,58
879,26	-0,57
879,688	-0,57
880,116	-0,55
880,543	-0,53
880,971	-0,52
881,399	-0,56
881,826	-0,57
882,254	-0,54
882,681	-0,58
883,109	-0,55
883,536	-0,56
883,963	-0,58
884,391	-0,57
884,818	-0,55
885,245	-0,59
885,673	-0,61
886,1	-0,58
886,527	-0,58
886,954	-0,55
887,381	-0,56
887,809	-0,57
888,236	-0,58
888,663	-0,58
889,09	-0,62
889,517	-0,64
889,944	-0,63
890,371	-0,62
890,798	-0,62
891,225	-0,62
891,652	-0,65
892,078	-0,62
892,505	-0,65
892,932	-0,6
893,359	-0,61
893,786	-0,6
894,212	-0,56
894,639	-0,58
895,066	-0,61
895,492	-0,55
895,919	-0,55
896,346	-0,54
896,772	-0,55
897,199	-0,52
897,625	-0,54
898,052	-0,51
898,478	-0,5
898,904	-0,52
899,331	-0,51
899,757	-0,53
900,183	-0,54
900,61	-0,53
901,036	-0,54
901,462	-0,53
901,888	-0,53
902,315	-0,52
902,741	-0,56
903,167	-0,54
903,593	-0,58
904,019	-0,56
904,445	-0,53
904,871	-0,56
905,297	-0,58
905,723	-0,57
906,149	-0,57
906,575	-0,58
907,001	-0,58
907,427	-0,55
907,852	-0,55
908,278	-0,56
908,704	-0,54
909,13	-0,55
909,555	-0,54
909,981	-0,53
910,407	-0,53
910,832	-0,51
911,258	-0,52
911,684	-0,53
912,109	-0,53
912,535	-0,54
912,96	-0,5
913,386	-0,54
913,811	-0,52
914,236	-0,53
914,662	-0,52
915,087	-0,55
915,512	-0,55
915,938	-0,56
916,363	-0,54
916,788	-0,56
917,213	-0,54
917,639	-0,58
918,064	-0,56
918,489	-0,56
918,914	-0,56
919,339	-0,58
919,764	-0,56
920,189	-0,57
920,614	-0,59
921,039	-0,6
921,464	-0,56
921,889	-0,59
922,314	-0,6
922,738	-0,63
923,163	-0,65
923,588	-0,65
924,013	-0,64
924,437	-0,64
924,862	-0,65
925,287	-0,62
925,711	-0,62
926,136	-0,63
926,561	-0,61
926,985	-0,6
927,41	-0,57
927,834	-0,55
928,259	-0,51
928,683	-0,5
929,108	-0,47
929,532	-0,48
929,956	-0,48
930,381	-0,46
930,805	-0,47
931,229	-0,47
931,653	-0,45
932,078	-0,45
932,502	-0,47
932,926	-0,48
933,35	-0,48
933,774	-0,47
934,198	-0,44
934,622	-0,43
935,046	-0,44
935,47	-0,44
935,894	-0,44
936,318	-0,44
936,742	-0,44
937,166	-0,44
937,59	-0,43
938,014	-0,45
938,437	-0,46
938,861	-0,48
939,285	-0,49
939,709	-0,49
940,132	-0,48
940,556	-0,49
940,98	-0,48
941,403	-0,46
941,827	-0,46
942,25	-0,49
942,674	-0,48
943,097	-0,47
943,521	-0,47
943,944	-0,48
944,368	-0,47
944,791	-0,46
945,214	-0,48
945,638	-0,49
946,061	-0,53
946,484	-0,53
946,907	-0,51
947,331	-0,51
947,754	-0,55
948,177	-0,53
948,6	-0,52
949,023	-0,52
949,446	-0,52
949,869	-0,5
950,292	-0,5
950,715	-0,46
951,138	-0,45
951,561	-0,42
951,984	-0,43
952,407	-0,41
952,83	-0,4
953,252	-0,37
953,675	-0,37
954,098	-0,38
954,521	-0,36
954,943	-0,36
955,366	-0,36
955,789	-0,34
956,211	-0,37
956,634	-0,37
957,056	-0,35
957,479	-0,36
957,902	-0,38
958,324	-0,38
958,746	-0,36
959,169	-0,38
959,591	-0,38
960,014	-0,4
960,436	-0,39
960,858	-0,39
961,281	-0,39
961,703	-0,4
962,125	-0,39
962,547	-0,38
962,969	-0,39
963,391	-0,39
963,814	-0,4
964,236	-0,39
964,658	-0,36
965,08	-0,37
965,502	-0,37
965,924	-0,34
966,346	-0,34
966,768	-0,33
967,189	-0,35
967,611	-0,34
968,033	-0,34
968,455	-0,31
968,877	-0,32
969,298	-0,33
969,72	-0,34
970,142	-0,33
970,563	-0,33
970,985	-0,32
971,407	-0,32
971,828	-0,3
972,25	-0,3
972,671	-0,29
973,093	-0,29
973,514	-0,28
973,936	-0,27
974,357	-0,25
974,778	-0,25
975,2	-0,25
975,621	-0,24
976,042	-0,23
976,464	-0,21
976,885	-0,2
977,306	-0,2
977,727	-0,2
978,148	-0,19
978,57	-0,17
978,991	-0,16
979,412	-0,15
979,833	-0,14
980,254	-0,14
980,675	-0,14
981,096	-0,14
981,517	-0,13
981,937	-0,13
982,358	-0,11
982,779	-0,09
983,2	-0,1
983,621	-0,09
984,042	-0,08
984,462	-0,07
984,883	-0,06
985,304	-0,05
985,724	-0,04
986,145	-0,03
986,565	-0,02
986,986	-0,02
987,407	-0,01
987,827	-0
988,248	0,01
988,668	0,02
989,088	0,02
989,509	0,03
989,929	0,04
990,35	0,05
990,77	0,06
991,19	0,07
991,61	0,08
992,031	0,09
992,451	0,09
992,871	0,1
993,291	0,11
993,711	0,11
994,131	0,12
994,551	0,12
994,971	0,12
995,391	0,13
995,811	0,13
996,231	0,13
996,651	0,14
997,071	0,14
997,491	0,15
997,911	0,15
998,331	0,15
998,75	0,16
999,17	0,16
999,59	0,16
1000,009	0,17
1000,429	0,17
1000,849	0,17
1001,268	0,18
1001,688	0,18
1002,107	0,18
1002,527	0,19
1002,946	0,19
1003,366	0,19
1003,785	0,19
1004,205	0,19
1004,624	0,19
1005,044	0,2
1005,463	0,2
1005,882	0,2
1006,301	0,2
1006,721	0,2
1007,14	0,2
1007,559	0,2
1007,978	0,2
1008,397	0,2
1008,816	0,2
1009,235	0,2
1009,655	0,2
1010,074	0,2
1010,492	0,19
1010,911	0,19
1011,33	0,19
1011,749	0,19
1012,168	0,19
1012,587	0,19
1013,006	0,19
1013,425	0,19
1013,843	0,19
1014,262	0,19
1014,681	0,19
1015,099	0,18
1015,518	0,18
1015,937	0,19
1016,355	0,19
1016,774	0,19
1017,192	0,19
1017,611	0,19
1018,029	0,19
1018,448	0,19
1018,866	0,19
1019,285	0,19
1019,703	0,19
1020,121	0,19
1020,54	0,19
1020,958	0,19
1021,376	0,19
1021,794	0,19
1022,213	0,19
1022,631	0,19
1023,049	0,19
1023,467	0,19
1023,885	0,19
1024,303	0,19
1024,721	0,19
1025,139	0,19
1025,557	0,19
1025,975	0,19
1026,393	0,18
1026,811	0,18
1027,229	0,18
1027,647	0,18
1028,065	0,18
1028,482	0,18
1028,9	0,18
1029,318	0,18
1029,735	0,18
1030,153	0,18
1030,571	0,18
1030,988	0,18
1031,406	0,18
1031,823	0,18
1032,241	0,18
1032,659	0,18
1033,076	0,18
1033,493	0,18
1033,911	0,18
1034,328	0,18
1034,746	0,18
1035,163	0,18
1035,58	0,18
1035,997	0,18
1036,415	0,18
1036,832	0,18
1037,249	0,18
1037,666	0,18
1038,083	0,18
1038,501	0,18
1038,918	0,18
1039,335	0,18
1039,752	0,18
1040,169	0,18
1040,586	0,18
1041,003	0,18
1041,419	0,18
1041,836	0,18
1042,253	0,18
1042,67	0,18
1043,087	0,17
1043,504	0,17
1043,92	0,17
1044,337	0,17
1044,754	0,17
1045,17	0,17
1045,587	0,17
1046,004	0,17
1046,42	0,17
1046,837	0,17
1047,253	0,17
1047,67	0,17
1048,086	0,17
1048,503	0,17
1048,919	0,17
1049,335	0,17
1049,752	0,17
1050,168	0,17
1050,584	0,17
1051,001	0,17
1051,417	0,17
1051,833	0,17
1052,249	0,17
1052,665	0,17
1053,081	0,17
1053,497	0,17
1053,914	0,17
1054,33	0,17
1054,746	0,17
1055,162	0,17
1055,578	0,17
1055,993	0,17
1056,409	0,17
1056,825	0,17
1057,241	0,17
1057,657	0,17
1058,073	0,17
1058,488	0,17
1058,904	0,17
1059,32	0,17
1059,736	0,17
1060,151	0,17
1060,567	0,17
1060,982	0,17
1061,398	0,17
1061,813	0,17
1062,229	0,17
1062,644	0,17
1063,06	0,17
1063,475	0,17
1063,891	0,17
1064,306	0,17
1064,721	0,17
1065,137	0,17
1065,552	0,17
1065,967	0,17
1066,382	0,17
1066,798	0,17
1067,213	0,17
1067,628	0,17
1068,043	0,17
1068,458	0,17
1068,873	0,17
1069,288	0,17
1069,703	0,17
1070,118	0,17
1070,533	0,18
1070,948	0,18
1071,363	0,18
1071,778	0,18
1072,193	0,18
1072,607	0,18
1073,022	0,18
1073,437	0,18
1073,852	0,18
1074,266	0,18
1074,681	0,18
1075,096	0,18
1075,51	0,18
1075,925	0,18
1076,339	0,18
1076,754	0,18
1077,168	0,18
1077,583	0,18
1077,997	0,18
1078,412	0,18
1078,826	0,18
1079,24	0,18
1079,655	0,17
1080,069	0,17
1080,483	0,17
1080,897	0,17
1081,312	0,17
1081,726	0,17
1082,14	0,17
1082,554	0,17
1082,968	0,17
1083,382	0,17
1083,796	0,17
1084,21	0,17
1084,624	0,17
1085,038	0,17
1085,452	0,17
1085,866	0,17
1086,28	0,16
1086,694	0,16
1087,108	0,16
1087,521	0,16
1087,935	0,16
1088,349	0,16
1088,763	0,16
1089,176	0,15
1089,59	0,15
1090,004	0,15
1090,417	0,15
1090,831	0,15
1091,244	0,15
1091,658	0,15
1092,071	0,15
1092,485	0,14
1092,898	0,14
1093,312	0,14
1093,725	0,14
1094,138	0,14
1094,552	0,14
1094,965	0,14
1095,378	0,14
1095,791	0,14
1096,205	0,14
1096,618	0,14
1097,031	0,13
1097,444	0,13
1097,857	0,13
1098,27	0,13
1098,683	0,13
1099,096	0,13
1099,509	0,12
1099,922	0,12
1100,335	0,12
1100,748	0,11
1101,161	0,11
1101,574	0,11
1101,986	0,11
1102,399	0,11
1102,812	0,11
1103,225	0,1
1103,637	0,1
1104,05	0,1
1104,463	0,1
1104,875	0,09
1105,288	0,09
1105,7	0,09
1106,113	0,09
1106,525	0,08
1106,938	0,08
1107,35	0,08
1107,763	0,08
1108,175	0,08
1108,588	0,08
1109	0,07
1109,412	0,07
1109,824	0,07
1110,237	0,07
1110,649	0,07
1111,061	0,07
