Data from 18C-808nm-8A_Absorbance__1268__01268.txt Node

Date: Mon Jul 17 17:09:13 CEST 2023
User: Laser008
Spectrometer: MAYP115816
Trigger mode: 0
Integration Time (sec): 2,500000E-1
Scans to average: 10
Electric dark correction enabled: true
Nonlinearity correction enabled: true
Boxcar width: 5
XAxis mode: Wavelengths
Number of Pixels in Spectrum: 2068
>>>>>Begin Spectral Data<<<<<
198,914	-0,71
199,384	-0,48
199,855	-0,37
200,325	-0,29
200,796	-0,24
201,266	-0,2
201,737	-0,19
202,207	-0,18
202,677	-0,17
203,147	-0,16
203,618	-0,14
204,088	-0,13
204,558	-0,11
205,028	-0,1
205,498	-0,1
205,968	-0,11
206,439	-0,12
206,909	-0,11
207,379	-0,12
207,849	-0,12
208,319	-0,13
208,789	-0,13
209,258	-0,12
209,728	-0,14
210,198	-0,14
210,668	-0,15
211,138	-0,14
211,608	-0,15
212,077	-0,15
212,547	-0,14
213,017	-0,14
213,486	-0,14
213,956	-0,14
214,426	-0,15
214,895	-0,15
215,365	-0,16
215,834	-0,16
216,304	-0,17
216,773	-0,16
217,243	-0,18
217,712	-0,19
218,181	-0,19
218,651	-0,19
219,12	-0,19
219,589	-0,2
220,058	-0,19
220,528	-0,19
220,997	-0,2
221,466	-0,21
221,935	-0,22
222,404	-0,21
222,873	-0,21
223,342	-0,2
223,812	-0,2
224,281	-0,2
224,749	-0,2
225,218	-0,22
225,687	-0,21
226,156	-0,2
226,625	-0,19
227,094	-0,19
227,563	-0,19
228,031	-0,2
228,5	-0,21
228,969	-0,21
229,438	-0,21
229,906	-0,2
230,375	-0,18
230,844	-0,17
231,312	-0,18
231,781	-0,18
232,249	-0,17
232,718	-0,17
233,186	-0,15
233,655	-0,16
234,123	-0,15
234,591	-0,15
235,06	-0,15
235,528	-0,17
235,996	-0,17
236,465	-0,16
236,933	-0,16
237,401	-0,16
237,869	-0,15
238,337	-0,15
238,805	-0,15
239,274	-0,15
239,742	-0,15
240,21	-0,14
240,678	-0,13
241,146	-0,12
241,614	-0,12
242,081	-0,12
242,549	-0,12
243,017	-0,12
243,485	-0,13
243,953	-0,13
244,421	-0,13
244,888	-0,13
245,356	-0,13
245,824	-0,13
246,291	-0,13
246,759	-0,14
247,227	-0,15
247,694	-0,14
248,162	-0,14
248,629	-0,13
249,097	-0,13
249,564	-0,14
250,032	-0,14
250,499	-0,14
250,967	-0,14
251,434	-0,15
251,901	-0,14
252,369	-0,14
252,836	-0,15
253,303	-0,16
253,77	-0,17
254,237	-0,17
254,705	-0,17
255,172	-0,16
255,639	-0,17
256,106	-0,18
256,573	-0,19
257,04	-0,18
257,507	-0,19
257,974	-0,19
258,441	-0,18
258,908	-0,19
259,375	-0,21
259,841	-0,2
260,308	-0,2
260,775	-0,2
261,242	-0,19
261,709	-0,2
262,175	-0,21
262,642	-0,2
263,109	-0,2
263,575	-0,2
264,042	-0,18
264,508	-0,17
264,975	-0,2
265,441	-0,2
265,908	-0,2
266,374	-0,2
266,841	-0,2
267,307	-0,2
267,773	-0,2
268,24	-0,2
268,706	-0,2
269,172	-0,21
269,639	-0,22
270,105	-0,2
270,571	-0,21
271,037	-0,2
271,503	-0,21
271,969	-0,2
272,435	-0,2
272,902	-0,22
273,368	-0,23
273,834	-0,22
274,3	-0,22
274,765	-0,22
275,231	-0,22
275,697	-0,22
276,163	-0,21
276,629	-0,22
277,095	-0,23
277,56	-0,21
278,026	-0,22
278,492	-0,2
278,958	-0,2
279,423	-0,21
279,889	-0,2
280,354	-0,21
280,82	-0,21
281,286	-0,22
281,751	-0,22
282,217	-0,22
282,682	-0,23
283,147	-0,23
283,613	-0,23
284,078	-0,24
284,544	-0,25
285,009	-0,25
285,474	-0,25
285,939	-0,26
286,405	-0,25
286,87	-0,24
287,335	-0,22
287,8	-0,22
288,265	-0,2
288,73	-0,22
289,195	-0,24
289,66	-0,23
290,125	-0,21
290,59	-0,22
291,055	-0,22
291,52	-0,22
291,985	-0,23
292,45	-0,24
292,915	-0,24
293,38	-0,24
293,844	-0,22
294,309	-0,2
294,774	-0,2
295,239	-0,21
295,703	-0,21
296,168	-0,2
296,632	-0,19
297,097	-0,18
297,562	-0,17
298,026	-0,18
298,491	-0,18
298,955	-0,18
299,419	-0,18
299,884	-0,17
300,348	-0,16
300,813	-0,15
301,277	-0,17
301,741	-0,17
302,205	-0,16
302,67	-0,15
303,134	-0,14
303,598	-0,14
304,062	-0,12
304,526	-0,12
304,99	-0,14
305,454	-0,14
305,919	-0,14
306,383	-0,14
306,847	-0,14
307,31	-0,15
307,774	-0,16
308,238	-0,16
308,702	-0,16
309,166	-0,18
309,63	-0,18
310,094	-0,15
310,557	-0,15
311,021	-0,15
311,485	-0,15
311,948	-0,14
312,412	-0,13
312,876	-0,13
313,339	-0,13
313,803	-0,13
314,266	-0,13
314,73	-0,13
315,193	-0,13
315,657	-0,12
316,12	-0,12
316,584	-0,1
317,047	-0,1
317,51	-0,1
317,973	-0,1
318,437	-0,08
318,9	-0,08
319,363	-0,07
319,826	-0,07
320,29	-0,07
320,753	-0,08
321,216	-0,08
321,679	-0,08
322,142	-0,08
322,605	-0,09
323,068	-0,08
323,531	-0,08
323,994	-0,08
324,457	-0,08
324,92	-0,06
325,382	-0,06
325,845	-0,06
326,308	-0,05
326,771	-0,05
327,233	-0,04
327,696	-0,04
328,159	-0,04
328,622	-0,02
329,084	-0,02
329,547	-0,01
330,009	-0,02
330,472	-0,01
330,934	-0
331,397	-0
331,859	0
332,322	0,01
332,784	0,01
333,246	0,02
333,709	0,01
334,171	0,01
334,633	0,02
335,096	0,02
335,558	0,02
336,02	0,02
336,482	0,03
336,944	0,03
337,406	0,04
337,868	0,05
338,331	0,04
338,793	0,05
339,255	0,05
339,717	0,05
340,178	0,05
340,64	0,06
341,102	0,06
341,564	0,07
342,026	0,08
342,488	0,09
342,949	0,1
343,411	0,12
343,873	0,15
344,335	0,17
344,796	0,21
345,258	0,24
345,719	0,28
346,181	0,31
346,643	0,34
347,104	0,36
347,566	0,39
348,027	0,41
348,488	0,42
348,95	0,43
349,411	0,45
349,873	0,46
350,334	0,47
350,795	0,48
351,256	0,49
351,718	0,49
352,179	0,49
352,64	0,5
353,101	0,5
353,562	0,5
354,023	0,5
354,484	0,5
354,945	0,5
355,406	0,5
355,867	0,51
356,328	0,51
356,789	0,51
357,25	0,51
357,711	0,51
358,172	0,51
358,633	0,51
359,093	0,52
359,554	0,52
360,015	0,52
360,476	0,52
360,936	0,52
361,397	0,52
361,858	0,52
362,318	0,52
362,779	0,52
363,239	0,52
363,7	0,52
364,16	0,52
364,621	0,52
365,081	0,52
365,541	0,52
366,002	0,52
366,462	0,52
366,922	0,52
367,383	0,52
367,843	0,52
368,303	0,52
368,763	0,52
369,223	0,52
369,684	0,52
370,144	0,52
370,604	0,52
371,064	0,52
371,524	0,52
371,984	0,52
372,444	0,52
372,904	0,52
373,363	0,52
373,823	0,52
374,283	0,52
374,743	0,52
375,203	0,52
375,663	0,52
376,122	0,52
376,582	0,52
377,042	0,52
377,501	0,52
377,961	0,52
378,42	0,52
378,88	0,52
379,34	0,52
379,799	0,51
380,259	0,51
380,718	0,51
381,177	0,51
381,637	0,51
382,096	0,51
382,555	0,51
383,015	0,51
383,474	0,51
383,933	0,51
384,393	0,51
384,852	0,51
385,311	0,51
385,77	0,51
386,229	0,51
386,688	0,51
387,147	0,51
387,606	0,51
388,065	0,51
388,524	0,51
388,983	0,51
389,442	0,51
389,901	0,51
390,36	0,51
390,819	0,51
391,277	0,51
391,736	0,5
392,195	0,5
392,654	0,5
393,112	0,5
393,571	0,5
394,03	0,5
394,488	0,5
394,947	0,5
395,405	0,5
395,864	0,5
396,322	0,5
396,781	0,5
397,239	0,5
397,698	0,5
398,156	0,5
398,614	0,5
399,073	0,5
399,531	0,5
399,989	0,5
400,447	0,5
400,905	0,5
401,364	0,5
401,822	0,5
402,28	0,5
402,738	0,5
403,196	0,5
403,654	0,5
404,112	0,5
404,57	0,5
405,028	0,5
405,486	0,5
405,944	0,5
406,402	0,5
406,859	0,5
407,317	0,5
407,775	0,5
408,233	0,5
408,691	0,5
409,148	0,5
409,606	0,5
410,064	0,5
410,521	0,5
410,979	0,5
411,436	0,5
411,894	0,5
412,351	0,5
412,809	0,5
413,266	0,49
413,724	0,49
414,181	0,49
414,638	0,49
415,096	0,49
415,553	0,49
416,01	0,49
416,467	0,49
416,925	0,49
417,382	0,49
417,839	0,49
418,296	0,49
418,753	0,49
419,21	0,49
419,667	0,49
420,124	0,49
420,581	0,49
421,038	0,49
421,495	0,49
421,952	0,49
422,409	0,49
422,866	0,49
423,322	0,49
423,779	0,49
424,236	0,49
424,693	0,49
425,149	0,49
425,606	0,49
426,063	0,49
426,519	0,49
426,976	0,49
427,433	0,49
427,889	0,49
428,346	0,49
428,802	0,49
429,258	0,49
429,715	0,49
430,171	0,49
430,628	0,49
431,084	0,49
431,54	0,49
431,997	0,49
432,453	0,49
432,909	0,49
433,365	0,49
433,821	0,49
434,277	0,49
434,734	0,49
435,19	0,49
435,646	0,49
436,102	0,49
436,558	0,49
437,014	0,49
437,47	0,49
437,925	0,49
438,381	0,49
438,837	0,49
439,293	0,49
439,749	0,49
440,205	0,49
440,66	0,49
441,116	0,49
441,572	0,49
442,027	0,49
442,483	0,49
442,939	0,49
443,394	0,49
443,85	0,49
444,305	0,49
444,761	0,49
445,216	0,49
445,672	0,49
446,127	0,49
446,582	0,49
447,038	0,49
447,493	0,49
447,948	0,49
448,403	0,49
448,859	0,49
449,314	0,49
449,769	0,49
450,224	0,49
450,679	0,49
451,134	0,49
451,589	0,49
452,044	0,49
452,499	0,49
452,954	0,49
453,409	0,49
453,864	0,49
454,319	0,49
454,774	0,49
455,229	0,49
455,684	0,49
456,138	0,49
456,593	0,49
457,048	0,49
457,503	0,49
457,957	0,49
458,412	0,49
458,866	0,49
459,321	0,49
459,776	0,49
460,23	0,49
460,685	0,49
461,139	0,49
461,593	0,49
462,048	0,49
462,502	0,5
462,957	0,5
463,411	0,5
463,865	0,5
464,319	0,5
464,774	0,5
465,228	0,5
465,682	0,5
466,136	0,5
466,59	0,5
467,044	0,5
467,499	0,5
467,953	0,5
468,407	0,5
468,861	0,5
469,315	0,5
469,768	0,5
470,222	0,5
470,676	0,5
471,13	0,5
471,584	0,51
472,038	0,51
472,491	0,51
472,945	0,51
473,399	0,51
473,852	0,51
474,306	0,51
474,76	0,51
475,213	0,51
475,667	0,51
476,12	0,51
476,574	0,51
477,027	0,51
477,481	0,51
477,934	0,51
478,388	0,52
478,841	0,52
479,294	0,52
479,748	0,52
480,201	0,52
480,654	0,52
481,107	0,52
481,561	0,52
482,014	0,52
482,467	0,53
482,92	0,53
483,373	0,53
483,826	0,53
484,279	0,53
484,732	0,53
485,185	0,53
485,638	0,53
486,091	0,54
486,544	0,54
486,997	0,54
487,449	0,54
487,902	0,54
488,355	0,54
488,808	0,54
489,26	0,55
489,713	0,55
490,166	0,55
490,618	0,55
491,071	0,55
491,523	0,55
491,976	0,56
492,429	0,56
492,881	0,56
493,333	0,56
493,786	0,56
494,238	0,57
494,691	0,57
495,143	0,57
495,595	0,57
496,048	0,58
496,5	0,58
496,952	0,58
497,404	0,58
497,856	0,58
498,309	0,59
498,761	0,59
499,213	0,59
499,665	0,6
500,117	0,6
500,569	0,6
501,021	0,6
501,473	0,61
501,925	0,61
502,377	0,61
502,828	0,61
503,28	0,62
503,732	0,62
504,184	0,62
504,636	0,63
505,087	0,63
505,539	0,63
505,991	0,63
506,442	0,64
506,894	0,64
507,345	0,64
507,797	0,64
508,249	0,65
508,7	0,65
509,151	0,65
509,603	0,66
510,054	0,66
510,506	0,66
510,957	0,66
511,408	0,67
511,86	0,67
512,311	0,67
512,762	0,67
513,213	0,68
513,665	0,68
514,116	0,68
514,567	0,68
515,018	0,69
515,469	0,69
515,92	0,69
516,371	0,69
516,822	0,7
517,273	0,7
517,724	0,7
518,175	0,7
518,626	0,7
519,076	0,7
519,527	0,71
519,978	0,71
520,429	0,71
520,88	0,71
521,33	0,71
521,781	0,71
522,232	0,71
522,682	0,72
523,133	0,72
523,583	0,72
524,034	0,72
524,484	0,72
524,935	0,72
525,385	0,72
525,836	0,72
526,286	0,72
526,736	0,72
527,187	0,72
527,637	0,72
528,087	0,72
528,538	0,72
528,988	0,72
529,438	0,72
529,888	0,72
530,338	0,72
530,788	0,72
531,238	0,72
531,688	0,72
532,139	0,72
532,589	0,72
533,038	0,72
533,488	0,72
533,938	0,71
534,388	0,71
534,838	0,71
535,288	0,71
535,738	0,71
536,187	0,71
536,637	0,7
537,087	0,7
537,537	0,7
537,986	0,7
538,436	0,69
538,885	0,69
539,335	0,69
539,785	0,68
540,234	0,68
540,684	0,68
541,133	0,68
541,582	0,67
542,032	0,67
542,481	0,67
542,931	0,66
543,38	0,66
543,829	0,66
544,278	0,65
544,728	0,65
545,177	0,65
545,626	0,65
546,075	0,64
546,524	0,64
546,973	0,64
547,422	0,64
547,871	0,63
548,32	0,63
548,769	0,63
549,218	0,63
549,667	0,63
550,116	0,63
550,565	0,63
551,014	0,62
551,463	0,62
551,911	0,62
552,36	0,62
552,809	0,61
553,258	0,61
553,706	0,61
554,155	0,61
554,603	0,6
555,052	0,6
555,501	0,6
555,949	0,6
556,398	0,59
556,846	0,59
557,294	0,59
557,743	0,58
558,191	0,58
558,64	0,58
559,088	0,58
559,536	0,57
559,985	0,57
560,433	0,57
560,881	0,56
561,329	0,56
561,777	0,56
562,225	0,56
562,674	0,56
563,122	0,55
563,57	0,55
564,018	0,55
564,466	0,55
564,914	0,54
565,362	0,54
565,809	0,54
566,257	0,54
566,705	0,53
567,153	0,53
567,601	0,53
568,048	0,52
568,496	0,52
568,944	0,52
569,392	0,52
569,839	0,52
570,287	0,51
570,734	0,51
571,182	0,51
571,63	0,51
572,077	0,5
572,525	0,5
572,972	0,5
573,419	0,5
573,867	0,5
574,314	0,49
574,761	0,49
575,209	0,49
575,656	0,49
576,103	0,49
576,551	0,49
576,998	0,48
577,445	0,48
577,892	0,48
578,339	0,48
578,786	0,48
579,233	0,48
579,68	0,47
580,127	0,47
580,574	0,47
581,021	0,47
581,468	0,47
581,915	0,47
582,362	0,46
582,809	0,46
583,255	0,46
583,702	0,46
584,149	0,46
584,596	0,46
585,042	0,45
585,489	0,45
585,936	0,45
586,382	0,45
586,829	0,45
587,275	0,45
587,722	0,45
588,168	0,45
588,615	0,44
589,061	0,44
589,508	0,44
589,954	0,44
590,4	0,44
590,847	0,44
591,293	0,44
591,739	0,44
592,185	0,44
592,632	0,44
593,078	0,43
593,524	0,43
593,97	0,43
594,416	0,43
594,862	0,43
595,308	0,43
595,754	0,43
596,2	0,43
596,646	0,43
597,092	0,43
597,538	0,43
597,984	0,42
598,43	0,42
598,876	0,42
599,321	0,42
599,767	0,42
600,213	0,42
600,659	0,42
601,104	0,42
601,55	0,42
601,995	0,42
602,441	0,42
602,887	0,41
603,332	0,41
603,778	0,41
604,223	0,41
604,668	0,41
605,114	0,41
605,559	0,41
606,005	0,41
606,45	0,41
606,895	0,41
607,341	0,41
607,786	0,41
608,231	0,41
608,676	0,41
609,121	0,4
609,566	0,4
610,012	0,39
610,457	0,39
610,902	0,39
611,347	0,39
611,792	0,38
612,237	0,38
612,682	0,38
613,127	0,38
613,571	0,38
614,016	0,38
614,461	0,39
614,906	0,39
615,351	0,39
615,795	0,39
616,24	0,39
616,685	0,39
617,129	0,39
617,574	0,39
618,019	0,39
618,463	0,39
618,908	0,39
619,352	0,39
619,797	0,39
620,241	0,39
620,686	0,39
621,13	0,39
621,574	0,39
622,019	0,39
622,463	0,39
622,907	0,39
623,352	0,39
623,796	0,38
624,24	0,38
624,684	0,38
625,128	0,38
625,572	0,38
626,016	0,38
626,461	0,38
626,905	0,38
627,349	0,38
627,793	0,38
628,236	0,38
628,68	0,38
629,124	0,38
629,568	0,38
630,012	0,38
630,456	0,38
630,9	0,38
631,343	0,38
631,787	0,38
632,231	0,38
632,674	0,38
633,118	0,38
633,562	0,38
634,005	0,38
634,449	0,38
634,892	0,38
635,336	0,38
635,779	0,38
636,223	0,38
636,666	0,38
637,109	0,38
637,553	0,38
637,996	0,38
638,439	0,38
638,883	0,38
639,326	0,37
639,769	0,37
640,212	0,37
640,655	0,37
641,099	0,37
641,542	0,37
641,985	0,37
642,428	0,37
642,871	0,37
643,314	0,37
643,757	0,37
644,2	0,37
644,643	0,37
645,085	0,37
645,528	0,37
645,971	0,37
646,414	0,37
646,857	0,37
647,299	0,37
647,742	0,37
648,185	0,37
648,627	0,37
649,07	0,37
649,513	0,37
649,955	0,37
650,398	0,37
650,84	0,37
651,283	0,37
651,725	0,37
652,168	0,37
652,61	0,37
653,052	0,37
653,495	0,36
653,937	0,28
654,379	0,23
654,821	0,23
655,264	0,23
655,706	0,23
656,148	0,23
656,59	0,24
657,032	0,24
657,474	0,24
657,916	0,23
658,358	0,23
658,8	0,29
659,242	0,36
659,684	0,36
660,126	0,36
660,568	0,36
661,01	0,36
661,452	0,36
661,894	0,36
662,335	0,36
662,777	0,36
663,219	0,36
663,661	0,36
664,102	0,36
664,544	0,36
664,985	0,36
665,427	0,36
665,869	0,36
666,31	0,36
666,752	0,36
667,193	0,36
667,634	0,36
668,076	0,36
668,517	0,36
668,959	0,36
669,4	0,36
669,841	0,36
670,282	0,36
670,724	0,36
671,165	0,36
671,606	0,36
672,047	0,36
672,488	0,36
672,929	0,36
673,37	0,36
673,811	0,36
674,252	0,36
674,693	0,36
675,134	0,36
675,575	0,36
676,016	0,36
676,457	0,36
676,898	0,35
677,339	0,35
677,78	0,35
678,22	0,35
678,661	0,35
679,102	0,35
679,542	0,35
679,983	0,35
680,424	0,36
680,864	0,35
681,305	0,35
681,745	0,35
682,186	0,35
682,626	0,35
683,067	0,35
683,507	0,35
683,948	0,35
684,388	0,35
684,828	0,35
685,269	0,35
685,709	0,35
686,149	0,35
686,589	0,35
687,029	0,35
687,47	0,35
687,91	0,35
688,35	0,34
688,79	0,34
689,23	0,34
689,67	0,34
690,11	0,34
690,55	0,34
690,99	0,34
691,43	0,34
691,87	0,34
692,31	0,34
692,749	0,34
693,189	0,34
693,629	0,34
694,069	0,34
694,508	0,34
694,948	0,34
695,388	0,34
695,827	0,34
696,267	0,34
696,706	0,34
697,146	0,34
697,586	0,35
698,025	0,35
698,464	0,35
698,904	0,35
699,343	0,35
699,783	0,35
700,222	0,35
700,661	0,35
701,101	0,35
701,54	0,35
701,979	0,35
702,418	0,35
702,857	0,35
703,297	0,35
703,736	0,34
704,175	0,34
704,614	0,34
705,053	0,34
705,492	0,34
705,931	0,34
706,37	0,34
706,809	0,34
707,248	0,34
707,687	0,34
708,125	0,34
708,564	0,34
709,003	0,34
709,442	0,34
709,88	0,34
710,319	0,34
710,758	0,33
711,196	0,33
711,635	0,33
712,074	0,33
712,512	0,33
712,951	0,33
713,389	0,33
713,828	0,33
714,266	0,33
714,705	0,33
715,143	0,33
715,581	0,33
716,02	0,33
716,458	0,33
716,896	0,33
717,334	0,33
717,773	0,33
718,211	0,33
718,649	0,33
719,087	0,33
719,525	0,33
719,963	0,33
720,401	0,33
720,839	0,33
721,277	0,33
721,715	0,33
722,153	0,33
722,591	0,33
723,029	0,33
723,467	0,33
723,905	0,33
724,342	0,33
724,78	0,33
725,218	0,33
725,656	0,33
726,093	0,33
726,531	0,33
726,969	0,33
727,406	0,33
727,844	0,33
728,281	0,33
728,719	0,33
729,156	0,33
729,594	0,33
730,031	0,33
730,469	0,33
730,906	0,32
731,343	0,32
731,781	0,32
732,218	0,32
732,655	0,32
733,092	0,32
733,53	0,32
733,967	0,32
734,404	0,32
734,841	0,32
735,278	0,32
735,715	0,32
736,152	0,32
736,589	0,32
737,026	0,32
737,463	0,32
737,9	0,32
738,337	0,32
738,774	0,32
739,211	0,32
739,647	0,32
740,084	0,32
740,521	0,32
740,958	0,32
741,394	0,31
741,831	0,31
742,268	0,31
742,704	0,31
743,141	0,31
743,577	0,31
744,014	0,31
744,45	0,31
744,887	0,31
745,323	0,3
745,76	0,3
746,196	0,3
746,632	0,3
747,069	0,3
747,505	0,3
747,941	0,3
748,378	0,3
748,814	0,3
749,25	0,3
749,686	0,31
750,122	0,31
750,558	0,31
750,994	0,31
751,43	0,31
751,866	0,31
752,302	0,31
752,738	0,32
753,174	0,32
753,61	0,32
754,046	0,32
754,482	0,32
754,918	0,32
755,354	0,32
755,789	0,32
756,225	0,32
756,661	0,32
757,096	0,31
757,532	0,31
757,968	0,31
758,403	0,31
758,839	0,31
759,274	0,31
759,71	0,3
760,145	0,3
760,581	0,29
761,016	0,29
761,452	0,29
761,887	0,29
762,322	0,28
762,758	0,28
763,193	0,27
763,628	0,27
764,063	0,26
764,499	0,26
764,934	0,25
765,369	0,25
765,804	0,24
766,239	0,24
766,674	0,23
767,109	0,22
767,544	0,22
767,979	0,21
768,414	0,2
768,849	0,19
769,284	0,19
769,719	0,18
770,154	0,17
770,588	0,17
771,023	0,16
771,458	0,15
771,893	0,14
772,327	0,13
772,762	0,12
773,197	0,11
773,631	0,1
774,066	0,1
774,5	0,09
774,935	0,08
775,369	0,07
775,804	0,06
776,238	0,06
776,673	0,05
777,107	0,04
777,541	0,03
777,976	0,03
778,41	0,02
778,844	0,01
779,279	0
779,713	-0,01
780,147	-0,01
780,581	-0,02
781,015	-0,03
781,449	-0,03
781,883	-0,04
782,317	-0,06
782,751	-0,07
783,185	-0,07
783,619	-0,08
784,053	-0,09
784,487	-0,1
784,921	-0,1
785,355	-0,11
785,789	-0,12
786,223	-0,13
786,656	-0,14
787,09	-0,15
787,524	-0,16
787,957	-0,17
788,391	-0,18
788,825	-0,2
789,258	-0,21
789,692	-0,23
790,125	-0,24
790,559	-0,26
790,992	-0,28
791,426	-0,3
791,859	-0,32
792,293	-0,35
792,726	-0,36
793,159	-0,38
793,593	-0,4
794,026	-0,42
794,459	-0,45
794,892	-0,49
795,326	-0,51
795,759	-0,54
796,192	-0,59
796,625	-0,63
797,058	-0,65
797,491	-0,7
797,924	-0,74
798,357	-0,79
798,79	-0,83
799,223	-0,87
799,656	-0,92
800,089	-0,97
800,522	-1,01
800,955	-1,06
801,387	-1,12
801,82	-1,17
802,253	-1,23
802,686	-1,31
803,118	-1,37
803,551	-1,42
803,984	-1,46
804,416	-1,5
804,849	-1,53
805,281	-1,63
805,714	-1,99
806,146	-2,45
806,579	-2,71
807,011	-2,87
807,444	-2,97
807,876	-3,05
808,308	-3,09
808,741	-3,12
809,173	-3,17
809,605	-3,19
810,037	-3,27
810,47	-3,19
810,902	-2,99
811,334	-2,84
811,766	-2,69
812,198	-2,46
812,63	-2,04
813,062	-1,82
813,494	-1,72
813,926	-1,63
814,358	-1,58
814,79	-1,49
815,222	-1,43
815,654	-1,38
816,086	-1,32
816,518	-1,26
816,949	-1,21
817,381	-1,16
817,813	-1,15
818,245	-1,11
818,676	-1,07
819,108	-1,03
819,54	-1,02
819,971	-1
820,403	-0,95
820,834	-0,94
821,266	-0,89
821,697	-0,87
822,129	-0,85
822,56	-0,83
822,991	-0,8
823,423	-0,78
823,854	-0,77
824,286	-0,74
824,717	-0,72
825,148	-0,71
825,579	-0,69
826,01	-0,68
826,442	-0,67
826,873	-0,65
827,304	-0,62
827,735	-0,61
828,166	-0,61
828,597	-0,61
829,028	-0,61
829,459	-0,62
829,89	-0,61
830,321	-0,58
830,752	-0,58
831,183	-0,57
831,613	-0,56
832,044	-0,56
832,475	-0,55
832,906	-0,56
833,336	-0,56
833,767	-0,56
834,198	-0,55
834,628	-0,53
835,059	-0,56
835,49	-0,57
835,92	-0,54
836,351	-0,55
836,781	-0,55
837,212	-0,57
837,642	-0,57
838,072	-0,56
838,503	-0,57
838,933	-0,55
839,364	-0,56
839,794	-0,53
840,224	-0,52
840,654	-0,56
841,085	-0,56
841,515	-0,53
841,945	-0,53
842,375	-0,48
842,805	-0,47
843,235	-0,45
843,665	-0,47
844,095	-0,45
844,525	-0,47
844,955	-0,47
845,385	-0,45
845,815	-0,44
846,245	-0,46
846,675	-0,46
847,105	-0,48
847,534	-0,48
847,964	-0,47
848,394	-0,45
848,824	-0,49
849,253	-0,48
849,683	-0,48
850,112	-0,49
850,542	-0,52
850,972	-0,52
851,401	-0,5
851,831	-0,48
852,26	-0,49
852,69	-0,52
853,119	-0,52
853,548	-0,52
853,978	-0,53
854,407	-0,51
854,836	-0,5
855,266	-0,5
855,695	-0,51
856,124	-0,53
856,553	-0,54
856,983	-0,55
857,412	-0,55
857,841	-0,56
858,27	-0,56
858,699	-0,57
859,128	-0,59
859,557	-0,6
859,986	-0,62
860,415	-0,6
860,844	-0,57
861,273	-0,57
861,702	-0,58
862,13	-0,57
862,559	-0,59
862,988	-0,56
863,417	-0,54
863,845	-0,54
864,274	-0,54
864,703	-0,53
865,131	-0,53
865,56	-0,54
865,989	-0,57
866,417	-0,53
866,846	-0,53
867,274	-0,52
867,703	-0,55
868,131	-0,57
868,559	-0,56
868,988	-0,59
869,416	-0,58
869,844	-0,6
870,273	-0,62
870,701	-0,6
871,129	-0,64
871,557	-0,67
871,986	-0,67
872,414	-0,69
872,842	-0,66
873,27	-0,64
873,698	-0,61
874,126	-0,65
874,554	-0,64
874,982	-0,64
875,41	-0,67
875,838	-0,61
876,266	-0,58
876,694	-0,59
877,122	-0,57
877,549	-0,62
877,977	-0,6
878,405	-0,63
878,833	-0,59
879,26	-0,58
879,688	-0,56
880,116	-0,55
880,543	-0,53
880,971	-0,53
881,399	-0,55
881,826	-0,56
882,254	-0,55
882,681	-0,58
883,109	-0,54
883,536	-0,56
883,963	-0,57
884,391	-0,57
884,818	-0,55
885,245	-0,59
885,673	-0,6
886,1	-0,58
886,527	-0,57
886,954	-0,53
887,381	-0,55
887,809	-0,57
888,236	-0,58
888,663	-0,58
889,09	-0,62
889,517	-0,64
889,944	-0,64
890,371	-0,63
890,798	-0,63
891,225	-0,63
891,652	-0,65
892,078	-0,63
892,505	-0,66
892,932	-0,61
893,359	-0,63
893,786	-0,63
894,212	-0,59
894,639	-0,6
895,066	-0,63
895,492	-0,57
895,919	-0,57
896,346	-0,57
896,772	-0,57
897,199	-0,53
897,625	-0,56
898,052	-0,53
898,478	-0,51
898,904	-0,53
899,331	-0,52
899,757	-0,54
900,183	-0,56
900,61	-0,54
901,036	-0,55
901,462	-0,55
901,888	-0,54
902,315	-0,52
902,741	-0,56
903,167	-0,55
903,593	-0,58
904,019	-0,57
904,445	-0,53
904,871	-0,56
905,297	-0,59
905,723	-0,58
906,149	-0,57
906,575	-0,58
907,001	-0,58
907,427	-0,56
907,852	-0,55
908,278	-0,56
908,704	-0,54
909,13	-0,53
909,555	-0,53
909,981	-0,52
910,407	-0,52
910,832	-0,52
911,258	-0,52
911,684	-0,52
912,109	-0,52
912,535	-0,53
912,96	-0,49
913,386	-0,52
913,811	-0,52
914,236	-0,53
914,662	-0,51
915,087	-0,55
915,512	-0,55
915,938	-0,57
916,363	-0,57
916,788	-0,59
917,213	-0,57
917,639	-0,62
918,064	-0,59
918,489	-0,6
918,914	-0,6
919,339	-0,61
919,764	-0,58
920,189	-0,58
920,614	-0,59
921,039	-0,59
921,464	-0,55
921,889	-0,57
922,314	-0,58
922,738	-0,61
923,163	-0,62
923,588	-0,62
924,013	-0,61
924,437	-0,61
924,862	-0,62
925,287	-0,59
925,711	-0,6
926,136	-0,62
926,561	-0,6
926,985	-0,59
927,41	-0,56
927,834	-0,54
928,259	-0,5
928,683	-0,49
929,108	-0,47
929,532	-0,48
929,956	-0,46
930,381	-0,46
930,805	-0,46
931,229	-0,46
931,653	-0,45
932,078	-0,45
932,502	-0,46
932,926	-0,47
933,35	-0,48
933,774	-0,47
934,198	-0,46
934,622	-0,45
935,046	-0,46
935,47	-0,45
935,894	-0,45
936,318	-0,44
936,742	-0,44
937,166	-0,44
937,59	-0,44
938,014	-0,46
938,437	-0,47
938,861	-0,48
939,285	-0,5
939,709	-0,49
940,132	-0,49
940,556	-0,49
940,98	-0,49
941,403	-0,48
941,827	-0,47
942,25	-0,49
942,674	-0,47
943,097	-0,47
943,521	-0,47
943,944	-0,49
944,368	-0,48
944,791	-0,47
945,214	-0,48
945,638	-0,5
946,061	-0,53
946,484	-0,54
946,907	-0,52
947,331	-0,52
947,754	-0,56
948,177	-0,54
948,6	-0,54
949,023	-0,53
949,446	-0,53
949,869	-0,52
950,292	-0,51
950,715	-0,48
951,138	-0,47
951,561	-0,45
951,984	-0,45
952,407	-0,43
952,83	-0,41
953,252	-0,36
953,675	-0,36
954,098	-0,36
954,521	-0,35
954,943	-0,35
955,366	-0,35
955,789	-0,34
956,211	-0,36
956,634	-0,36
957,056	-0,34
957,479	-0,35
957,902	-0,38
958,324	-0,39
958,746	-0,37
959,169	-0,37
959,591	-0,38
960,014	-0,39
960,436	-0,38
960,858	-0,37
961,281	-0,38
961,703	-0,39
962,125	-0,4
962,547	-0,38
962,969	-0,38
963,391	-0,39
963,814	-0,41
964,236	-0,4
964,658	-0,38
965,08	-0,39
965,502	-0,38
965,924	-0,35
966,346	-0,36
966,768	-0,35
967,189	-0,37
967,611	-0,36
968,033	-0,36
968,455	-0,34
968,877	-0,35
969,298	-0,36
969,72	-0,37
970,142	-0,37
970,563	-0,38
970,985	-0,36
971,407	-0,34
971,828	-0,32
972,25	-0,31
972,671	-0,3
973,093	-0,29
973,514	-0,27
973,936	-0,25
974,357	-0,24
974,778	-0,23
975,2	-0,22
975,621	-0,22
976,042	-0,21
976,464	-0,2
976,885	-0,18
977,306	-0,18
977,727	-0,18
978,148	-0,17
978,57	-0,16
978,991	-0,14
979,412	-0,13
979,833	-0,12
980,254	-0,11
980,675	-0,11
981,096	-0,1
981,517	-0,09
981,937	-0,1
982,358	-0,07
982,779	-0,06
983,2	-0,06
983,621	-0,06
984,042	-0,04
984,462	-0,03
984,883	-0,01
985,304	-0
985,724	0,01
986,145	0,01
986,565	0,03
986,986	0,03
987,407	0,04
987,827	0,05
988,248	0,06
988,668	0,07
989,088	0,08
989,509	0,08
989,929	0,09
990,35	0,1
990,77	0,11
991,19	0,12
991,61	0,13
992,031	0,14
992,451	0,15
992,871	0,15
993,291	0,16
993,711	0,17
994,131	0,17
994,551	0,18
994,971	0,18
995,391	0,19
995,811	0,19
996,231	0,2
996,651	0,2
997,071	0,21
997,491	0,21
997,911	0,22
998,331	0,23
998,75	0,23
999,17	0,23
999,59	0,23
1000,009	0,24
1000,429	0,24
1000,849	0,25
1001,268	0,25
1001,688	0,25
1002,107	0,26
1002,527	0,26
1002,946	0,26
1003,366	0,26
1003,785	0,27
1004,205	0,27
1004,624	0,27
1005,044	0,27
1005,463	0,27
1005,882	0,27
1006,301	0,27
1006,721	0,28
1007,14	0,28
1007,559	0,28
1007,978	0,28
1008,397	0,28
1008,816	0,28
1009,235	0,28
1009,655	0,28
1010,074	0,27
1010,492	0,27
1010,911	0,27
1011,33	0,27
1011,749	0,27
1012,168	0,27
1012,587	0,27
1013,006	0,27
1013,425	0,27
1013,843	0,27
1014,262	0,27
1014,681	0,27
1015,099	0,27
1015,518	0,27
1015,937	0,27
1016,355	0,27
1016,774	0,27
1017,192	0,27
1017,611	0,27
1018,029	0,27
1018,448	0,27
1018,866	0,27
1019,285	0,27
1019,703	0,27
1020,121	0,27
1020,54	0,27
1020,958	0,27
1021,376	0,27
1021,794	0,27
1022,213	0,27
1022,631	0,27
1023,049	0,27
1023,467	0,27
1023,885	0,27
1024,303	0,27
1024,721	0,27
1025,139	0,27
1025,557	0,27
1025,975	0,26
1026,393	0,26
1026,811	0,26
1027,229	0,26
1027,647	0,26
1028,065	0,26
1028,482	0,26
1028,9	0,26
1029,318	0,26
1029,735	0,26
1030,153	0,26
1030,571	0,26
1030,988	0,26
1031,406	0,26
1031,823	0,26
1032,241	0,26
1032,659	0,26
1033,076	0,26
1033,493	0,26
1033,911	0,26
1034,328	0,26
1034,746	0,26
1035,163	0,26
1035,58	0,26
1035,997	0,26
1036,415	0,26
1036,832	0,26
1037,249	0,26
1037,666	0,26
1038,083	0,26
1038,501	0,26
1038,918	0,26
1039,335	0,26
1039,752	0,26
1040,169	0,26
1040,586	0,26
1041,003	0,25
1041,419	0,25
1041,836	0,25
1042,253	0,25
1042,67	0,25
1043,087	0,25
1043,504	0,25
1043,92	0,25
1044,337	0,25
1044,754	0,25
1045,17	0,25
1045,587	0,25
1046,004	0,25
1046,42	0,25
1046,837	0,25
1047,253	0,25
1047,67	0,25
1048,086	0,25
1048,503	0,25
1048,919	0,25
1049,335	0,25
1049,752	0,25
1050,168	0,25
1050,584	0,25
1051,001	0,25
1051,417	0,25
1051,833	0,25
1052,249	0,25
1052,665	0,25
1053,081	0,25
1053,497	0,25
1053,914	0,25
1054,33	0,25
1054,746	0,25
1055,162	0,25
1055,578	0,25
1055,993	0,25
1056,409	0,25
1056,825	0,26
1057,241	0,26
1057,657	0,26
1058,073	0,26
1058,488	0,26
1058,904	0,26
1059,32	0,26
1059,736	0,26
1060,151	0,26
1060,567	0,26
1060,982	0,26
1061,398	0,26
1061,813	0,26
1062,229	0,26
1062,644	0,26
1063,06	0,26
1063,475	0,25
1063,891	0,25
1064,306	0,25
1064,721	0,25
1065,137	0,25
1065,552	0,25
1065,967	0,25
1066,382	0,25
1066,798	0,25
1067,213	0,25
1067,628	0,25
1068,043	0,25
1068,458	0,25
1068,873	0,25
1069,288	0,25
1069,703	0,25
1070,118	0,26
1070,533	0,26
1070,948	0,26
1071,363	0,26
1071,778	0,26
1072,193	0,26
1072,607	0,26
1073,022	0,26
1073,437	0,26
1073,852	0,26
1074,266	0,26
1074,681	0,26
1075,096	0,26
1075,51	0,26
1075,925	0,26
1076,339	0,26
1076,754	0,26
1077,168	0,26
1077,583	0,26
1077,997	0,26
1078,412	0,26
1078,826	0,26
1079,24	0,26
1079,655	0,25
1080,069	0,25
1080,483	0,25
1080,897	0,25
1081,312	0,25
1081,726	0,25
1082,14	0,25
1082,554	0,25
1082,968	0,25
1083,382	0,25
1083,796	0,25
1084,21	0,25
1084,624	0,25
1085,038	0,24
1085,452	0,24
1085,866	0,24
1086,28	0,24
1086,694	0,24
1087,108	0,24
1087,521	0,24
1087,935	0,24
1088,349	0,24
1088,763	0,23
1089,176	0,23
1089,59	0,23
1090,004	0,23
1090,417	0,23
1090,831	0,23
1091,244	0,22
1091,658	0,22
1092,071	0,22
1092,485	0,22
1092,898	0,22
1093,312	0,21
1093,725	0,21
1094,138	0,21
1094,552	0,21
1094,965	0,21
1095,378	0,21
1095,791	0,21
1096,205	0,21
1096,618	0,21
1097,031	0,2
1097,444	0,2
1097,857	0,2
1098,27	0,2
1098,683	0,2
1099,096	0,19
1099,509	0,19
1099,922	0,19
1100,335	0,19
1100,748	0,18
1101,161	0,18
1101,574	0,17
1101,986	0,17
1102,399	0,17
1102,812	0,16
1103,225	0,16
1103,637	0,16
1104,05	0,15
1104,463	0,15
1104,875	0,15
1105,288	0,15
1105,7	0,14
1106,113	0,14
1106,525	0,14
1106,938	0,13
1107,35	0,13
1107,763	0,13
1108,175	0,12
1108,588	0,12
1109	0,12
1109,412	0,12
1109,824	0,11
1110,237	0,11
1110,649	0,12
1111,061	0,11
