Data from 18C-808nm-8A_Absorbance__1184__01184.txt Node

Date: Mon Jul 17 17:05:43 CEST 2023
User: Laser008
Spectrometer: MAYP115816
Trigger mode: 0
Integration Time (sec): 2,500000E-1
Scans to average: 10
Electric dark correction enabled: true
Nonlinearity correction enabled: true
Boxcar width: 5
XAxis mode: Wavelengths
Number of Pixels in Spectrum: 2068
>>>>>Begin Spectral Data<<<<<
198,914	-0,71
199,384	-0,48
199,855	-0,38
200,325	-0,31
200,796	-0,28
201,266	-0,24
201,737	-0,22
202,207	-0,21
202,677	-0,2
203,147	-0,19
203,618	-0,16
204,088	-0,14
204,558	-0,13
205,028	-0,12
205,498	-0,13
205,968	-0,12
206,439	-0,13
206,909	-0,13
207,379	-0,13
207,849	-0,13
208,319	-0,13
208,789	-0,14
209,258	-0,14
209,728	-0,16
210,198	-0,16
210,668	-0,15
211,138	-0,15
211,608	-0,14
212,077	-0,13
212,547	-0,12
213,017	-0,13
213,486	-0,13
213,956	-0,14
214,426	-0,15
214,895	-0,14
215,365	-0,15
215,834	-0,15
216,304	-0,17
216,773	-0,17
217,243	-0,19
217,712	-0,2
218,181	-0,2
218,651	-0,2
219,12	-0,2
219,589	-0,2
220,058	-0,19
220,528	-0,2
220,997	-0,2
221,466	-0,21
221,935	-0,22
222,404	-0,21
222,873	-0,2
223,342	-0,2
223,812	-0,21
224,281	-0,2
224,749	-0,21
225,218	-0,22
225,687	-0,21
226,156	-0,21
226,625	-0,2
227,094	-0,2
227,563	-0,2
228,031	-0,22
228,5	-0,21
228,969	-0,21
229,438	-0,2
229,906	-0,19
230,375	-0,18
230,844	-0,19
231,312	-0,19
231,781	-0,2
232,249	-0,18
232,718	-0,18
233,186	-0,17
233,655	-0,17
234,123	-0,17
234,591	-0,18
235,06	-0,19
235,528	-0,2
235,996	-0,19
236,465	-0,18
236,933	-0,17
237,401	-0,17
237,869	-0,16
238,337	-0,17
238,805	-0,16
239,274	-0,15
239,742	-0,15
240,21	-0,15
240,678	-0,14
241,146	-0,13
241,614	-0,14
242,081	-0,13
242,549	-0,13
243,017	-0,13
243,485	-0,13
243,953	-0,13
244,421	-0,12
244,888	-0,12
245,356	-0,11
245,824	-0,11
246,291	-0,11
246,759	-0,12
247,227	-0,13
247,694	-0,12
248,162	-0,11
248,629	-0,11
249,097	-0,12
249,564	-0,13
250,032	-0,14
250,499	-0,14
250,967	-0,14
251,434	-0,15
251,901	-0,15
252,369	-0,14
252,836	-0,15
253,303	-0,16
253,77	-0,18
254,237	-0,16
254,705	-0,17
255,172	-0,16
255,639	-0,17
256,106	-0,19
256,573	-0,19
257,04	-0,18
257,507	-0,19
257,974	-0,19
258,441	-0,17
258,908	-0,18
259,375	-0,2
259,841	-0,19
260,308	-0,19
260,775	-0,19
261,242	-0,18
261,709	-0,19
262,175	-0,2
262,642	-0,19
263,109	-0,19
263,575	-0,21
264,042	-0,19
264,508	-0,19
264,975	-0,21
265,441	-0,22
265,908	-0,23
266,374	-0,21
266,841	-0,21
267,307	-0,21
267,773	-0,21
268,24	-0,21
268,706	-0,21
269,172	-0,22
269,639	-0,23
270,105	-0,2
270,571	-0,21
271,037	-0,21
271,503	-0,22
271,969	-0,22
272,435	-0,21
272,902	-0,23
273,368	-0,24
273,834	-0,24
274,3	-0,25
274,765	-0,24
275,231	-0,24
275,697	-0,23
276,163	-0,22
276,629	-0,22
277,095	-0,23
277,56	-0,23
278,026	-0,23
278,492	-0,2
278,958	-0,2
279,423	-0,21
279,889	-0,2
280,354	-0,21
280,82	-0,21
281,286	-0,23
281,751	-0,23
282,217	-0,22
282,682	-0,22
283,147	-0,23
283,613	-0,25
284,078	-0,24
284,544	-0,25
285,009	-0,26
285,474	-0,26
285,939	-0,27
286,405	-0,25
286,87	-0,25
287,335	-0,24
287,8	-0,24
288,265	-0,22
288,73	-0,23
289,195	-0,25
289,66	-0,24
290,125	-0,23
290,59	-0,22
291,055	-0,22
291,52	-0,22
291,985	-0,22
292,45	-0,24
292,915	-0,24
293,38	-0,24
293,844	-0,23
294,309	-0,21
294,774	-0,21
295,239	-0,23
295,703	-0,23
296,168	-0,22
296,632	-0,22
297,097	-0,21
297,562	-0,2
298,026	-0,2
298,491	-0,2
298,955	-0,2
299,419	-0,19
299,884	-0,19
300,348	-0,18
300,813	-0,17
301,277	-0,18
301,741	-0,18
302,205	-0,17
302,67	-0,17
303,134	-0,16
303,598	-0,17
304,062	-0,16
304,526	-0,15
304,99	-0,16
305,454	-0,16
305,919	-0,15
306,383	-0,15
306,847	-0,15
307,31	-0,17
307,774	-0,17
308,238	-0,17
308,702	-0,17
309,166	-0,18
309,63	-0,18
310,094	-0,16
310,557	-0,16
311,021	-0,16
311,485	-0,16
311,948	-0,16
312,412	-0,15
312,876	-0,14
313,339	-0,15
313,803	-0,15
314,266	-0,15
314,73	-0,15
315,193	-0,16
315,657	-0,14
316,12	-0,14
316,584	-0,13
317,047	-0,13
317,51	-0,11
317,973	-0,11
318,437	-0,1
318,9	-0,09
319,363	-0,08
319,826	-0,08
320,29	-0,08
320,753	-0,08
321,216	-0,08
321,679	-0,09
322,142	-0,08
322,605	-0,09
323,068	-0,09
323,531	-0,09
323,994	-0,08
324,457	-0,09
324,92	-0,08
325,382	-0,07
325,845	-0,07
326,308	-0,06
326,771	-0,05
327,233	-0,05
327,696	-0,05
328,159	-0,04
328,622	-0,03
329,084	-0,04
329,547	-0,02
330,009	-0,02
330,472	-0,01
330,934	-0,02
331,397	-0,02
331,859	-0,01
332,322	-0,01
332,784	-0,01
333,246	-0
333,709	-0
334,171	0,01
334,633	0,01
335,096	-0
335,558	0
336,02	0,01
336,482	0,01
336,944	0,02
337,406	0,03
337,868	0,03
338,331	0,03
338,793	0,04
339,255	0,04
339,717	0,04
340,178	0,05
340,64	0,05
341,102	0,06
341,564	0,07
342,026	0,08
342,488	0,08
342,949	0,09
343,411	0,11
343,873	0,13
344,335	0,16
344,796	0,18
345,258	0,21
345,719	0,24
346,181	0,27
346,643	0,29
347,104	0,31
347,566	0,33
348,027	0,35
348,488	0,36
348,95	0,37
349,411	0,39
349,873	0,4
350,334	0,41
350,795	0,42
351,256	0,43
351,718	0,43
352,179	0,43
352,64	0,44
353,101	0,44
353,562	0,44
354,023	0,44
354,484	0,44
354,945	0,44
355,406	0,44
355,867	0,44
356,328	0,45
356,789	0,45
357,25	0,45
357,711	0,45
358,172	0,45
358,633	0,45
359,093	0,45
359,554	0,45
360,015	0,45
360,476	0,45
360,936	0,45
361,397	0,45
361,858	0,45
362,318	0,45
362,779	0,45
363,239	0,45
363,7	0,45
364,16	0,46
364,621	0,46
365,081	0,46
365,541	0,46
366,002	0,46
366,462	0,46
366,922	0,45
367,383	0,45
367,843	0,45
368,303	0,45
368,763	0,45
369,223	0,45
369,684	0,45
370,144	0,45
370,604	0,45
371,064	0,45
371,524	0,45
371,984	0,45
372,444	0,45
372,904	0,45
373,363	0,45
373,823	0,45
374,283	0,45
374,743	0,45
375,203	0,45
375,663	0,45
376,122	0,45
376,582	0,45
377,042	0,45
377,501	0,45
377,961	0,45
378,42	0,45
378,88	0,45
379,34	0,45
379,799	0,45
380,259	0,45
380,718	0,45
381,177	0,45
381,637	0,45
382,096	0,45
382,555	0,45
383,015	0,45
383,474	0,45
383,933	0,45
384,393	0,45
384,852	0,45
385,311	0,45
385,77	0,45
386,229	0,44
386,688	0,44
387,147	0,44
387,606	0,44
388,065	0,44
388,524	0,44
388,983	0,44
389,442	0,44
389,901	0,44
390,36	0,44
390,819	0,44
391,277	0,44
391,736	0,44
392,195	0,44
392,654	0,44
393,112	0,44
393,571	0,44
394,03	0,44
394,488	0,44
394,947	0,44
395,405	0,44
395,864	0,44
396,322	0,44
396,781	0,44
397,239	0,44
397,698	0,44
398,156	0,44
398,614	0,44
399,073	0,44
399,531	0,44
399,989	0,44
400,447	0,44
400,905	0,44
401,364	0,44
401,822	0,44
402,28	0,44
402,738	0,44
403,196	0,44
403,654	0,43
404,112	0,43
404,57	0,43
405,028	0,43
405,486	0,43
405,944	0,43
406,402	0,43
406,859	0,43
407,317	0,43
407,775	0,43
408,233	0,43
408,691	0,43
409,148	0,43
409,606	0,43
410,064	0,43
410,521	0,43
410,979	0,43
411,436	0,43
411,894	0,43
412,351	0,43
412,809	0,43
413,266	0,43
413,724	0,43
414,181	0,43
414,638	0,43
415,096	0,43
415,553	0,43
416,01	0,43
416,467	0,43
416,925	0,43
417,382	0,43
417,839	0,43
418,296	0,43
418,753	0,43
419,21	0,43
419,667	0,43
420,124	0,43
420,581	0,43
421,038	0,43
421,495	0,43
421,952	0,43
422,409	0,43
422,866	0,43
423,322	0,43
423,779	0,43
424,236	0,43
424,693	0,43
425,149	0,43
425,606	0,43
426,063	0,43
426,519	0,43
426,976	0,43
427,433	0,43
427,889	0,43
428,346	0,43
428,802	0,43
429,258	0,43
429,715	0,43
430,171	0,43
430,628	0,43
431,084	0,43
431,54	0,43
431,997	0,43
432,453	0,43
432,909	0,42
433,365	0,42
433,821	0,42
434,277	0,42
434,734	0,42
435,19	0,42
435,646	0,42
436,102	0,42
436,558	0,42
437,014	0,42
437,47	0,42
437,925	0,42
438,381	0,42
438,837	0,42
439,293	0,42
439,749	0,42
440,205	0,42
440,66	0,42
441,116	0,42
441,572	0,42
442,027	0,42
442,483	0,42
442,939	0,42
443,394	0,42
443,85	0,42
444,305	0,42
444,761	0,42
445,216	0,42
445,672	0,42
446,127	0,42
446,582	0,42
447,038	0,42
447,493	0,42
447,948	0,42
448,403	0,42
448,859	0,42
449,314	0,42
449,769	0,42
450,224	0,42
450,679	0,42
451,134	0,42
451,589	0,42
452,044	0,42
452,499	0,42
452,954	0,42
453,409	0,42
453,864	0,42
454,319	0,43
454,774	0,43
455,229	0,43
455,684	0,43
456,138	0,43
456,593	0,43
457,048	0,43
457,503	0,42
457,957	0,42
458,412	0,43
458,866	0,43
459,321	0,43
459,776	0,43
460,23	0,43
460,685	0,43
461,139	0,43
461,593	0,43
462,048	0,43
462,502	0,43
462,957	0,43
463,411	0,43
463,865	0,43
464,319	0,43
464,774	0,43
465,228	0,43
465,682	0,43
466,136	0,43
466,59	0,43
467,044	0,43
467,499	0,43
467,953	0,43
468,407	0,43
468,861	0,44
469,315	0,44
469,768	0,44
470,222	0,44
470,676	0,44
471,13	0,44
471,584	0,44
472,038	0,44
472,491	0,44
472,945	0,44
473,399	0,44
473,852	0,44
474,306	0,44
474,76	0,44
475,213	0,44
475,667	0,44
476,12	0,44
476,574	0,44
477,027	0,44
477,481	0,44
477,934	0,45
478,388	0,45
478,841	0,45
479,294	0,45
479,748	0,45
480,201	0,45
480,654	0,45
481,107	0,45
481,561	0,45
482,014	0,45
482,467	0,46
482,92	0,46
483,373	0,46
483,826	0,46
484,279	0,46
484,732	0,46
485,185	0,46
485,638	0,46
486,091	0,46
486,544	0,46
486,997	0,47
487,449	0,47
487,902	0,47
488,355	0,47
488,808	0,47
489,26	0,47
489,713	0,47
490,166	0,48
490,618	0,48
491,071	0,48
491,523	0,48
491,976	0,48
492,429	0,49
492,881	0,49
493,333	0,49
493,786	0,49
494,238	0,49
494,691	0,49
495,143	0,5
495,595	0,5
496,048	0,5
496,5	0,5
496,952	0,5
497,404	0,51
497,856	0,51
498,309	0,51
498,761	0,51
499,213	0,52
499,665	0,52
500,117	0,52
500,569	0,52
501,021	0,53
501,473	0,53
501,925	0,53
502,377	0,53
502,828	0,54
503,28	0,54
503,732	0,54
504,184	0,54
504,636	0,55
505,087	0,55
505,539	0,55
505,991	0,55
506,442	0,56
506,894	0,56
507,345	0,56
507,797	0,56
508,249	0,57
508,7	0,57
509,151	0,57
509,603	0,57
510,054	0,58
510,506	0,58
510,957	0,58
511,408	0,58
511,86	0,58
512,311	0,59
512,762	0,59
513,213	0,59
513,665	0,59
514,116	0,6
514,567	0,6
515,018	0,6
515,469	0,6
515,92	0,6
516,371	0,61
516,822	0,61
517,273	0,61
517,724	0,61
518,175	0,61
518,626	0,62
519,076	0,62
519,527	0,62
519,978	0,62
520,429	0,62
520,88	0,62
521,33	0,62
521,781	0,63
522,232	0,63
522,682	0,63
523,133	0,63
523,583	0,63
524,034	0,63
524,484	0,63
524,935	0,63
525,385	0,63
525,836	0,64
526,286	0,64
526,736	0,64
527,187	0,64
527,637	0,64
528,087	0,63
528,538	0,63
528,988	0,63
529,438	0,63
529,888	0,63
530,338	0,63
530,788	0,63
531,238	0,63
531,688	0,63
532,139	0,63
532,589	0,63
533,038	0,63
533,488	0,63
533,938	0,63
534,388	0,63
534,838	0,63
535,288	0,63
535,738	0,62
536,187	0,62
536,637	0,62
537,087	0,62
537,537	0,62
537,986	0,61
538,436	0,61
538,885	0,61
539,335	0,61
539,785	0,6
540,234	0,6
540,684	0,6
541,133	0,6
541,582	0,59
542,032	0,59
542,481	0,59
542,931	0,59
543,38	0,58
543,829	0,58
544,278	0,58
544,728	0,57
545,177	0,57
545,626	0,57
546,075	0,57
546,524	0,56
546,973	0,56
547,422	0,56
547,871	0,56
548,32	0,56
548,769	0,56
549,218	0,56
549,667	0,55
550,116	0,55
550,565	0,55
551,014	0,55
551,463	0,55
551,911	0,55
552,36	0,54
552,809	0,54
553,258	0,54
553,706	0,54
554,155	0,53
554,603	0,53
555,052	0,53
555,501	0,53
555,949	0,53
556,398	0,52
556,846	0,52
557,294	0,52
557,743	0,52
558,191	0,51
558,64	0,51
559,088	0,51
559,536	0,5
559,985	0,5
560,433	0,5
560,881	0,5
561,329	0,5
561,777	0,49
562,225	0,49
562,674	0,49
563,122	0,49
563,57	0,49
564,018	0,48
564,466	0,48
564,914	0,48
565,362	0,48
565,809	0,47
566,257	0,47
566,705	0,47
567,153	0,47
567,601	0,46
568,048	0,46
568,496	0,46
568,944	0,46
569,392	0,46
569,839	0,45
570,287	0,45
570,734	0,45
571,182	0,45
571,63	0,45
572,077	0,44
572,525	0,44
572,972	0,44
573,419	0,44
573,867	0,44
574,314	0,43
574,761	0,43
575,209	0,43
575,656	0,43
576,103	0,43
576,551	0,43
576,998	0,43
577,445	0,43
577,892	0,42
578,339	0,42
578,786	0,42
579,233	0,42
579,68	0,42
580,127	0,42
580,574	0,42
581,021	0,41
581,468	0,41
581,915	0,41
582,362	0,41
582,809	0,41
583,255	0,41
583,702	0,41
584,149	0,4
584,596	0,4
585,042	0,4
585,489	0,4
585,936	0,4
586,382	0,4
586,829	0,4
587,275	0,4
587,722	0,39
588,168	0,39
588,615	0,39
589,061	0,39
589,508	0,39
589,954	0,39
590,4	0,39
590,847	0,39
591,293	0,39
591,739	0,39
592,185	0,39
592,632	0,38
593,078	0,38
593,524	0,38
593,97	0,38
594,416	0,38
594,862	0,38
595,308	0,38
595,754	0,38
596,2	0,38
596,646	0,38
597,092	0,38
597,538	0,38
597,984	0,37
598,43	0,37
598,876	0,37
599,321	0,37
599,767	0,37
600,213	0,37
600,659	0,37
601,104	0,37
601,55	0,37
601,995	0,37
602,441	0,37
602,887	0,37
603,332	0,36
603,778	0,36
604,223	0,36
604,668	0,36
605,114	0,36
605,559	0,36
606,005	0,36
606,45	0,36
606,895	0,36
607,341	0,36
607,786	0,36
608,231	0,36
608,676	0,36
609,121	0,35
609,566	0,35
610,012	0,35
610,457	0,34
610,902	0,34
611,347	0,34
611,792	0,34
612,237	0,34
612,682	0,34
613,127	0,34
613,571	0,34
614,016	0,34
614,461	0,34
614,906	0,34
615,351	0,34
615,795	0,34
616,24	0,34
616,685	0,34
617,129	0,34
617,574	0,35
618,019	0,35
618,463	0,35
618,908	0,35
619,352	0,35
619,797	0,35
620,241	0,34
620,686	0,34
621,13	0,34
621,574	0,34
622,019	0,34
622,463	0,34
622,907	0,34
623,352	0,34
623,796	0,34
624,24	0,34
624,684	0,34
625,128	0,34
625,572	0,34
626,016	0,34
626,461	0,34
626,905	0,34
627,349	0,34
627,793	0,34
628,236	0,34
628,68	0,34
629,124	0,34
629,568	0,34
630,012	0,34
630,456	0,34
630,9	0,34
631,343	0,34
631,787	0,34
632,231	0,34
632,674	0,34
633,118	0,34
633,562	0,34
634,005	0,34
634,449	0,33
634,892	0,33
635,336	0,33
635,779	0,33
636,223	0,33
636,666	0,33
637,109	0,33
637,553	0,33
637,996	0,33
638,439	0,33
638,883	0,33
639,326	0,33
639,769	0,33
640,212	0,33
640,655	0,33
641,099	0,33
641,542	0,33
641,985	0,33
642,428	0,33
642,871	0,33
643,314	0,33
643,757	0,33
644,2	0,33
644,643	0,33
645,085	0,33
645,528	0,33
645,971	0,33
646,414	0,33
646,857	0,33
647,299	0,33
647,742	0,32
648,185	0,32
648,627	0,32
649,07	0,32
649,513	0,32
649,955	0,32
650,398	0,32
650,84	0,32
651,283	0,32
651,725	0,32
652,168	0,32
652,61	0,32
653,052	0,32
653,495	0,32
653,937	0,25
654,379	0,2
654,821	0,21
655,264	0,21
655,706	0,21
656,148	0,21
656,59	0,21
657,032	0,21
657,474	0,21
657,916	0,21
658,358	0,2
658,8	0,25
659,242	0,32
659,684	0,32
660,126	0,32
660,568	0,32
661,01	0,32
661,452	0,32
661,894	0,32
662,335	0,32
662,777	0,32
663,219	0,32
663,661	0,32
664,102	0,32
664,544	0,32
664,985	0,32
665,427	0,32
665,869	0,32
666,31	0,32
666,752	0,32
667,193	0,32
667,634	0,32
668,076	0,32
668,517	0,32
668,959	0,32
669,4	0,32
669,841	0,32
670,282	0,32
670,724	0,32
671,165	0,32
671,606	0,32
672,047	0,32
672,488	0,32
672,929	0,32
673,37	0,32
673,811	0,31
674,252	0,31
674,693	0,31
675,134	0,31
675,575	0,31
676,016	0,31
676,457	0,31
676,898	0,31
677,339	0,31
677,78	0,31
678,22	0,31
678,661	0,31
679,102	0,31
679,542	0,31
679,983	0,31
680,424	0,31
680,864	0,31
681,305	0,31
681,745	0,31
682,186	0,31
682,626	0,31
683,067	0,31
683,507	0,31
683,948	0,31
684,388	0,31
684,828	0,31
685,269	0,31
685,709	0,31
686,149	0,31
686,589	0,31
687,029	0,31
687,47	0,3
687,91	0,3
688,35	0,3
688,79	0,3
689,23	0,3
689,67	0,3
690,11	0,3
690,55	0,3
690,99	0,3
691,43	0,3
691,87	0,3
692,31	0,3
692,749	0,3
693,189	0,3
693,629	0,3
694,069	0,3
694,508	0,3
694,948	0,3
695,388	0,3
695,827	0,3
696,267	0,3
696,706	0,3
697,146	0,3
697,586	0,3
698,025	0,3
698,464	0,31
698,904	0,31
699,343	0,31
699,783	0,31
700,222	0,31
700,661	0,31
701,101	0,3
701,54	0,3
701,979	0,3
702,418	0,3
702,857	0,3
703,297	0,3
703,736	0,3
704,175	0,3
704,614	0,3
705,053	0,3
705,492	0,3
705,931	0,3
706,37	0,3
706,809	0,3
707,248	0,3
707,687	0,29
708,125	0,29
708,564	0,29
709,003	0,29
709,442	0,29
709,88	0,29
710,319	0,29
710,758	0,29
711,196	0,29
711,635	0,29
712,074	0,29
712,512	0,29
712,951	0,29
713,389	0,29
713,828	0,29
714,266	0,29
714,705	0,29
715,143	0,29
715,581	0,29
716,02	0,29
716,458	0,29
716,896	0,29
717,334	0,29
717,773	0,28
718,211	0,28
718,649	0,28
719,087	0,29
719,525	0,29
719,963	0,29
720,401	0,29
720,839	0,29
721,277	0,29
721,715	0,29
722,153	0,29
722,591	0,29
723,029	0,29
723,467	0,29
723,905	0,29
724,342	0,29
724,78	0,29
725,218	0,29
725,656	0,29
726,093	0,29
726,531	0,29
726,969	0,29
727,406	0,29
727,844	0,29
728,281	0,29
728,719	0,29
729,156	0,29
729,594	0,29
730,031	0,28
730,469	0,28
730,906	0,28
731,343	0,28
731,781	0,28
732,218	0,28
732,655	0,28
733,092	0,28
733,53	0,28
733,967	0,28
734,404	0,28
734,841	0,28
735,278	0,28
735,715	0,28
736,152	0,28
736,589	0,28
737,026	0,28
737,463	0,28
737,9	0,28
738,337	0,28
738,774	0,28
739,211	0,28
739,647	0,28
740,084	0,27
740,521	0,27
740,958	0,27
741,394	0,27
741,831	0,27
742,268	0,27
742,704	0,27
743,141	0,27
743,577	0,27
744,014	0,27
744,45	0,27
744,887	0,26
745,323	0,26
745,76	0,26
746,196	0,26
746,632	0,26
747,069	0,26
747,505	0,26
747,941	0,26
748,378	0,26
748,814	0,26
749,25	0,26
749,686	0,26
750,122	0,27
750,558	0,27
750,994	0,27
751,43	0,27
751,866	0,27
752,302	0,27
752,738	0,27
753,174	0,27
753,61	0,28
754,046	0,28
754,482	0,28
754,918	0,28
755,354	0,28
755,789	0,28
756,225	0,28
756,661	0,28
757,096	0,27
757,532	0,27
757,968	0,27
758,403	0,27
758,839	0,27
759,274	0,27
759,71	0,26
760,145	0,26
760,581	0,26
761,016	0,25
761,452	0,25
761,887	0,25
762,322	0,24
762,758	0,24
763,193	0,24
763,628	0,23
764,063	0,23
764,499	0,22
764,934	0,22
765,369	0,21
765,804	0,21
766,239	0,2
766,674	0,2
767,109	0,19
767,544	0,19
767,979	0,18
768,414	0,17
768,849	0,16
769,284	0,16
769,719	0,15
770,154	0,14
770,588	0,14
771,023	0,13
771,458	0,12
771,893	0,1
772,327	0,1
772,762	0,09
773,197	0,08
773,631	0,07
774,066	0,07
774,5	0,06
774,935	0,05
775,369	0,05
775,804	0,04
776,238	0,04
776,673	0,03
777,107	0,03
777,541	0,02
777,976	0,01
778,41	0,01
778,844	-0
779,279	-0
779,713	-0,01
780,147	-0,02
780,581	-0,03
781,015	-0,04
781,449	-0,05
781,883	-0,06
782,317	-0,08
782,751	-0,09
783,185	-0,09
783,619	-0,1
784,053	-0,11
784,487	-0,12
784,921	-0,12
785,355	-0,13
785,789	-0,14
786,223	-0,14
786,656	-0,15
787,09	-0,16
787,524	-0,16
787,957	-0,18
788,391	-0,2
788,825	-0,21
789,258	-0,22
789,692	-0,23
790,125	-0,25
790,559	-0,26
790,992	-0,28
791,426	-0,31
791,859	-0,32
792,293	-0,36
792,726	-0,37
793,159	-0,39
793,593	-0,41
794,026	-0,43
794,459	-0,46
794,892	-0,49
795,326	-0,51
795,759	-0,55
796,192	-0,59
796,625	-0,64
797,058	-0,66
797,491	-0,7
797,924	-0,74
798,357	-0,79
798,79	-0,84
799,223	-0,88
799,656	-0,93
800,089	-0,98
800,522	-1,02
800,955	-1,07
801,387	-1,12
801,82	-1,18
802,253	-1,24
802,686	-1,32
803,118	-1,37
803,551	-1,43
803,984	-1,47
804,416	-1,51
804,849	-1,55
805,281	-1,69
805,714	-2,05
806,146	-2,48
806,579	-2,73
807,011	-2,88
807,444	-2,97
807,876	-3,06
808,308	-3,1
808,741	-3,12
809,173	-3,18
809,605	-3,2
810,037	-3,27
810,47	-3,19
810,902	-2,99
811,334	-2,84
811,766	-2,69
812,198	-2,45
812,63	-2,03
813,062	-1,82
813,494	-1,72
813,926	-1,63
814,358	-1,58
814,79	-1,49
815,222	-1,43
815,654	-1,38
816,086	-1,32
816,518	-1,26
816,949	-1,21
817,381	-1,17
817,813	-1,15
818,245	-1,11
818,676	-1,07
819,108	-1,04
819,54	-1,02
819,971	-0,99
820,403	-0,94
820,834	-0,93
821,266	-0,89
821,697	-0,86
822,129	-0,85
822,56	-0,82
822,991	-0,8
823,423	-0,77
823,854	-0,76
824,286	-0,73
824,717	-0,72
825,148	-0,7
825,579	-0,69
826,01	-0,68
826,442	-0,67
826,873	-0,65
827,304	-0,62
827,735	-0,61
828,166	-0,62
828,597	-0,61
829,028	-0,61
829,459	-0,62
829,89	-0,62
830,321	-0,57
830,752	-0,58
831,183	-0,57
831,613	-0,56
832,044	-0,56
832,475	-0,55
832,906	-0,56
833,336	-0,56
833,767	-0,56
834,198	-0,54
834,628	-0,52
835,059	-0,55
835,49	-0,55
835,92	-0,53
836,351	-0,52
836,781	-0,52
837,212	-0,53
837,642	-0,53
838,072	-0,52
838,503	-0,53
838,933	-0,51
839,364	-0,53
839,794	-0,5
840,224	-0,5
840,654	-0,54
841,085	-0,55
841,515	-0,53
841,945	-0,53
842,375	-0,48
842,805	-0,48
843,235	-0,47
843,665	-0,48
844,095	-0,46
844,525	-0,49
844,955	-0,49
845,385	-0,46
845,815	-0,44
846,245	-0,46
846,675	-0,47
847,105	-0,49
847,534	-0,49
847,964	-0,47
848,394	-0,47
848,824	-0,5
849,253	-0,49
849,683	-0,5
850,112	-0,51
850,542	-0,54
850,972	-0,55
851,401	-0,53
851,831	-0,51
852,26	-0,51
852,69	-0,56
853,119	-0,54
853,548	-0,54
853,978	-0,54
854,407	-0,52
854,836	-0,52
855,266	-0,5
855,695	-0,52
856,124	-0,53
856,553	-0,53
856,983	-0,55
857,412	-0,54
857,841	-0,55
858,27	-0,56
858,699	-0,57
859,128	-0,6
859,557	-0,61
859,986	-0,63
860,415	-0,6
860,844	-0,56
861,273	-0,57
861,702	-0,58
862,13	-0,56
862,559	-0,58
862,988	-0,55
863,417	-0,54
863,845	-0,54
864,274	-0,54
864,703	-0,53
865,131	-0,54
865,56	-0,55
865,989	-0,58
866,417	-0,55
866,846	-0,55
867,274	-0,55
867,703	-0,57
868,131	-0,57
868,559	-0,58
868,988	-0,6
869,416	-0,6
869,844	-0,61
870,273	-0,63
870,701	-0,6
871,129	-0,63
871,557	-0,66
871,986	-0,66
872,414	-0,67
872,842	-0,64
873,27	-0,61
873,698	-0,58
874,126	-0,62
874,554	-0,6
874,982	-0,6
875,41	-0,63
875,838	-0,58
876,266	-0,56
876,694	-0,56
877,122	-0,55
877,549	-0,61
877,977	-0,59
878,405	-0,61
878,833	-0,58
879,26	-0,57
879,688	-0,58
880,116	-0,55
880,543	-0,54
880,971	-0,53
881,399	-0,56
881,826	-0,56
882,254	-0,55
882,681	-0,57
883,109	-0,54
883,536	-0,55
883,963	-0,55
884,391	-0,54
884,818	-0,53
885,245	-0,56
885,673	-0,58
886,1	-0,55
886,527	-0,56
886,954	-0,52
887,381	-0,55
887,809	-0,56
888,236	-0,57
888,663	-0,58
889,09	-0,62
889,517	-0,64
889,944	-0,62
890,371	-0,61
890,798	-0,62
891,225	-0,62
891,652	-0,64
892,078	-0,61
892,505	-0,64
892,932	-0,59
893,359	-0,6
893,786	-0,6
894,212	-0,56
894,639	-0,59
895,066	-0,61
895,492	-0,56
895,919	-0,56
896,346	-0,56
896,772	-0,57
897,199	-0,54
897,625	-0,57
898,052	-0,54
898,478	-0,53
898,904	-0,55
899,331	-0,54
899,757	-0,56
900,183	-0,57
900,61	-0,55
901,036	-0,56
901,462	-0,56
901,888	-0,56
902,315	-0,54
902,741	-0,58
903,167	-0,55
903,593	-0,58
904,019	-0,56
904,445	-0,54
904,871	-0,57
905,297	-0,58
905,723	-0,58
906,149	-0,57
906,575	-0,57
907,001	-0,58
907,427	-0,54
907,852	-0,55
908,278	-0,55
908,704	-0,53
909,13	-0,52
909,555	-0,51
909,981	-0,5
910,407	-0,51
910,832	-0,5
911,258	-0,51
911,684	-0,52
912,109	-0,52
912,535	-0,54
912,96	-0,5
913,386	-0,55
913,811	-0,54
914,236	-0,56
914,662	-0,53
915,087	-0,56
915,512	-0,57
915,938	-0,58
916,363	-0,57
916,788	-0,59
917,213	-0,57
917,639	-0,62
918,064	-0,58
918,489	-0,58
918,914	-0,59
919,339	-0,61
919,764	-0,58
920,189	-0,58
920,614	-0,6
921,039	-0,61
921,464	-0,57
921,889	-0,6
922,314	-0,6
922,738	-0,63
923,163	-0,64
923,588	-0,63
924,013	-0,62
924,437	-0,63
924,862	-0,64
925,287	-0,6
925,711	-0,61
926,136	-0,62
926,561	-0,6
926,985	-0,6
927,41	-0,57
927,834	-0,56
928,259	-0,53
928,683	-0,52
929,108	-0,48
929,532	-0,5
929,956	-0,5
930,381	-0,49
930,805	-0,49
931,229	-0,48
931,653	-0,47
932,078	-0,47
932,502	-0,47
932,926	-0,48
933,35	-0,48
933,774	-0,47
934,198	-0,45
934,622	-0,43
935,046	-0,44
935,47	-0,44
935,894	-0,44
936,318	-0,44
936,742	-0,44
937,166	-0,44
937,59	-0,44
938,014	-0,47
938,437	-0,47
938,861	-0,49
939,285	-0,5
939,709	-0,5
940,132	-0,5
940,556	-0,51
940,98	-0,5
941,403	-0,49
941,827	-0,49
942,25	-0,51
942,674	-0,49
943,097	-0,49
943,521	-0,48
943,944	-0,49
944,368	-0,47
944,791	-0,46
945,214	-0,48
945,638	-0,49
946,061	-0,51
946,484	-0,52
946,907	-0,5
947,331	-0,5
947,754	-0,55
948,177	-0,53
948,6	-0,52
949,023	-0,52
949,446	-0,52
949,869	-0,49
950,292	-0,5
950,715	-0,46
951,138	-0,45
951,561	-0,43
951,984	-0,43
952,407	-0,41
952,83	-0,4
953,252	-0,37
953,675	-0,37
954,098	-0,38
954,521	-0,37
954,943	-0,36
955,366	-0,38
955,789	-0,36
956,211	-0,38
956,634	-0,38
957,056	-0,36
957,479	-0,37
957,902	-0,39
958,324	-0,38
958,746	-0,36
959,169	-0,38
959,591	-0,37
960,014	-0,38
960,436	-0,37
960,858	-0,36
961,281	-0,37
961,703	-0,38
962,125	-0,39
962,547	-0,37
962,969	-0,38
963,391	-0,39
963,814	-0,4
964,236	-0,39
964,658	-0,36
965,08	-0,37
965,502	-0,36
965,924	-0,34
966,346	-0,34
966,768	-0,32
967,189	-0,35
967,611	-0,34
968,033	-0,33
968,455	-0,32
968,877	-0,33
969,298	-0,34
969,72	-0,35
970,142	-0,34
970,563	-0,35
970,985	-0,33
971,407	-0,33
971,828	-0,3
972,25	-0,29
972,671	-0,28
973,093	-0,28
973,514	-0,27
973,936	-0,25
974,357	-0,24
974,778	-0,24
975,2	-0,24
975,621	-0,24
976,042	-0,22
976,464	-0,21
976,885	-0,2
977,306	-0,19
977,727	-0,19
978,148	-0,18
978,57	-0,17
978,991	-0,15
979,412	-0,14
979,833	-0,12
980,254	-0,12
980,675	-0,13
981,096	-0,12
981,517	-0,1
981,937	-0,1
982,358	-0,08
982,779	-0,07
983,2	-0,07
983,621	-0,07
984,042	-0,05
984,462	-0,05
984,883	-0,04
985,304	-0,03
985,724	-0,02
986,145	-0,02
986,565	-0
986,986	0
987,407	0,01
987,827	0,02
988,248	0,03
988,668	0,04
989,088	0,05
989,509	0,06
989,929	0,07
990,35	0,08
990,77	0,09
991,19	0,1
991,61	0,1
992,031	0,11
992,451	0,12
992,871	0,12
993,291	0,13
993,711	0,13
994,131	0,14
994,551	0,14
994,971	0,15
995,391	0,15
995,811	0,15
996,231	0,16
996,651	0,16
997,071	0,17
997,491	0,17
997,911	0,18
998,331	0,18
998,75	0,19
999,17	0,19
999,59	0,19
1000,009	0,2
1000,429	0,2
1000,849	0,2
1001,268	0,21
1001,688	0,21
1002,107	0,21
1002,527	0,21
1002,946	0,22
1003,366	0,22
1003,785	0,22
1004,205	0,22
1004,624	0,22
1005,044	0,23
1005,463	0,23
1005,882	0,23
1006,301	0,23
1006,721	0,23
1007,14	0,23
1007,559	0,23
1007,978	0,23
1008,397	0,23
1008,816	0,23
1009,235	0,23
1009,655	0,23
1010,074	0,23
1010,492	0,23
1010,911	0,23
1011,33	0,22
1011,749	0,22
1012,168	0,22
1012,587	0,22
1013,006	0,22
1013,425	0,22
1013,843	0,22
1014,262	0,22
1014,681	0,22
1015,099	0,22
1015,518	0,22
1015,937	0,22
1016,355	0,22
1016,774	0,22
1017,192	0,22
1017,611	0,22
1018,029	0,22
1018,448	0,22
1018,866	0,22
1019,285	0,22
1019,703	0,22
1020,121	0,22
1020,54	0,22
1020,958	0,22
1021,376	0,22
1021,794	0,22
1022,213	0,22
1022,631	0,22
1023,049	0,22
1023,467	0,22
1023,885	0,22
1024,303	0,22
1024,721	0,22
1025,139	0,22
1025,557	0,22
1025,975	0,22
1026,393	0,22
1026,811	0,22
1027,229	0,22
1027,647	0,22
1028,065	0,22
1028,482	0,22
1028,9	0,22
1029,318	0,22
1029,735	0,22
1030,153	0,22
1030,571	0,21
1030,988	0,22
1031,406	0,22
1031,823	0,22
1032,241	0,21
1032,659	0,22
1033,076	0,22
1033,493	0,22
1033,911	0,21
1034,328	0,22
1034,746	0,22
1035,163	0,21
1035,58	0,21
1035,997	0,21
1036,415	0,21
1036,832	0,21
1037,249	0,21
1037,666	0,21
1038,083	0,21
1038,501	0,21
1038,918	0,21
1039,335	0,21
1039,752	0,21
1040,169	0,21
1040,586	0,21
1041,003	0,21
1041,419	0,21
1041,836	0,21
1042,253	0,21
1042,67	0,21
1043,087	0,21
1043,504	0,21
1043,92	0,21
1044,337	0,2
1044,754	0,2
1045,17	0,2
1045,587	0,2
1046,004	0,2
1046,42	0,2
1046,837	0,2
1047,253	0,2
1047,67	0,2
1048,086	0,2
1048,503	0,2
1048,919	0,2
1049,335	0,2
1049,752	0,2
1050,168	0,2
1050,584	0,2
1051,001	0,2
1051,417	0,2
1051,833	0,2
1052,249	0,2
1052,665	0,2
1053,081	0,2
1053,497	0,2
1053,914	0,2
1054,33	0,2
1054,746	0,21
1055,162	0,21
1055,578	0,21
1055,993	0,21
1056,409	0,21
1056,825	0,21
1057,241	0,21
1057,657	0,21
1058,073	0,21
1058,488	0,21
1058,904	0,21
1059,32	0,21
1059,736	0,21
1060,151	0,21
1060,567	0,21
1060,982	0,21
1061,398	0,21
1061,813	0,21
1062,229	0,21
1062,644	0,21
1063,06	0,21
1063,475	0,21
1063,891	0,21
1064,306	0,2
1064,721	0,2
1065,137	0,2
1065,552	0,2
1065,967	0,2
1066,382	0,2
1066,798	0,2
1067,213	0,2
1067,628	0,2
1068,043	0,2
1068,458	0,2
1068,873	0,2
1069,288	0,2
1069,703	0,2
1070,118	0,21
1070,533	0,21
1070,948	0,21
1071,363	0,21
1071,778	0,21
1072,193	0,21
1072,607	0,21
1073,022	0,21
1073,437	0,21
1073,852	0,21
1074,266	0,21
1074,681	0,21
1075,096	0,21
1075,51	0,21
1075,925	0,21
1076,339	0,21
1076,754	0,21
1077,168	0,21
1077,583	0,21
1077,997	0,21
1078,412	0,21
1078,826	0,21
1079,24	0,21
1079,655	0,21
1080,069	0,21
1080,483	0,21
1080,897	0,2
1081,312	0,2
1081,726	0,2
1082,14	0,2
1082,554	0,2
1082,968	0,2
1083,382	0,2
1083,796	0,2
1084,21	0,2
1084,624	0,2
1085,038	0,2
1085,452	0,2
1085,866	0,2
1086,28	0,2
1086,694	0,2
1087,108	0,2
1087,521	0,19
1087,935	0,19
1088,349	0,19
1088,763	0,19
1089,176	0,19
1089,59	0,19
1090,004	0,18
1090,417	0,18
1090,831	0,18
1091,244	0,18
1091,658	0,18
1092,071	0,18
1092,485	0,17
1092,898	0,17
1093,312	0,17
1093,725	0,17
1094,138	0,17
1094,552	0,17
1094,965	0,17
1095,378	0,17
1095,791	0,16
1096,205	0,16
1096,618	0,16
1097,031	0,16
1097,444	0,16
1097,857	0,16
1098,27	0,16
1098,683	0,16
1099,096	0,15
1099,509	0,15
1099,922	0,15
1100,335	0,14
1100,748	0,14
1101,161	0,14
1101,574	0,14
1101,986	0,14
1102,399	0,13
1102,812	0,13
1103,225	0,13
1103,637	0,13
1104,05	0,12
1104,463	0,12
1104,875	0,12
1105,288	0,12
1105,7	0,11
1106,113	0,11
1106,525	0,11
1106,938	0,1
1107,35	0,1
1107,763	0,1
1108,175	0,1
1108,588	0,1
1109	0,09
1109,412	0,08
1109,824	0,08
1110,237	0,08
1110,649	0,08
1111,061	0,09
