Data from 18C-808nm-8A_Absorbance__1125__01125.txt Node

Date: Mon Jul 17 17:03:16 CEST 2023
User: Laser008
Spectrometer: MAYP115816
Trigger mode: 0
Integration Time (sec): 2,500000E-1
Scans to average: 10
Electric dark correction enabled: true
Nonlinearity correction enabled: true
Boxcar width: 5
XAxis mode: Wavelengths
Number of Pixels in Spectrum: 2068
>>>>>Begin Spectral Data<<<<<
198,914	-0,69
199,384	-0,46
199,855	-0,36
200,325	-0,29
200,796	-0,25
201,266	-0,2
201,737	-0,19
202,207	-0,18
202,677	-0,17
203,147	-0,16
203,618	-0,14
204,088	-0,13
204,558	-0,12
205,028	-0,11
205,498	-0,12
205,968	-0,12
206,439	-0,14
206,909	-0,14
207,379	-0,14
207,849	-0,15
208,319	-0,15
208,789	-0,15
209,258	-0,15
209,728	-0,16
210,198	-0,16
210,668	-0,15
211,138	-0,15
211,608	-0,14
212,077	-0,13
212,547	-0,13
213,017	-0,13
213,486	-0,13
213,956	-0,14
214,426	-0,15
214,895	-0,14
215,365	-0,15
215,834	-0,15
216,304	-0,17
216,773	-0,17
217,243	-0,18
217,712	-0,19
218,181	-0,19
218,651	-0,19
219,12	-0,19
219,589	-0,19
220,058	-0,18
220,528	-0,19
220,997	-0,19
221,466	-0,2
221,935	-0,21
222,404	-0,2
222,873	-0,19
223,342	-0,18
223,812	-0,19
224,281	-0,18
224,749	-0,18
225,218	-0,2
225,687	-0,2
226,156	-0,19
226,625	-0,18
227,094	-0,18
227,563	-0,18
228,031	-0,2
228,5	-0,2
228,969	-0,21
229,438	-0,2
229,906	-0,2
230,375	-0,19
230,844	-0,19
231,312	-0,19
231,781	-0,19
232,249	-0,19
232,718	-0,18
233,186	-0,16
233,655	-0,17
234,123	-0,17
234,591	-0,17
235,06	-0,17
235,528	-0,18
235,996	-0,17
236,465	-0,17
236,933	-0,16
237,401	-0,16
237,869	-0,16
238,337	-0,16
238,805	-0,16
239,274	-0,15
239,742	-0,15
240,21	-0,14
240,678	-0,14
241,146	-0,13
241,614	-0,14
242,081	-0,14
242,549	-0,14
243,017	-0,14
243,485	-0,15
243,953	-0,14
244,421	-0,13
244,888	-0,14
245,356	-0,15
245,824	-0,14
246,291	-0,15
246,759	-0,15
247,227	-0,15
247,694	-0,14
248,162	-0,13
248,629	-0,13
249,097	-0,13
249,564	-0,14
250,032	-0,15
250,499	-0,14
250,967	-0,15
251,434	-0,14
251,901	-0,14
252,369	-0,14
252,836	-0,16
253,303	-0,17
253,77	-0,18
254,237	-0,18
254,705	-0,18
255,172	-0,17
255,639	-0,17
256,106	-0,19
256,573	-0,19
257,04	-0,2
257,507	-0,2
257,974	-0,21
258,441	-0,19
258,908	-0,19
259,375	-0,21
259,841	-0,21
260,308	-0,22
260,775	-0,22
261,242	-0,2
261,709	-0,21
262,175	-0,21
262,642	-0,2
263,109	-0,19
263,575	-0,2
264,042	-0,18
264,508	-0,18
264,975	-0,19
265,441	-0,2
265,908	-0,21
266,374	-0,2
266,841	-0,2
267,307	-0,2
267,773	-0,2
268,24	-0,21
268,706	-0,21
269,172	-0,23
269,639	-0,23
270,105	-0,21
270,571	-0,22
271,037	-0,22
271,503	-0,23
271,969	-0,23
272,435	-0,23
272,902	-0,24
273,368	-0,26
273,834	-0,25
274,3	-0,25
274,765	-0,24
275,231	-0,25
275,697	-0,23
276,163	-0,23
276,629	-0,22
277,095	-0,23
277,56	-0,22
278,026	-0,22
278,492	-0,2
278,958	-0,2
279,423	-0,21
279,889	-0,2
280,354	-0,21
280,82	-0,22
281,286	-0,23
281,751	-0,23
282,217	-0,23
282,682	-0,23
283,147	-0,23
283,613	-0,23
284,078	-0,24
284,544	-0,25
285,009	-0,25
285,474	-0,24
285,939	-0,25
286,405	-0,24
286,87	-0,24
287,335	-0,23
287,8	-0,23
288,265	-0,22
288,73	-0,24
289,195	-0,25
289,66	-0,25
290,125	-0,24
290,59	-0,24
291,055	-0,23
291,52	-0,24
291,985	-0,24
292,45	-0,25
292,915	-0,25
293,38	-0,25
293,844	-0,23
294,309	-0,21
294,774	-0,21
295,239	-0,22
295,703	-0,23
296,168	-0,22
296,632	-0,21
297,097	-0,19
297,562	-0,18
298,026	-0,18
298,491	-0,19
298,955	-0,18
299,419	-0,19
299,884	-0,18
300,348	-0,16
300,813	-0,15
301,277	-0,16
301,741	-0,16
302,205	-0,16
302,67	-0,16
303,134	-0,16
303,598	-0,16
304,062	-0,15
304,526	-0,14
304,99	-0,15
305,454	-0,16
305,919	-0,16
306,383	-0,16
306,847	-0,16
307,31	-0,17
307,774	-0,17
308,238	-0,16
308,702	-0,16
309,166	-0,18
309,63	-0,19
310,094	-0,16
310,557	-0,16
311,021	-0,16
311,485	-0,16
311,948	-0,16
312,412	-0,16
312,876	-0,15
313,339	-0,16
313,803	-0,16
314,266	-0,15
314,73	-0,16
315,193	-0,16
315,657	-0,15
316,12	-0,15
316,584	-0,13
317,047	-0,13
317,51	-0,12
317,973	-0,12
318,437	-0,11
318,9	-0,1
319,363	-0,1
319,826	-0,09
320,29	-0,1
320,753	-0,09
321,216	-0,09
321,679	-0,09
322,142	-0,08
322,605	-0,09
323,068	-0,1
323,531	-0,1
323,994	-0,1
324,457	-0,09
324,92	-0,08
325,382	-0,08
325,845	-0,07
326,308	-0,08
326,771	-0,07
327,233	-0,06
327,696	-0,06
328,159	-0,05
328,622	-0,04
329,084	-0,04
329,547	-0,03
330,009	-0,03
330,472	-0,02
330,934	-0,01
331,397	-0,01
331,859	-0,01
332,322	-0
332,784	-0
333,246	-0
333,709	-0
334,171	0
334,633	-0
335,096	-0,01
335,558	-0,01
336,02	-0,01
336,482	-0,01
336,944	0
337,406	0,01
337,868	0,01
338,331	0,01
338,793	0,02
339,255	0,03
339,717	0,03
340,178	0,03
340,64	0,05
341,102	0,05
341,564	0,06
342,026	0,07
342,488	0,08
342,949	0,09
343,411	0,11
343,873	0,13
344,335	0,15
344,796	0,18
345,258	0,21
345,719	0,23
346,181	0,26
346,643	0,28
347,104	0,3
347,566	0,32
348,027	0,33
348,488	0,35
348,95	0,36
349,411	0,37
349,873	0,38
350,334	0,39
350,795	0,4
351,256	0,4
351,718	0,41
352,179	0,41
352,64	0,41
353,101	0,41
353,562	0,41
354,023	0,41
354,484	0,42
354,945	0,42
355,406	0,42
355,867	0,42
356,328	0,42
356,789	0,43
357,25	0,43
357,711	0,43
358,172	0,43
358,633	0,43
359,093	0,43
359,554	0,43
360,015	0,43
360,476	0,43
360,936	0,43
361,397	0,43
361,858	0,43
362,318	0,43
362,779	0,43
363,239	0,43
363,7	0,43
364,16	0,43
364,621	0,43
365,081	0,43
365,541	0,43
366,002	0,43
366,462	0,43
366,922	0,43
367,383	0,43
367,843	0,43
368,303	0,43
368,763	0,43
369,223	0,43
369,684	0,43
370,144	0,43
370,604	0,43
371,064	0,43
371,524	0,43
371,984	0,43
372,444	0,43
372,904	0,43
373,363	0,43
373,823	0,43
374,283	0,43
374,743	0,43
375,203	0,43
375,663	0,43
376,122	0,43
376,582	0,43
377,042	0,43
377,501	0,43
377,961	0,43
378,42	0,43
378,88	0,43
379,34	0,43
379,799	0,43
380,259	0,43
380,718	0,42
381,177	0,42
381,637	0,42
382,096	0,42
382,555	0,42
383,015	0,42
383,474	0,42
383,933	0,42
384,393	0,42
384,852	0,42
385,311	0,42
385,77	0,42
386,229	0,42
386,688	0,42
387,147	0,42
387,606	0,42
388,065	0,42
388,524	0,42
388,983	0,42
389,442	0,42
389,901	0,42
390,36	0,42
390,819	0,42
391,277	0,42
391,736	0,42
392,195	0,42
392,654	0,42
393,112	0,42
393,571	0,42
394,03	0,42
394,488	0,42
394,947	0,42
395,405	0,42
395,864	0,42
396,322	0,42
396,781	0,42
397,239	0,42
397,698	0,42
398,156	0,42
398,614	0,41
399,073	0,41
399,531	0,41
399,989	0,41
400,447	0,41
400,905	0,41
401,364	0,41
401,822	0,41
402,28	0,41
402,738	0,41
403,196	0,41
403,654	0,41
404,112	0,41
404,57	0,41
405,028	0,41
405,486	0,41
405,944	0,41
406,402	0,41
406,859	0,41
407,317	0,41
407,775	0,41
408,233	0,41
408,691	0,41
409,148	0,41
409,606	0,41
410,064	0,41
410,521	0,41
410,979	0,41
411,436	0,41
411,894	0,41
412,351	0,41
412,809	0,41
413,266	0,41
413,724	0,41
414,181	0,41
414,638	0,41
415,096	0,41
415,553	0,41
416,01	0,41
416,467	0,41
416,925	0,41
417,382	0,41
417,839	0,41
418,296	0,41
418,753	0,41
419,21	0,41
419,667	0,41
420,124	0,4
420,581	0,4
421,038	0,4
421,495	0,4
421,952	0,4
422,409	0,4
422,866	0,4
423,322	0,4
423,779	0,4
424,236	0,4
424,693	0,4
425,149	0,4
425,606	0,4
426,063	0,4
426,519	0,4
426,976	0,4
427,433	0,4
427,889	0,4
428,346	0,4
428,802	0,4
429,258	0,4
429,715	0,4
430,171	0,4
430,628	0,4
431,084	0,4
431,54	0,4
431,997	0,4
432,453	0,4
432,909	0,4
433,365	0,4
433,821	0,4
434,277	0,4
434,734	0,4
435,19	0,4
435,646	0,4
436,102	0,4
436,558	0,4
437,014	0,4
437,47	0,4
437,925	0,4
438,381	0,4
438,837	0,4
439,293	0,4
439,749	0,4
440,205	0,4
440,66	0,4
441,116	0,4
441,572	0,4
442,027	0,4
442,483	0,4
442,939	0,4
443,394	0,4
443,85	0,4
444,305	0,4
444,761	0,4
445,216	0,4
445,672	0,4
446,127	0,4
446,582	0,4
447,038	0,4
447,493	0,4
447,948	0,4
448,403	0,4
448,859	0,4
449,314	0,4
449,769	0,4
450,224	0,4
450,679	0,4
451,134	0,4
451,589	0,4
452,044	0,4
452,499	0,4
452,954	0,4
453,409	0,4
453,864	0,4
454,319	0,4
454,774	0,4
455,229	0,4
455,684	0,4
456,138	0,4
456,593	0,4
457,048	0,4
457,503	0,4
457,957	0,4
458,412	0,4
458,866	0,4
459,321	0,4
459,776	0,4
460,23	0,4
460,685	0,4
461,139	0,4
461,593	0,4
462,048	0,4
462,502	0,4
462,957	0,4
463,411	0,41
463,865	0,41
464,319	0,41
464,774	0,41
465,228	0,41
465,682	0,41
466,136	0,41
466,59	0,41
467,044	0,41
467,499	0,41
467,953	0,41
468,407	0,41
468,861	0,41
469,315	0,41
469,768	0,41
470,222	0,41
470,676	0,41
471,13	0,41
471,584	0,41
472,038	0,41
472,491	0,41
472,945	0,41
473,399	0,41
473,852	0,41
474,306	0,41
474,76	0,41
475,213	0,41
475,667	0,42
476,12	0,42
476,574	0,42
477,027	0,42
477,481	0,42
477,934	0,42
478,388	0,42
478,841	0,42
479,294	0,42
479,748	0,42
480,201	0,42
480,654	0,43
481,107	0,43
481,561	0,43
482,014	0,43
482,467	0,43
482,92	0,43
483,373	0,43
483,826	0,43
484,279	0,43
484,732	0,43
485,185	0,43
485,638	0,44
486,091	0,44
486,544	0,44
486,997	0,44
487,449	0,44
487,902	0,44
488,355	0,44
488,808	0,44
489,26	0,45
489,713	0,45
490,166	0,45
490,618	0,45
491,071	0,45
491,523	0,45
491,976	0,46
492,429	0,46
492,881	0,46
493,333	0,46
493,786	0,46
494,238	0,46
494,691	0,47
495,143	0,47
495,595	0,47
496,048	0,47
496,5	0,47
496,952	0,48
497,404	0,48
497,856	0,48
498,309	0,48
498,761	0,48
499,213	0,49
499,665	0,49
500,117	0,49
500,569	0,49
501,021	0,5
501,473	0,5
501,925	0,5
502,377	0,5
502,828	0,51
503,28	0,51
503,732	0,51
504,184	0,51
504,636	0,51
505,087	0,52
505,539	0,52
505,991	0,52
506,442	0,52
506,894	0,53
507,345	0,53
507,797	0,53
508,249	0,53
508,7	0,54
509,151	0,54
509,603	0,54
510,054	0,54
510,506	0,54
510,957	0,55
511,408	0,55
511,86	0,55
512,311	0,55
512,762	0,56
513,213	0,56
513,665	0,56
514,116	0,56
514,567	0,56
515,018	0,57
515,469	0,57
515,92	0,57
516,371	0,57
516,822	0,57
517,273	0,58
517,724	0,58
518,175	0,58
518,626	0,58
519,076	0,58
519,527	0,58
519,978	0,59
520,429	0,59
520,88	0,59
521,33	0,59
521,781	0,59
522,232	0,59
522,682	0,59
523,133	0,59
523,583	0,6
524,034	0,6
524,484	0,6
524,935	0,6
525,385	0,6
525,836	0,6
526,286	0,6
526,736	0,6
527,187	0,6
527,637	0,6
528,087	0,6
528,538	0,6
528,988	0,6
529,438	0,6
529,888	0,6
530,338	0,6
530,788	0,6
531,238	0,6
531,688	0,6
532,139	0,6
532,589	0,6
533,038	0,6
533,488	0,6
533,938	0,59
534,388	0,59
534,838	0,59
535,288	0,59
535,738	0,59
536,187	0,59
536,637	0,59
537,087	0,58
537,537	0,58
537,986	0,58
538,436	0,58
538,885	0,58
539,335	0,57
539,785	0,57
540,234	0,57
540,684	0,57
541,133	0,56
541,582	0,56
542,032	0,56
542,481	0,56
542,931	0,55
543,38	0,55
543,829	0,55
544,278	0,55
544,728	0,54
545,177	0,54
545,626	0,54
546,075	0,54
546,524	0,53
546,973	0,53
547,422	0,53
547,871	0,53
548,32	0,53
548,769	0,53
549,218	0,53
549,667	0,53
550,116	0,52
550,565	0,52
551,014	0,52
551,463	0,52
551,911	0,52
552,36	0,52
552,809	0,51
553,258	0,51
553,706	0,51
554,155	0,51
554,603	0,51
555,052	0,5
555,501	0,5
555,949	0,5
556,398	0,5
556,846	0,5
557,294	0,49
557,743	0,49
558,191	0,49
558,64	0,49
559,088	0,48
559,536	0,48
559,985	0,48
560,433	0,48
560,881	0,47
561,329	0,47
561,777	0,47
562,225	0,47
562,674	0,47
563,122	0,46
563,57	0,46
564,018	0,46
564,466	0,46
564,914	0,46
565,362	0,45
565,809	0,45
566,257	0,45
566,705	0,45
567,153	0,45
567,601	0,44
568,048	0,44
568,496	0,44
568,944	0,44
569,392	0,44
569,839	0,43
570,287	0,43
570,734	0,43
571,182	0,43
571,63	0,43
572,077	0,43
572,525	0,42
572,972	0,42
573,419	0,42
573,867	0,42
574,314	0,42
574,761	0,41
575,209	0,41
575,656	0,41
576,103	0,41
576,551	0,41
576,998	0,41
577,445	0,41
577,892	0,41
578,339	0,41
578,786	0,4
579,233	0,4
579,68	0,4
580,127	0,4
580,574	0,4
581,021	0,4
581,468	0,4
581,915	0,39
582,362	0,39
582,809	0,39
583,255	0,39
583,702	0,39
584,149	0,39
584,596	0,39
585,042	0,38
585,489	0,38
585,936	0,38
586,382	0,38
586,829	0,38
587,275	0,38
587,722	0,38
588,168	0,38
588,615	0,38
589,061	0,38
589,508	0,38
589,954	0,38
590,4	0,37
590,847	0,37
591,293	0,37
591,739	0,37
592,185	0,37
592,632	0,37
593,078	0,37
593,524	0,37
593,97	0,37
594,416	0,37
594,862	0,37
595,308	0,37
595,754	0,37
596,2	0,36
596,646	0,36
597,092	0,36
597,538	0,36
597,984	0,36
598,43	0,36
598,876	0,36
599,321	0,36
599,767	0,36
600,213	0,36
600,659	0,36
601,104	0,36
601,55	0,35
601,995	0,35
602,441	0,35
602,887	0,35
603,332	0,35
603,778	0,35
604,223	0,35
604,668	0,35
605,114	0,35
605,559	0,35
606,005	0,35
606,45	0,35
606,895	0,35
607,341	0,35
607,786	0,35
608,231	0,35
608,676	0,35
609,121	0,34
609,566	0,34
610,012	0,33
610,457	0,33
610,902	0,33
611,347	0,33
611,792	0,33
612,237	0,33
612,682	0,33
613,127	0,33
613,571	0,33
614,016	0,33
614,461	0,33
614,906	0,33
615,351	0,33
615,795	0,33
616,24	0,33
616,685	0,33
617,129	0,33
617,574	0,33
618,019	0,33
618,463	0,33
618,908	0,33
619,352	0,33
619,797	0,33
620,241	0,33
620,686	0,33
621,13	0,33
621,574	0,33
622,019	0,33
622,463	0,33
622,907	0,33
623,352	0,33
623,796	0,33
624,24	0,33
624,684	0,33
625,128	0,33
625,572	0,33
626,016	0,33
626,461	0,33
626,905	0,33
627,349	0,33
627,793	0,33
628,236	0,33
628,68	0,33
629,124	0,33
629,568	0,33
630,012	0,33
630,456	0,33
630,9	0,33
631,343	0,33
631,787	0,33
632,231	0,33
632,674	0,32
633,118	0,32
633,562	0,32
634,005	0,32
634,449	0,32
634,892	0,32
635,336	0,32
635,779	0,32
636,223	0,32
636,666	0,32
637,109	0,32
637,553	0,32
637,996	0,32
638,439	0,32
638,883	0,32
639,326	0,32
639,769	0,32
640,212	0,32
640,655	0,32
641,099	0,32
641,542	0,32
641,985	0,32
642,428	0,32
642,871	0,32
643,314	0,32
643,757	0,32
644,2	0,32
644,643	0,32
645,085	0,32
645,528	0,32
645,971	0,32
646,414	0,32
646,857	0,32
647,299	0,32
647,742	0,31
648,185	0,31
648,627	0,31
649,07	0,31
649,513	0,31
649,955	0,31
650,398	0,31
650,84	0,31
651,283	0,31
651,725	0,31
652,168	0,31
652,61	0,31
653,052	0,31
653,495	0,31
653,937	0,24
654,379	0,19
654,821	0,2
655,264	0,2
655,706	0,2
656,148	0,2
656,59	0,2
657,032	0,2
657,474	0,2
657,916	0,2
658,358	0,19
658,8	0,24
659,242	0,31
659,684	0,31
660,126	0,31
660,568	0,31
661,01	0,31
661,452	0,31
661,894	0,31
662,335	0,31
662,777	0,31
663,219	0,31
663,661	0,31
664,102	0,31
664,544	0,31
664,985	0,31
665,427	0,31
665,869	0,31
666,31	0,31
666,752	0,31
667,193	0,31
667,634	0,31
668,076	0,31
668,517	0,31
668,959	0,31
669,4	0,31
669,841	0,31
670,282	0,31
670,724	0,31
671,165	0,31
671,606	0,31
672,047	0,31
672,488	0,31
672,929	0,31
673,37	0,31
673,811	0,31
674,252	0,3
674,693	0,3
675,134	0,3
675,575	0,3
676,016	0,3
676,457	0,3
676,898	0,3
677,339	0,3
677,78	0,3
678,22	0,3
678,661	0,3
679,102	0,3
679,542	0,3
679,983	0,3
680,424	0,3
680,864	0,3
681,305	0,3
681,745	0,3
682,186	0,3
682,626	0,3
683,067	0,3
683,507	0,3
683,948	0,3
684,388	0,3
684,828	0,3
685,269	0,3
685,709	0,3
686,149	0,3
686,589	0,3
687,029	0,3
687,47	0,3
687,91	0,3
688,35	0,29
688,79	0,29
689,23	0,29
689,67	0,29
690,11	0,29
690,55	0,29
690,99	0,29
691,43	0,29
691,87	0,29
692,31	0,29
692,749	0,29
693,189	0,29
693,629	0,29
694,069	0,29
694,508	0,29
694,948	0,29
695,388	0,29
695,827	0,29
696,267	0,29
696,706	0,29
697,146	0,29
697,586	0,29
698,025	0,3
698,464	0,3
698,904	0,3
699,343	0,3
699,783	0,3
700,222	0,3
700,661	0,3
701,101	0,3
701,54	0,3
701,979	0,29
702,418	0,29
702,857	0,29
703,297	0,29
703,736	0,29
704,175	0,29
704,614	0,29
705,053	0,29
705,492	0,29
705,931	0,29
706,37	0,29
706,809	0,29
707,248	0,29
707,687	0,29
708,125	0,29
708,564	0,29
709,003	0,29
709,442	0,28
709,88	0,28
710,319	0,28
710,758	0,28
711,196	0,28
711,635	0,28
712,074	0,28
712,512	0,28
712,951	0,28
713,389	0,28
713,828	0,28
714,266	0,28
714,705	0,28
715,143	0,28
715,581	0,28
716,02	0,28
716,458	0,28
716,896	0,28
717,334	0,28
717,773	0,28
718,211	0,28
718,649	0,28
719,087	0,28
719,525	0,28
719,963	0,28
720,401	0,28
720,839	0,28
721,277	0,28
721,715	0,28
722,153	0,28
722,591	0,28
723,029	0,28
723,467	0,28
723,905	0,28
724,342	0,28
724,78	0,28
725,218	0,28
725,656	0,28
726,093	0,28
726,531	0,28
726,969	0,28
727,406	0,28
727,844	0,28
728,281	0,28
728,719	0,28
729,156	0,28
729,594	0,28
730,031	0,28
730,469	0,28
730,906	0,27
731,343	0,27
731,781	0,27
732,218	0,27
732,655	0,27
733,092	0,27
733,53	0,27
733,967	0,27
734,404	0,27
734,841	0,27
735,278	0,27
735,715	0,27
736,152	0,27
736,589	0,27
737,026	0,27
737,463	0,27
737,9	0,27
738,337	0,27
738,774	0,27
739,211	0,27
739,647	0,27
740,084	0,27
740,521	0,27
740,958	0,27
741,394	0,27
741,831	0,26
742,268	0,26
742,704	0,26
743,141	0,26
743,577	0,26
744,014	0,26
744,45	0,26
744,887	0,26
745,323	0,25
745,76	0,25
746,196	0,25
746,632	0,25
747,069	0,25
747,505	0,25
747,941	0,25
748,378	0,25
748,814	0,25
749,25	0,25
749,686	0,26
750,122	0,26
750,558	0,26
750,994	0,26
751,43	0,26
751,866	0,26
752,302	0,26
752,738	0,26
753,174	0,27
753,61	0,27
754,046	0,27
754,482	0,27
754,918	0,27
755,354	0,27
755,789	0,27
756,225	0,27
756,661	0,27
757,096	0,27
757,532	0,27
757,968	0,26
758,403	0,26
758,839	0,26
759,274	0,26
759,71	0,26
760,145	0,25
760,581	0,25
761,016	0,25
761,452	0,24
761,887	0,24
762,322	0,24
762,758	0,23
763,193	0,23
763,628	0,22
764,063	0,22
764,499	0,21
764,934	0,21
765,369	0,2
765,804	0,2
766,239	0,19
766,674	0,19
767,109	0,18
767,544	0,18
767,979	0,17
768,414	0,16
768,849	0,16
769,284	0,15
769,719	0,15
770,154	0,14
770,588	0,13
771,023	0,12
771,458	0,12
771,893	0,11
772,327	0,1
772,762	0,1
773,197	0,09
773,631	0,08
774,066	0,08
774,5	0,07
774,935	0,06
775,369	0,05
775,804	0,04
776,238	0,04
776,673	0,03
777,107	0,02
777,541	0,01
777,976	0,01
778,41	-0
778,844	-0,01
779,279	-0,02
779,713	-0,02
780,147	-0,03
780,581	-0,04
781,015	-0,04
781,449	-0,05
781,883	-0,06
782,317	-0,08
782,751	-0,09
783,185	-0,09
783,619	-0,1
784,053	-0,1
784,487	-0,11
784,921	-0,12
785,355	-0,13
785,789	-0,14
786,223	-0,15
786,656	-0,15
787,09	-0,16
787,524	-0,16
787,957	-0,17
788,391	-0,2
788,825	-0,21
789,258	-0,23
789,692	-0,24
790,125	-0,26
790,559	-0,28
790,992	-0,29
791,426	-0,32
791,859	-0,33
792,293	-0,36
792,726	-0,38
793,159	-0,39
793,593	-0,41
794,026	-0,43
794,459	-0,46
794,892	-0,49
795,326	-0,51
795,759	-0,54
796,192	-0,59
796,625	-0,63
797,058	-0,66
797,491	-0,7
797,924	-0,74
798,357	-0,79
798,79	-0,84
799,223	-0,88
799,656	-0,93
800,089	-0,98
800,522	-1,03
800,955	-1,07
801,387	-1,13
801,82	-1,18
802,253	-1,24
802,686	-1,32
803,118	-1,38
803,551	-1,43
803,984	-1,48
804,416	-1,51
804,849	-1,55
805,281	-1,65
805,714	-2,01
806,146	-2,46
806,579	-2,72
807,011	-2,87
807,444	-2,97
807,876	-3,05
808,308	-3,09
808,741	-3,12
809,173	-3,17
809,605	-3,19
810,037	-3,27
810,47	-3,18
810,902	-2,98
811,334	-2,84
811,766	-2,68
812,198	-2,44
812,63	-2,02
813,062	-1,82
813,494	-1,72
813,926	-1,63
814,358	-1,58
814,79	-1,5
815,222	-1,44
815,654	-1,39
816,086	-1,32
816,518	-1,27
816,949	-1,21
817,381	-1,17
817,813	-1,15
818,245	-1,11
818,676	-1,07
819,108	-1,04
819,54	-1,03
819,971	-1
820,403	-0,95
820,834	-0,94
821,266	-0,89
821,697	-0,87
822,129	-0,85
822,56	-0,83
822,991	-0,81
823,423	-0,77
823,854	-0,76
824,286	-0,73
824,717	-0,72
825,148	-0,71
825,579	-0,7
826,01	-0,68
826,442	-0,68
826,873	-0,66
827,304	-0,62
827,735	-0,62
828,166	-0,63
828,597	-0,62
829,028	-0,61
829,459	-0,61
829,89	-0,61
830,321	-0,57
830,752	-0,58
831,183	-0,56
831,613	-0,55
832,044	-0,56
832,475	-0,54
832,906	-0,55
833,336	-0,56
833,767	-0,57
834,198	-0,56
834,628	-0,54
835,059	-0,56
835,49	-0,56
835,92	-0,53
836,351	-0,53
836,781	-0,53
837,212	-0,54
837,642	-0,53
838,072	-0,52
838,503	-0,52
838,933	-0,49
839,364	-0,5
839,794	-0,49
840,224	-0,48
840,654	-0,53
841,085	-0,53
841,515	-0,5
841,945	-0,51
842,375	-0,47
842,805	-0,46
843,235	-0,45
843,665	-0,46
844,095	-0,44
844,525	-0,46
844,955	-0,47
845,385	-0,45
845,815	-0,44
846,245	-0,46
846,675	-0,47
847,105	-0,48
847,534	-0,49
847,964	-0,47
848,394	-0,46
848,824	-0,49
849,253	-0,48
849,683	-0,49
850,112	-0,49
850,542	-0,52
850,972	-0,52
851,401	-0,49
851,831	-0,48
852,26	-0,48
852,69	-0,52
853,119	-0,51
853,548	-0,52
853,978	-0,53
854,407	-0,51
854,836	-0,51
855,266	-0,5
855,695	-0,52
856,124	-0,53
856,553	-0,54
856,983	-0,56
857,412	-0,56
857,841	-0,57
858,27	-0,57
858,699	-0,57
859,128	-0,6
859,557	-0,62
859,986	-0,64
860,415	-0,61
860,844	-0,59
861,273	-0,58
861,702	-0,59
862,13	-0,57
862,559	-0,59
862,988	-0,57
863,417	-0,56
863,845	-0,54
864,274	-0,55
864,703	-0,55
865,131	-0,55
865,56	-0,56
865,989	-0,59
866,417	-0,57
866,846	-0,57
867,274	-0,56
867,703	-0,57
868,131	-0,58
868,559	-0,59
868,988	-0,61
869,416	-0,6
869,844	-0,6
870,273	-0,62
870,701	-0,61
871,129	-0,64
871,557	-0,67
871,986	-0,67
872,414	-0,68
872,842	-0,65
873,27	-0,63
873,698	-0,6
874,126	-0,63
874,554	-0,61
874,982	-0,62
875,41	-0,64
875,838	-0,59
876,266	-0,56
876,694	-0,56
877,122	-0,55
877,549	-0,61
877,977	-0,58
878,405	-0,6
878,833	-0,57
879,26	-0,56
879,688	-0,56
880,116	-0,54
880,543	-0,53
880,971	-0,52
881,399	-0,54
881,826	-0,55
882,254	-0,53
882,681	-0,57
883,109	-0,53
883,536	-0,55
883,963	-0,56
884,391	-0,55
884,818	-0,53
885,245	-0,57
885,673	-0,59
886,1	-0,57
886,527	-0,56
886,954	-0,53
887,381	-0,55
887,809	-0,56
888,236	-0,58
888,663	-0,57
889,09	-0,61
889,517	-0,63
889,944	-0,63
890,371	-0,61
890,798	-0,62
891,225	-0,62
891,652	-0,65
892,078	-0,62
892,505	-0,65
892,932	-0,6
893,359	-0,61
893,786	-0,61
894,212	-0,57
894,639	-0,58
895,066	-0,61
895,492	-0,55
895,919	-0,55
896,346	-0,54
896,772	-0,55
897,199	-0,52
897,625	-0,56
898,052	-0,53
898,478	-0,51
898,904	-0,52
899,331	-0,52
899,757	-0,54
900,183	-0,56
900,61	-0,55
901,036	-0,56
901,462	-0,55
901,888	-0,54
902,315	-0,52
902,741	-0,57
903,167	-0,56
903,593	-0,59
904,019	-0,56
904,445	-0,53
904,871	-0,56
905,297	-0,57
905,723	-0,56
906,149	-0,56
906,575	-0,57
907,001	-0,58
907,427	-0,55
907,852	-0,55
908,278	-0,55
908,704	-0,53
909,13	-0,52
909,555	-0,52
909,981	-0,52
910,407	-0,52
910,832	-0,52
911,258	-0,52
911,684	-0,51
912,109	-0,52
912,535	-0,54
912,96	-0,5
913,386	-0,54
913,811	-0,54
914,236	-0,55
914,662	-0,52
915,087	-0,55
915,512	-0,55
915,938	-0,57
916,363	-0,57
916,788	-0,58
917,213	-0,55
917,639	-0,6
918,064	-0,58
918,489	-0,58
918,914	-0,57
919,339	-0,6
919,764	-0,57
920,189	-0,57
920,614	-0,58
921,039	-0,58
921,464	-0,54
921,889	-0,57
922,314	-0,58
922,738	-0,61
923,163	-0,61
923,588	-0,62
924,013	-0,61
924,437	-0,6
924,862	-0,62
925,287	-0,58
925,711	-0,59
926,136	-0,62
926,561	-0,59
926,985	-0,58
927,41	-0,56
927,834	-0,54
928,259	-0,51
928,683	-0,5
929,108	-0,47
929,532	-0,49
929,956	-0,49
930,381	-0,48
930,805	-0,48
931,229	-0,48
931,653	-0,47
932,078	-0,46
932,502	-0,48
932,926	-0,48
933,35	-0,48
933,774	-0,47
934,198	-0,44
934,622	-0,43
935,046	-0,44
935,47	-0,44
935,894	-0,43
936,318	-0,42
936,742	-0,42
937,166	-0,43
937,59	-0,42
938,014	-0,45
938,437	-0,46
938,861	-0,48
939,285	-0,48
939,709	-0,47
940,132	-0,47
940,556	-0,48
940,98	-0,48
941,403	-0,46
941,827	-0,47
942,25	-0,48
942,674	-0,47
943,097	-0,46
943,521	-0,46
943,944	-0,48
944,368	-0,48
944,791	-0,47
945,214	-0,49
945,638	-0,5
946,061	-0,54
946,484	-0,54
946,907	-0,53
947,331	-0,52
947,754	-0,57
948,177	-0,54
948,6	-0,53
949,023	-0,53
949,446	-0,53
949,869	-0,5
950,292	-0,51
950,715	-0,47
951,138	-0,46
951,561	-0,44
951,984	-0,44
952,407	-0,42
952,83	-0,41
953,252	-0,37
953,675	-0,36
954,098	-0,38
954,521	-0,36
954,943	-0,35
955,366	-0,36
955,789	-0,34
956,211	-0,37
956,634	-0,36
957,056	-0,34
957,479	-0,36
957,902	-0,38
958,324	-0,39
958,746	-0,36
959,169	-0,38
959,591	-0,38
960,014	-0,39
960,436	-0,39
960,858	-0,38
961,281	-0,39
961,703	-0,39
962,125	-0,38
962,547	-0,36
962,969	-0,37
963,391	-0,37
963,814	-0,39
964,236	-0,37
964,658	-0,34
965,08	-0,35
965,502	-0,35
965,924	-0,33
966,346	-0,34
966,768	-0,33
967,189	-0,36
967,611	-0,35
968,033	-0,35
968,455	-0,33
968,877	-0,34
969,298	-0,35
969,72	-0,36
970,142	-0,35
970,563	-0,36
970,985	-0,34
971,407	-0,33
971,828	-0,3
972,25	-0,29
972,671	-0,28
973,093	-0,27
973,514	-0,25
973,936	-0,24
974,357	-0,22
974,778	-0,22
975,2	-0,22
975,621	-0,21
976,042	-0,2
976,464	-0,2
976,885	-0,19
977,306	-0,19
977,727	-0,18
978,148	-0,18
978,57	-0,17
978,991	-0,16
979,412	-0,15
979,833	-0,14
980,254	-0,14
980,675	-0,14
981,096	-0,13
981,517	-0,11
981,937	-0,11
982,358	-0,1
982,779	-0,09
983,2	-0,09
983,621	-0,08
984,042	-0,07
984,462	-0,06
984,883	-0,04
985,304	-0,03
985,724	-0,02
986,145	-0,02
986,565	-0,01
986,986	-0
987,407	0
987,827	0,02
988,248	0,03
988,668	0,03
989,088	0,04
989,509	0,05
989,929	0,06
990,35	0,07
990,77	0,08
991,19	0,09
991,61	0,1
992,031	0,1
992,451	0,11
992,871	0,12
993,291	0,12
993,711	0,13
994,131	0,13
994,551	0,14
994,971	0,14
995,391	0,15
995,811	0,15
996,231	0,15
996,651	0,16
997,071	0,16
997,491	0,17
997,911	0,17
998,331	0,18
998,75	0,18
999,17	0,18
999,59	0,19
1000,009	0,19
1000,429	0,19
1000,849	0,19
1001,268	0,2
1001,688	0,2
1002,107	0,2
1002,527	0,2
1002,946	0,2
1003,366	0,21
1003,785	0,21
1004,205	0,21
1004,624	0,21
1005,044	0,21
1005,463	0,21
1005,882	0,22
1006,301	0,22
1006,721	0,22
1007,14	0,22
1007,559	0,22
1007,978	0,22
1008,397	0,22
1008,816	0,22
1009,235	0,22
1009,655	0,22
1010,074	0,22
1010,492	0,22
1010,911	0,21
1011,33	0,21
1011,749	0,21
1012,168	0,21
1012,587	0,21
1013,006	0,21
1013,425	0,21
1013,843	0,21
1014,262	0,21
1014,681	0,21
1015,099	0,21
1015,518	0,21
1015,937	0,21
1016,355	0,21
1016,774	0,21
1017,192	0,21
1017,611	0,21
1018,029	0,21
1018,448	0,21
1018,866	0,21
1019,285	0,21
1019,703	0,21
1020,121	0,21
1020,54	0,21
1020,958	0,21
1021,376	0,21
1021,794	0,21
1022,213	0,21
1022,631	0,21
1023,049	0,21
1023,467	0,21
1023,885	0,21
1024,303	0,21
1024,721	0,21
1025,139	0,21
1025,557	0,21
1025,975	0,21
1026,393	0,21
1026,811	0,21
1027,229	0,21
1027,647	0,21
1028,065	0,21
1028,482	0,21
1028,9	0,2
1029,318	0,2
1029,735	0,2
1030,153	0,2
1030,571	0,2
1030,988	0,2
1031,406	0,2
1031,823	0,2
1032,241	0,2
1032,659	0,2
1033,076	0,2
1033,493	0,2
1033,911	0,21
1034,328	0,2
1034,746	0,2
1035,163	0,2
1035,58	0,2
1035,997	0,2
1036,415	0,2
1036,832	0,2
1037,249	0,2
1037,666	0,2
1038,083	0,2
1038,501	0,2
1038,918	0,2
1039,335	0,2
1039,752	0,2
1040,169	0,2
1040,586	0,2
1041,003	0,2
1041,419	0,2
1041,836	0,2
1042,253	0,2
1042,67	0,2
1043,087	0,2
1043,504	0,2
1043,92	0,19
1044,337	0,19
1044,754	0,19
1045,17	0,19
1045,587	0,19
1046,004	0,19
1046,42	0,19
1046,837	0,19
1047,253	0,19
1047,67	0,19
1048,086	0,19
1048,503	0,19
1048,919	0,19
1049,335	0,19
1049,752	0,19
1050,168	0,19
1050,584	0,19
1051,001	0,19
1051,417	0,19
1051,833	0,19
1052,249	0,19
1052,665	0,19
1053,081	0,19
1053,497	0,19
1053,914	0,19
1054,33	0,19
1054,746	0,19
1055,162	0,19
1055,578	0,19
1055,993	0,2
1056,409	0,2
1056,825	0,2
1057,241	0,2
1057,657	0,2
1058,073	0,2
1058,488	0,2
1058,904	0,2
1059,32	0,2
1059,736	0,2
1060,151	0,2
1060,567	0,2
1060,982	0,2
1061,398	0,2
1061,813	0,2
1062,229	0,19
1062,644	0,19
1063,06	0,19
1063,475	0,19
1063,891	0,19
1064,306	0,19
1064,721	0,19
1065,137	0,19
1065,552	0,19
1065,967	0,19
1066,382	0,19
1066,798	0,19
1067,213	0,19
1067,628	0,19
1068,043	0,19
1068,458	0,19
1068,873	0,19
1069,288	0,19
1069,703	0,19
1070,118	0,2
1070,533	0,2
1070,948	0,2
1071,363	0,2
1071,778	0,2
1072,193	0,2
1072,607	0,2
1073,022	0,2
1073,437	0,2
1073,852	0,2
1074,266	0,2
1074,681	0,2
1075,096	0,2
1075,51	0,2
1075,925	0,2
1076,339	0,2
1076,754	0,2
1077,168	0,2
1077,583	0,2
1077,997	0,2
1078,412	0,2
1078,826	0,2
1079,24	0,2
1079,655	0,2
1080,069	0,2
1080,483	0,19
1080,897	0,19
1081,312	0,19
1081,726	0,19
1082,14	0,19
1082,554	0,19
1082,968	0,19
1083,382	0,19
1083,796	0,19
1084,21	0,19
1084,624	0,19
1085,038	0,19
1085,452	0,19
1085,866	0,19
1086,28	0,19
1086,694	0,19
1087,108	0,19
1087,521	0,18
1087,935	0,18
1088,349	0,18
1088,763	0,18
1089,176	0,18
1089,59	0,18
1090,004	0,18
1090,417	0,17
1090,831	0,17
1091,244	0,17
1091,658	0,17
1092,071	0,17
1092,485	0,16
1092,898	0,16
1093,312	0,16
1093,725	0,16
1094,138	0,16
1094,552	0,16
1094,965	0,16
1095,378	0,16
1095,791	0,16
1096,205	0,16
1096,618	0,15
1097,031	0,15
1097,444	0,15
1097,857	0,15
1098,27	0,15
1098,683	0,15
1099,096	0,14
1099,509	0,14
1099,922	0,14
1100,335	0,14
1100,748	0,13
1101,161	0,13
1101,574	0,13
1101,986	0,13
1102,399	0,12
1102,812	0,12
1103,225	0,12
1103,637	0,11
1104,05	0,11
1104,463	0,11
1104,875	0,11
1105,288	0,11
1105,7	0,11
1106,113	0,11
1106,525	0,1
1106,938	0,1
1107,35	0,09
1107,763	0,1
1108,175	0,1
1108,588	0,09
1109	0,09
1109,412	0,08
1109,824	0,07
1110,237	0,07
1110,649	0,07
1111,061	0,06
