Data from 18C-808nm-8A_Absorbance__426__00426.txt Node

Date: Mon Jul 17 16:34:08 CEST 2023
User: Laser008
Spectrometer: MAYP115816
Trigger mode: 0
Integration Time (sec): 2,500000E-1
Scans to average: 10
Electric dark correction enabled: true
Nonlinearity correction enabled: true
Boxcar width: 5
XAxis mode: Wavelengths
Number of Pixels in Spectrum: 2068
>>>>>Begin Spectral Data<<<<<
198,914	-0,64
199,384	-0,41
199,855	-0,31
200,325	-0,25
200,796	-0,22
201,266	-0,19
201,737	-0,18
202,207	-0,17
202,677	-0,16
203,147	-0,14
203,618	-0,12
204,088	-0,11
204,558	-0,1
205,028	-0,09
205,498	-0,1
205,968	-0,1
206,439	-0,11
206,909	-0,11
207,379	-0,12
207,849	-0,12
208,319	-0,13
208,789	-0,14
209,258	-0,13
209,728	-0,15
210,198	-0,14
210,668	-0,14
211,138	-0,14
211,608	-0,14
212,077	-0,14
212,547	-0,13
213,017	-0,13
213,486	-0,13
213,956	-0,14
214,426	-0,14
214,895	-0,14
215,365	-0,14
215,834	-0,14
216,304	-0,14
216,773	-0,14
217,243	-0,16
217,712	-0,17
218,181	-0,17
218,651	-0,16
219,12	-0,16
219,589	-0,16
220,058	-0,15
220,528	-0,16
220,997	-0,17
221,466	-0,18
221,935	-0,18
222,404	-0,17
222,873	-0,16
223,342	-0,15
223,812	-0,16
224,281	-0,16
224,749	-0,17
225,218	-0,18
225,687	-0,19
226,156	-0,17
226,625	-0,15
227,094	-0,16
227,563	-0,15
228,031	-0,18
228,5	-0,18
228,969	-0,19
229,438	-0,18
229,906	-0,17
230,375	-0,17
230,844	-0,17
231,312	-0,17
231,781	-0,18
232,249	-0,17
232,718	-0,17
233,186	-0,15
233,655	-0,15
234,123	-0,15
234,591	-0,15
235,06	-0,15
235,528	-0,15
235,996	-0,15
236,465	-0,15
236,933	-0,14
237,401	-0,14
237,869	-0,14
238,337	-0,13
238,805	-0,12
239,274	-0,12
239,742	-0,12
240,21	-0,11
240,678	-0,11
241,146	-0,1
241,614	-0,11
242,081	-0,1
242,549	-0,1
243,017	-0,11
243,485	-0,12
243,953	-0,13
244,421	-0,11
244,888	-0,11
245,356	-0,12
245,824	-0,11
246,291	-0,11
246,759	-0,11
247,227	-0,11
247,694	-0,1
248,162	-0,09
248,629	-0,08
249,097	-0,08
249,564	-0,1
250,032	-0,11
250,499	-0,11
250,967	-0,11
251,434	-0,12
251,901	-0,13
252,369	-0,13
252,836	-0,14
253,303	-0,15
253,77	-0,17
254,237	-0,16
254,705	-0,16
255,172	-0,15
255,639	-0,15
256,106	-0,16
256,573	-0,16
257,04	-0,16
257,507	-0,16
257,974	-0,17
258,441	-0,15
258,908	-0,16
259,375	-0,17
259,841	-0,18
260,308	-0,18
260,775	-0,18
261,242	-0,16
261,709	-0,17
262,175	-0,18
262,642	-0,18
263,109	-0,17
263,575	-0,18
264,042	-0,16
264,508	-0,15
264,975	-0,17
265,441	-0,18
265,908	-0,19
266,374	-0,18
266,841	-0,19
267,307	-0,19
267,773	-0,18
268,24	-0,18
268,706	-0,19
269,172	-0,2
269,639	-0,21
270,105	-0,2
270,571	-0,2
271,037	-0,19
271,503	-0,21
271,969	-0,2
272,435	-0,2
272,902	-0,22
273,368	-0,23
273,834	-0,22
274,3	-0,22
274,765	-0,22
275,231	-0,21
275,697	-0,2
276,163	-0,21
276,629	-0,2
277,095	-0,21
277,56	-0,2
278,026	-0,2
278,492	-0,19
278,958	-0,19
279,423	-0,19
279,889	-0,18
280,354	-0,18
280,82	-0,18
281,286	-0,18
281,751	-0,19
282,217	-0,18
282,682	-0,16
283,147	-0,17
283,613	-0,17
284,078	-0,18
284,544	-0,19
285,009	-0,21
285,474	-0,21
285,939	-0,21
286,405	-0,21
286,87	-0,2
287,335	-0,19
287,8	-0,2
288,265	-0,19
288,73	-0,2
289,195	-0,22
289,66	-0,21
290,125	-0,2
290,59	-0,2
291,055	-0,2
291,52	-0,2
291,985	-0,2
292,45	-0,22
292,915	-0,23
293,38	-0,23
293,844	-0,21
294,309	-0,2
294,774	-0,18
295,239	-0,2
295,703	-0,2
296,168	-0,19
296,632	-0,19
297,097	-0,17
297,562	-0,16
298,026	-0,16
298,491	-0,16
298,955	-0,15
299,419	-0,15
299,884	-0,16
300,348	-0,15
300,813	-0,14
301,277	-0,14
301,741	-0,14
302,205	-0,14
302,67	-0,14
303,134	-0,14
303,598	-0,15
304,062	-0,14
304,526	-0,13
304,99	-0,13
305,454	-0,13
305,919	-0,13
306,383	-0,13
306,847	-0,12
307,31	-0,13
307,774	-0,14
308,238	-0,13
308,702	-0,13
309,166	-0,15
309,63	-0,15
310,094	-0,12
310,557	-0,12
311,021	-0,11
311,485	-0,12
311,948	-0,13
312,412	-0,12
312,876	-0,11
313,339	-0,11
313,803	-0,12
314,266	-0,11
314,73	-0,12
315,193	-0,13
315,657	-0,13
316,12	-0,13
316,584	-0,11
317,047	-0,11
317,51	-0,1
317,973	-0,1
318,437	-0,09
318,9	-0,08
319,363	-0,06
319,826	-0,05
320,29	-0,05
320,753	-0,05
321,216	-0,05
321,679	-0,05
322,142	-0,05
322,605	-0,07
323,068	-0,06
323,531	-0,07
323,994	-0,07
324,457	-0,07
324,92	-0,07
325,382	-0,07
325,845	-0,07
326,308	-0,06
326,771	-0,06
327,233	-0,05
327,696	-0,04
328,159	-0,04
328,622	-0,03
329,084	-0,03
329,547	-0,03
330,009	-0,03
330,472	-0,01
330,934	-0,02
331,397	-0,02
331,859	-0,01
332,322	-0,01
332,784	-0,01
333,246	-0,01
333,709	-0,01
334,171	-0,01
334,633	-0
335,096	-0,01
335,558	-0,01
336,02	-0,01
336,482	-0,01
336,944	-0
337,406	0,01
337,868	0,01
338,331	0,01
338,793	0,02
339,255	0,02
339,717	0,03
340,178	0,04
340,64	0,04
341,102	0,04
341,564	0,04
342,026	0,05
342,488	0,05
342,949	0,05
343,411	0,07
343,873	0,09
344,335	0,1
344,796	0,12
345,258	0,14
345,719	0,16
346,181	0,17
346,643	0,19
347,104	0,2
347,566	0,22
348,027	0,23
348,488	0,23
348,95	0,24
349,411	0,24
349,873	0,25
350,334	0,26
350,795	0,26
351,256	0,26
351,718	0,27
352,179	0,27
352,64	0,27
353,101	0,27
353,562	0,27
354,023	0,27
354,484	0,27
354,945	0,27
355,406	0,27
355,867	0,27
356,328	0,28
356,789	0,28
357,25	0,28
357,711	0,28
358,172	0,28
358,633	0,28
359,093	0,28
359,554	0,28
360,015	0,28
360,476	0,28
360,936	0,28
361,397	0,28
361,858	0,28
362,318	0,28
362,779	0,28
363,239	0,28
363,7	0,28
364,16	0,28
364,621	0,28
365,081	0,28
365,541	0,28
366,002	0,28
366,462	0,28
366,922	0,28
367,383	0,28
367,843	0,28
368,303	0,28
368,763	0,28
369,223	0,28
369,684	0,28
370,144	0,28
370,604	0,28
371,064	0,28
371,524	0,28
371,984	0,28
372,444	0,28
372,904	0,28
373,363	0,28
373,823	0,28
374,283	0,28
374,743	0,28
375,203	0,28
375,663	0,28
376,122	0,28
376,582	0,28
377,042	0,28
377,501	0,28
377,961	0,28
378,42	0,28
378,88	0,28
379,34	0,28
379,799	0,28
380,259	0,28
380,718	0,28
381,177	0,28
381,637	0,28
382,096	0,28
382,555	0,28
383,015	0,28
383,474	0,28
383,933	0,28
384,393	0,28
384,852	0,28
385,311	0,28
385,77	0,28
386,229	0,28
386,688	0,28
387,147	0,28
387,606	0,28
388,065	0,27
388,524	0,27
388,983	0,27
389,442	0,27
389,901	0,27
390,36	0,27
390,819	0,27
391,277	0,27
391,736	0,27
392,195	0,27
392,654	0,27
393,112	0,27
393,571	0,27
394,03	0,27
394,488	0,27
394,947	0,27
395,405	0,27
395,864	0,27
396,322	0,27
396,781	0,27
397,239	0,27
397,698	0,27
398,156	0,27
398,614	0,27
399,073	0,27
399,531	0,27
399,989	0,27
400,447	0,27
400,905	0,27
401,364	0,27
401,822	0,27
402,28	0,27
402,738	0,27
403,196	0,27
403,654	0,27
404,112	0,27
404,57	0,27
405,028	0,27
405,486	0,27
405,944	0,27
406,402	0,27
406,859	0,27
407,317	0,27
407,775	0,27
408,233	0,27
408,691	0,27
409,148	0,27
409,606	0,27
410,064	0,27
410,521	0,27
410,979	0,27
411,436	0,27
411,894	0,27
412,351	0,26
412,809	0,26
413,266	0,26
413,724	0,26
414,181	0,26
414,638	0,26
415,096	0,26
415,553	0,26
416,01	0,26
416,467	0,26
416,925	0,26
417,382	0,26
417,839	0,26
418,296	0,26
418,753	0,26
419,21	0,26
419,667	0,26
420,124	0,26
420,581	0,26
421,038	0,26
421,495	0,26
421,952	0,26
422,409	0,26
422,866	0,26
423,322	0,26
423,779	0,26
424,236	0,26
424,693	0,26
425,149	0,26
425,606	0,26
426,063	0,26
426,519	0,26
426,976	0,26
427,433	0,26
427,889	0,26
428,346	0,26
428,802	0,26
429,258	0,26
429,715	0,26
430,171	0,26
430,628	0,26
431,084	0,26
431,54	0,26
431,997	0,26
432,453	0,26
432,909	0,26
433,365	0,26
433,821	0,26
434,277	0,26
434,734	0,26
435,19	0,26
435,646	0,26
436,102	0,26
436,558	0,26
437,014	0,26
437,47	0,26
437,925	0,26
438,381	0,26
438,837	0,26
439,293	0,26
439,749	0,26
440,205	0,26
440,66	0,26
441,116	0,26
441,572	0,26
442,027	0,26
442,483	0,26
442,939	0,26
443,394	0,26
443,85	0,26
444,305	0,26
444,761	0,26
445,216	0,26
445,672	0,26
446,127	0,26
446,582	0,26
447,038	0,26
447,493	0,26
447,948	0,26
448,403	0,26
448,859	0,26
449,314	0,26
449,769	0,26
450,224	0,26
450,679	0,26
451,134	0,26
451,589	0,26
452,044	0,26
452,499	0,26
452,954	0,26
453,409	0,26
453,864	0,26
454,319	0,26
454,774	0,26
455,229	0,26
455,684	0,26
456,138	0,26
456,593	0,25
457,048	0,25
457,503	0,25
457,957	0,25
458,412	0,25
458,866	0,25
459,321	0,25
459,776	0,25
460,23	0,25
460,685	0,26
461,139	0,26
461,593	0,26
462,048	0,26
462,502	0,26
462,957	0,26
463,411	0,26
463,865	0,26
464,319	0,26
464,774	0,26
465,228	0,26
465,682	0,26
466,136	0,26
466,59	0,26
467,044	0,26
467,499	0,26
467,953	0,26
468,407	0,26
468,861	0,26
469,315	0,26
469,768	0,26
470,222	0,26
470,676	0,26
471,13	0,26
471,584	0,26
472,038	0,26
472,491	0,26
472,945	0,26
473,399	0,26
473,852	0,26
474,306	0,26
474,76	0,26
475,213	0,26
475,667	0,26
476,12	0,26
476,574	0,26
477,027	0,26
477,481	0,26
477,934	0,27
478,388	0,27
478,841	0,27
479,294	0,27
479,748	0,27
480,201	0,27
480,654	0,27
481,107	0,27
481,561	0,27
482,014	0,27
482,467	0,27
482,92	0,27
483,373	0,27
483,826	0,27
484,279	0,27
484,732	0,27
485,185	0,28
485,638	0,28
486,091	0,28
486,544	0,28
486,997	0,28
487,449	0,28
487,902	0,28
488,355	0,28
488,808	0,28
489,26	0,28
489,713	0,28
490,166	0,29
490,618	0,29
491,071	0,29
491,523	0,29
491,976	0,29
492,429	0,29
492,881	0,29
493,333	0,29
493,786	0,3
494,238	0,3
494,691	0,3
495,143	0,3
495,595	0,3
496,048	0,3
496,5	0,3
496,952	0,3
497,404	0,31
497,856	0,31
498,309	0,31
498,761	0,31
499,213	0,31
499,665	0,31
500,117	0,32
500,569	0,32
501,021	0,32
501,473	0,32
501,925	0,32
502,377	0,32
502,828	0,33
503,28	0,33
503,732	0,33
504,184	0,33
504,636	0,33
505,087	0,34
505,539	0,34
505,991	0,34
506,442	0,34
506,894	0,34
507,345	0,34
507,797	0,34
508,249	0,35
508,7	0,35
509,151	0,35
509,603	0,35
510,054	0,35
510,506	0,36
510,957	0,36
511,408	0,36
511,86	0,36
512,311	0,36
512,762	0,36
513,213	0,36
513,665	0,37
514,116	0,37
514,567	0,37
515,018	0,37
515,469	0,37
515,92	0,37
516,371	0,38
516,822	0,38
517,273	0,38
517,724	0,38
518,175	0,38
518,626	0,38
519,076	0,38
519,527	0,39
519,978	0,39
520,429	0,39
520,88	0,39
521,33	0,39
521,781	0,39
522,232	0,39
522,682	0,39
523,133	0,39
523,583	0,39
524,034	0,4
524,484	0,4
524,935	0,4
525,385	0,4
525,836	0,4
526,286	0,4
526,736	0,4
527,187	0,4
527,637	0,4
528,087	0,4
528,538	0,4
528,988	0,4
529,438	0,4
529,888	0,4
530,338	0,4
530,788	0,4
531,238	0,4
531,688	0,4
532,139	0,4
532,589	0,4
533,038	0,4
533,488	0,4
533,938	0,4
534,388	0,4
534,838	0,4
535,288	0,4
535,738	0,4
536,187	0,4
536,637	0,4
537,087	0,39
537,537	0,39
537,986	0,39
538,436	0,39
538,885	0,39
539,335	0,39
539,785	0,39
540,234	0,39
540,684	0,38
541,133	0,38
541,582	0,38
542,032	0,38
542,481	0,38
542,931	0,38
543,38	0,38
543,829	0,37
544,278	0,37
544,728	0,37
545,177	0,37
545,626	0,37
546,075	0,37
546,524	0,37
546,973	0,37
547,422	0,37
547,871	0,37
548,32	0,37
548,769	0,37
549,218	0,36
549,667	0,36
550,116	0,36
550,565	0,36
551,014	0,36
551,463	0,36
551,911	0,36
552,36	0,36
552,809	0,36
553,258	0,35
553,706	0,35
554,155	0,35
554,603	0,35
555,052	0,35
555,501	0,35
555,949	0,35
556,398	0,35
556,846	0,35
557,294	0,34
557,743	0,34
558,191	0,34
558,64	0,34
559,088	0,34
559,536	0,34
559,985	0,34
560,433	0,33
560,881	0,33
561,329	0,33
561,777	0,33
562,225	0,33
562,674	0,33
563,122	0,33
563,57	0,33
564,018	0,33
564,466	0,33
564,914	0,32
565,362	0,32
565,809	0,32
566,257	0,32
566,705	0,32
567,153	0,32
567,601	0,32
568,048	0,31
568,496	0,31
568,944	0,31
569,392	0,31
569,839	0,31
570,287	0,31
570,734	0,31
571,182	0,31
571,63	0,31
572,077	0,31
572,525	0,3
572,972	0,3
573,419	0,3
573,867	0,3
574,314	0,3
574,761	0,3
575,209	0,3
575,656	0,3
576,103	0,3
576,551	0,3
576,998	0,3
577,445	0,3
577,892	0,29
578,339	0,29
578,786	0,29
579,233	0,29
579,68	0,29
580,127	0,29
580,574	0,29
581,021	0,29
581,468	0,29
581,915	0,29
582,362	0,29
582,809	0,29
583,255	0,28
583,702	0,28
584,149	0,28
584,596	0,28
585,042	0,28
585,489	0,28
585,936	0,28
586,382	0,28
586,829	0,28
587,275	0,28
587,722	0,28
588,168	0,28
588,615	0,28
589,061	0,28
589,508	0,27
589,954	0,27
590,4	0,27
590,847	0,27
591,293	0,27
591,739	0,27
592,185	0,27
592,632	0,27
593,078	0,27
593,524	0,27
593,97	0,27
594,416	0,27
594,862	0,27
595,308	0,27
595,754	0,27
596,2	0,27
596,646	0,27
597,092	0,27
597,538	0,27
597,984	0,27
598,43	0,27
598,876	0,27
599,321	0,27
599,767	0,27
600,213	0,27
600,659	0,27
601,104	0,27
601,55	0,26
601,995	0,26
602,441	0,26
602,887	0,26
603,332	0,26
603,778	0,26
604,223	0,26
604,668	0,26
605,114	0,26
605,559	0,26
606,005	0,26
606,45	0,26
606,895	0,26
607,341	0,26
607,786	0,26
608,231	0,26
608,676	0,26
609,121	0,25
609,566	0,25
610,012	0,25
610,457	0,25
610,902	0,25
611,347	0,24
611,792	0,24
612,237	0,24
612,682	0,24
613,127	0,24
613,571	0,24
614,016	0,24
614,461	0,25
614,906	0,25
615,351	0,25
615,795	0,25
616,24	0,25
616,685	0,25
617,129	0,25
617,574	0,25
618,019	0,25
618,463	0,25
618,908	0,25
619,352	0,25
619,797	0,25
620,241	0,25
620,686	0,25
621,13	0,25
621,574	0,25
622,019	0,25
622,463	0,25
622,907	0,25
623,352	0,25
623,796	0,25
624,24	0,25
624,684	0,25
625,128	0,25
625,572	0,25
626,016	0,25
626,461	0,25
626,905	0,25
627,349	0,25
627,793	0,25
628,236	0,25
628,68	0,25
629,124	0,25
629,568	0,24
630,012	0,24
630,456	0,24
630,9	0,24
631,343	0,24
631,787	0,24
632,231	0,24
632,674	0,24
633,118	0,24
633,562	0,24
634,005	0,24
634,449	0,24
634,892	0,24
635,336	0,24
635,779	0,24
636,223	0,24
636,666	0,24
637,109	0,24
637,553	0,24
637,996	0,24
638,439	0,24
638,883	0,24
639,326	0,24
639,769	0,24
640,212	0,24
640,655	0,24
641,099	0,24
641,542	0,24
641,985	0,24
642,428	0,24
642,871	0,24
643,314	0,24
643,757	0,24
644,2	0,24
644,643	0,24
645,085	0,24
645,528	0,24
645,971	0,24
646,414	0,24
646,857	0,24
647,299	0,24
647,742	0,23
648,185	0,23
648,627	0,23
649,07	0,23
649,513	0,23
649,955	0,23
650,398	0,23
650,84	0,23
651,283	0,23
651,725	0,23
652,168	0,23
652,61	0,23
653,052	0,23
653,495	0,23
653,937	0,19
654,379	0,15
654,821	0,15
655,264	0,15
655,706	0,15
656,148	0,15
656,59	0,15
657,032	0,15
657,474	0,15
657,916	0,15
658,358	0,15
658,8	0,18
659,242	0,23
659,684	0,23
660,126	0,23
660,568	0,23
661,01	0,23
661,452	0,23
661,894	0,23
662,335	0,23
662,777	0,23
663,219	0,23
663,661	0,23
664,102	0,23
664,544	0,23
664,985	0,23
665,427	0,23
665,869	0,23
666,31	0,23
666,752	0,23
667,193	0,23
667,634	0,23
668,076	0,23
668,517	0,23
668,959	0,23
669,4	0,23
669,841	0,23
670,282	0,23
670,724	0,23
671,165	0,23
671,606	0,23
672,047	0,23
672,488	0,23
672,929	0,23
673,37	0,23
673,811	0,23
674,252	0,23
674,693	0,23
675,134	0,22
675,575	0,22
676,016	0,22
676,457	0,22
676,898	0,22
677,339	0,22
677,78	0,22
678,22	0,22
678,661	0,22
679,102	0,22
679,542	0,22
679,983	0,22
680,424	0,22
680,864	0,22
681,305	0,22
681,745	0,22
682,186	0,22
682,626	0,22
683,067	0,22
683,507	0,22
683,948	0,22
684,388	0,22
684,828	0,22
685,269	0,22
685,709	0,22
686,149	0,22
686,589	0,22
687,029	0,22
687,47	0,22
687,91	0,22
688,35	0,22
688,79	0,22
689,23	0,22
689,67	0,22
690,11	0,22
690,55	0,22
690,99	0,22
691,43	0,21
691,87	0,21
692,31	0,21
692,749	0,21
693,189	0,21
693,629	0,21
694,069	0,21
694,508	0,21
694,948	0,21
695,388	0,21
695,827	0,21
696,267	0,21
696,706	0,21
697,146	0,21
697,586	0,21
698,025	0,21
698,464	0,21
698,904	0,21
699,343	0,21
699,783	0,21
700,222	0,21
700,661	0,21
701,101	0,21
701,54	0,21
701,979	0,21
702,418	0,21
702,857	0,21
703,297	0,21
703,736	0,21
704,175	0,21
704,614	0,21
705,053	0,21
705,492	0,21
705,931	0,21
706,37	0,21
706,809	0,21
707,248	0,21
707,687	0,21
708,125	0,21
708,564	0,21
709,003	0,21
709,442	0,21
709,88	0,21
710,319	0,21
710,758	0,21
711,196	0,21
711,635	0,21
712,074	0,21
712,512	0,21
712,951	0,2
713,389	0,2
713,828	0,2
714,266	0,2
714,705	0,2
715,143	0,2
715,581	0,2
716,02	0,2
716,458	0,2
716,896	0,2
717,334	0,2
717,773	0,2
718,211	0,2
718,649	0,2
719,087	0,2
719,525	0,2
719,963	0,2
720,401	0,2
720,839	0,2
721,277	0,2
721,715	0,2
722,153	0,2
722,591	0,2
723,029	0,2
723,467	0,2
723,905	0,2
724,342	0,2
724,78	0,2
725,218	0,2
725,656	0,2
726,093	0,2
726,531	0,2
726,969	0,2
727,406	0,2
727,844	0,2
728,281	0,2
728,719	0,2
729,156	0,2
729,594	0,2
730,031	0,2
730,469	0,19
730,906	0,19
731,343	0,19
731,781	0,19
732,218	0,19
732,655	0,19
733,092	0,19
733,53	0,19
733,967	0,19
734,404	0,19
734,841	0,19
735,278	0,19
735,715	0,19
736,152	0,19
736,589	0,19
737,026	0,19
737,463	0,19
737,9	0,19
738,337	0,19
738,774	0,18
739,211	0,18
739,647	0,18
740,084	0,18
740,521	0,18
740,958	0,18
741,394	0,18
741,831	0,18
742,268	0,18
742,704	0,18
743,141	0,18
743,577	0,18
744,014	0,18
744,45	0,18
744,887	0,18
745,323	0,18
745,76	0,18
746,196	0,18
746,632	0,18
747,069	0,18
747,505	0,18
747,941	0,18
748,378	0,18
748,814	0,18
749,25	0,18
749,686	0,18
750,122	0,18
750,558	0,18
750,994	0,18
751,43	0,18
751,866	0,18
752,302	0,19
752,738	0,19
753,174	0,19
753,61	0,19
754,046	0,19
754,482	0,19
754,918	0,19
755,354	0,19
755,789	0,19
756,225	0,19
756,661	0,19
757,096	0,19
757,532	0,19
757,968	0,19
758,403	0,19
758,839	0,18
759,274	0,18
759,71	0,18
760,145	0,18
760,581	0,17
761,016	0,17
761,452	0,17
761,887	0,17
762,322	0,16
762,758	0,16
763,193	0,16
763,628	0,15
764,063	0,15
764,499	0,15
764,934	0,14
765,369	0,14
765,804	0,14
766,239	0,13
766,674	0,13
767,109	0,12
767,544	0,12
767,979	0,12
768,414	0,11
768,849	0,1
769,284	0,1
769,719	0,09
770,154	0,09
770,588	0,08
771,023	0,08
771,458	0,07
771,893	0,06
772,327	0,05
772,762	0,05
773,197	0,04
773,631	0,04
774,066	0,03
774,5	0,02
774,935	0,01
775,369	0,01
775,804	0
776,238	-0
776,673	-0,01
777,107	-0,02
777,541	-0,02
777,976	-0,03
778,41	-0,03
778,844	-0,04
779,279	-0,04
779,713	-0,04
780,147	-0,05
780,581	-0,05
781,015	-0,06
781,449	-0,06
781,883	-0,07
782,317	-0,08
782,751	-0,09
783,185	-0,1
783,619	-0,1
784,053	-0,12
784,487	-0,12
784,921	-0,13
785,355	-0,13
785,789	-0,14
786,223	-0,15
786,656	-0,16
787,09	-0,17
787,524	-0,18
787,957	-0,19
788,391	-0,21
788,825	-0,22
789,258	-0,23
789,692	-0,25
790,125	-0,28
790,559	-0,29
790,992	-0,31
791,426	-0,34
791,859	-0,35
792,293	-0,39
792,726	-0,4
793,159	-0,42
793,593	-0,44
794,026	-0,47
794,459	-0,49
794,892	-0,53
795,326	-0,55
795,759	-0,59
796,192	-0,64
796,625	-0,69
797,058	-0,72
797,491	-0,77
797,924	-0,81
798,357	-0,87
798,79	-0,92
799,223	-0,96
799,656	-1,02
800,089	-1,07
800,522	-1,12
800,955	-1,17
801,387	-1,23
801,82	-1,28
802,253	-1,35
802,686	-1,43
803,118	-1,49
803,551	-1,54
803,984	-1,6
804,416	-1,66
804,849	-1,78
805,281	-2,09
805,714	-2,43
806,146	-2,69
806,579	-2,87
807,011	-2,99
807,444	-3,05
807,876	-3,08
808,308	-3,1
808,741	-3,13
809,173	-3,18
809,605	-3,19
810,037	-3,24
810,47	-3,1
810,902	-2,87
811,334	-2,68
811,766	-2,44
812,198	-2,06
812,63	-1,84
813,062	-1,75
813,494	-1,68
813,926	-1,6
814,358	-1,55
814,79	-1,47
815,222	-1,41
815,654	-1,36
816,086	-1,3
816,518	-1,25
816,949	-1,19
817,381	-1,15
817,813	-1,13
818,245	-1,09
818,676	-1,05
819,108	-1,01
819,54	-1
819,971	-0,97
820,403	-0,92
820,834	-0,91
821,266	-0,87
821,697	-0,84
822,129	-0,82
822,56	-0,8
822,991	-0,77
823,423	-0,75
823,854	-0,74
824,286	-0,71
824,717	-0,69
825,148	-0,68
825,579	-0,67
826,01	-0,65
826,442	-0,64
826,873	-0,63
827,304	-0,59
827,735	-0,59
828,166	-0,6
828,597	-0,59
829,028	-0,59
829,459	-0,59
829,89	-0,59
830,321	-0,55
830,752	-0,55
831,183	-0,53
831,613	-0,52
832,044	-0,52
832,475	-0,5
832,906	-0,5
833,336	-0,5
833,767	-0,5
834,198	-0,49
834,628	-0,48
835,059	-0,51
835,49	-0,52
835,92	-0,49
836,351	-0,49
836,781	-0,5
837,212	-0,5
837,642	-0,5
838,072	-0,48
838,503	-0,49
838,933	-0,47
839,364	-0,47
839,794	-0,44
840,224	-0,43
840,654	-0,48
841,085	-0,48
841,515	-0,45
841,945	-0,46
842,375	-0,41
842,805	-0,4
843,235	-0,39
843,665	-0,41
844,095	-0,38
844,525	-0,41
844,955	-0,42
845,385	-0,39
845,815	-0,38
846,245	-0,41
846,675	-0,41
847,105	-0,44
847,534	-0,44
847,964	-0,42
848,394	-0,4
848,824	-0,44
849,253	-0,44
849,683	-0,44
850,112	-0,44
850,542	-0,47
850,972	-0,47
851,401	-0,46
851,831	-0,43
852,26	-0,44
852,69	-0,48
853,119	-0,48
853,548	-0,48
853,978	-0,48
854,407	-0,47
854,836	-0,47
855,266	-0,46
855,695	-0,47
856,124	-0,48
856,553	-0,49
856,983	-0,5
857,412	-0,49
857,841	-0,51
858,27	-0,51
858,699	-0,52
859,128	-0,55
859,557	-0,56
859,986	-0,57
860,415	-0,55
860,844	-0,52
861,273	-0,53
861,702	-0,54
862,13	-0,52
862,559	-0,54
862,988	-0,52
863,417	-0,51
863,845	-0,5
864,274	-0,5
864,703	-0,5
865,131	-0,5
865,56	-0,52
865,989	-0,54
866,417	-0,5
866,846	-0,51
867,274	-0,49
867,703	-0,51
868,131	-0,51
868,559	-0,52
868,988	-0,54
869,416	-0,54
869,844	-0,54
870,273	-0,57
870,701	-0,54
871,129	-0,57
871,557	-0,59
871,986	-0,6
872,414	-0,61
872,842	-0,58
873,27	-0,56
873,698	-0,54
874,126	-0,58
874,554	-0,56
874,982	-0,56
875,41	-0,59
875,838	-0,55
876,266	-0,52
876,694	-0,52
877,122	-0,51
877,549	-0,57
877,977	-0,53
878,405	-0,55
878,833	-0,52
879,26	-0,51
879,688	-0,52
880,116	-0,49
880,543	-0,47
880,971	-0,47
881,399	-0,49
881,826	-0,5
882,254	-0,48
882,681	-0,51
883,109	-0,47
883,536	-0,49
883,963	-0,5
884,391	-0,48
884,818	-0,46
885,245	-0,5
885,673	-0,52
886,1	-0,5
886,527	-0,5
886,954	-0,47
887,381	-0,48
887,809	-0,49
888,236	-0,5
888,663	-0,51
889,09	-0,54
889,517	-0,57
889,944	-0,56
890,371	-0,54
890,798	-0,55
891,225	-0,54
891,652	-0,56
892,078	-0,53
892,505	-0,56
892,932	-0,51
893,359	-0,52
893,786	-0,52
894,212	-0,49
894,639	-0,51
895,066	-0,53
895,492	-0,48
895,919	-0,47
896,346	-0,47
896,772	-0,48
897,199	-0,45
897,625	-0,48
898,052	-0,45
898,478	-0,43
898,904	-0,45
899,331	-0,44
899,757	-0,46
900,183	-0,49
900,61	-0,47
901,036	-0,48
901,462	-0,48
901,888	-0,47
902,315	-0,46
902,741	-0,51
903,167	-0,5
903,593	-0,53
904,019	-0,52
904,445	-0,49
904,871	-0,51
905,297	-0,54
905,723	-0,52
906,149	-0,53
906,575	-0,53
907,001	-0,54
907,427	-0,51
907,852	-0,51
908,278	-0,5
908,704	-0,48
909,13	-0,48
909,555	-0,47
909,981	-0,46
910,407	-0,47
910,832	-0,46
911,258	-0,46
911,684	-0,46
912,109	-0,47
912,535	-0,48
912,96	-0,45
913,386	-0,49
913,811	-0,48
914,236	-0,49
914,662	-0,47
915,087	-0,5
915,512	-0,5
915,938	-0,52
916,363	-0,5
916,788	-0,52
917,213	-0,5
917,639	-0,54
918,064	-0,52
918,489	-0,52
918,914	-0,53
919,339	-0,54
919,764	-0,52
920,189	-0,52
920,614	-0,53
921,039	-0,54
921,464	-0,5
921,889	-0,53
922,314	-0,53
922,738	-0,57
923,163	-0,57
923,588	-0,57
924,013	-0,55
924,437	-0,55
924,862	-0,56
925,287	-0,53
925,711	-0,54
926,136	-0,55
926,561	-0,53
926,985	-0,53
927,41	-0,5
927,834	-0,49
928,259	-0,45
928,683	-0,44
929,108	-0,42
929,532	-0,42
929,956	-0,42
930,381	-0,41
930,805	-0,42
931,229	-0,4
931,653	-0,38
932,078	-0,38
932,502	-0,39
932,926	-0,41
933,35	-0,41
933,774	-0,41
934,198	-0,39
934,622	-0,38
935,046	-0,39
935,47	-0,39
935,894	-0,39
936,318	-0,4
936,742	-0,4
937,166	-0,41
937,59	-0,4
938,014	-0,42
938,437	-0,42
938,861	-0,45
939,285	-0,45
939,709	-0,45
940,132	-0,45
940,556	-0,46
940,98	-0,45
941,403	-0,43
941,827	-0,43
942,25	-0,45
942,674	-0,43
943,097	-0,43
943,521	-0,43
943,944	-0,44
944,368	-0,42
944,791	-0,41
945,214	-0,43
945,638	-0,43
946,061	-0,48
946,484	-0,49
946,907	-0,47
947,331	-0,47
947,754	-0,51
948,177	-0,47
948,6	-0,48
949,023	-0,47
949,446	-0,48
949,869	-0,45
950,292	-0,45
950,715	-0,4
951,138	-0,38
951,561	-0,36
951,984	-0,37
952,407	-0,36
952,83	-0,35
953,252	-0,31
953,675	-0,31
954,098	-0,32
954,521	-0,31
954,943	-0,31
955,366	-0,32
955,789	-0,31
956,211	-0,32
956,634	-0,32
957,056	-0,3
957,479	-0,32
957,902	-0,35
958,324	-0,34
958,746	-0,32
959,169	-0,33
959,591	-0,33
960,014	-0,34
960,436	-0,33
960,858	-0,33
961,281	-0,33
961,703	-0,35
962,125	-0,34
962,547	-0,32
962,969	-0,33
963,391	-0,34
963,814	-0,35
964,236	-0,34
964,658	-0,31
965,08	-0,32
965,502	-0,31
965,924	-0,3
966,346	-0,29
966,768	-0,29
967,189	-0,31
967,611	-0,3
968,033	-0,3
968,455	-0,28
968,877	-0,3
969,298	-0,31
969,72	-0,32
970,142	-0,32
970,563	-0,32
970,985	-0,31
971,407	-0,3
971,828	-0,28
972,25	-0,28
972,671	-0,26
973,093	-0,27
973,514	-0,25
973,936	-0,24
974,357	-0,22
974,778	-0,23
975,2	-0,22
975,621	-0,21
976,042	-0,19
976,464	-0,19
976,885	-0,18
977,306	-0,18
977,727	-0,17
978,148	-0,16
978,57	-0,15
978,991	-0,13
979,412	-0,12
979,833	-0,11
980,254	-0,11
980,675	-0,11
981,096	-0,11
981,517	-0,1
981,937	-0,09
982,358	-0,08
982,779	-0,08
983,2	-0,08
983,621	-0,08
984,042	-0,08
984,462	-0,07
984,883	-0,06
985,304	-0,05
985,724	-0,05
986,145	-0,05
986,565	-0,04
986,986	-0,03
987,407	-0,03
987,827	-0,02
988,248	-0,01
988,668	-0,01
989,088	-0
989,509	0
989,929	0,01
990,35	0,02
990,77	0,02
991,19	0,03
991,61	0,03
992,031	0,04
992,451	0,04
992,871	0,05
993,291	0,05
993,711	0,06
994,131	0,06
994,551	0,06
994,971	0,07
995,391	0,07
995,811	0,07
996,231	0,07
996,651	0,07
997,071	0,08
997,491	0,08
997,911	0,08
998,331	0,08
998,75	0,09
999,17	0,09
999,59	0,09
1000,009	0,09
1000,429	0,09
1000,849	0,1
1001,268	0,1
1001,688	0,1
1002,107	0,1
1002,527	0,1
1002,946	0,11
1003,366	0,11
1003,785	0,11
1004,205	0,11
1004,624	0,11
1005,044	0,11
1005,463	0,11
1005,882	0,11
1006,301	0,11
1006,721	0,11
1007,14	0,11
1007,559	0,11
1007,978	0,11
1008,397	0,11
1008,816	0,11
1009,235	0,11
1009,655	0,11
1010,074	0,11
1010,492	0,11
1010,911	0,11
1011,33	0,11
1011,749	0,11
1012,168	0,11
1012,587	0,11
1013,006	0,1
1013,425	0,1
1013,843	0,1
1014,262	0,1
1014,681	0,1
1015,099	0,1
1015,518	0,1
1015,937	0,1
1016,355	0,1
1016,774	0,1
1017,192	0,1
1017,611	0,1
1018,029	0,1
1018,448	0,11
1018,866	0,11
1019,285	0,11
1019,703	0,11
1020,121	0,11
1020,54	0,11
1020,958	0,11
1021,376	0,11
1021,794	0,11
1022,213	0,11
1022,631	0,11
1023,049	0,11
1023,467	0,11
1023,885	0,11
1024,303	0,11
1024,721	0,11
1025,139	0,11
1025,557	0,11
1025,975	0,1
1026,393	0,1
1026,811	0,1
1027,229	0,1
1027,647	0,1
1028,065	0,1
1028,482	0,1
1028,9	0,1
1029,318	0,1
1029,735	0,1
1030,153	0,1
1030,571	0,1
1030,988	0,1
1031,406	0,1
1031,823	0,1
1032,241	0,1
1032,659	0,1
1033,076	0,1
1033,493	0,1
1033,911	0,1
1034,328	0,11
1034,746	0,11
1035,163	0,11
1035,58	0,11
1035,997	0,11
1036,415	0,11
1036,832	0,11
1037,249	0,11
1037,666	0,11
1038,083	0,1
1038,501	0,1
1038,918	0,1
1039,335	0,1
1039,752	0,1
1040,169	0,1
1040,586	0,1
1041,003	0,1
1041,419	0,1
1041,836	0,1
1042,253	0,1
1042,67	0,1
1043,087	0,1
1043,504	0,1
1043,92	0,1
1044,337	0,1
1044,754	0,1
1045,17	0,1
1045,587	0,1
1046,004	0,1
1046,42	0,1
1046,837	0,1
1047,253	0,1
1047,67	0,09
1048,086	0,09
1048,503	0,09
1048,919	0,09
1049,335	0,09
1049,752	0,09
1050,168	0,09
1050,584	0,09
1051,001	0,09
1051,417	0,09
1051,833	0,09
1052,249	0,09
1052,665	0,09
1053,081	0,09
1053,497	0,09
1053,914	0,09
1054,33	0,09
1054,746	0,09
1055,162	0,1
1055,578	0,09
1055,993	0,1
1056,409	0,1
1056,825	0,1
1057,241	0,09
1057,657	0,09
1058,073	0,09
1058,488	0,09
1058,904	0,09
1059,32	0,09
1059,736	0,09
1060,151	0,09
1060,567	0,09
1060,982	0,09
1061,398	0,09
1061,813	0,09
1062,229	0,09
1062,644	0,09
1063,06	0,09
1063,475	0,09
1063,891	0,09
1064,306	0,09
1064,721	0,09
1065,137	0,09
1065,552	0,09
1065,967	0,09
1066,382	0,09
1066,798	0,09
1067,213	0,09
1067,628	0,09
1068,043	0,09
1068,458	0,09
1068,873	0,09
1069,288	0,09
1069,703	0,09
1070,118	0,09
1070,533	0,09
1070,948	0,1
1071,363	0,1
1071,778	0,1
1072,193	0,1
1072,607	0,1
1073,022	0,1
1073,437	0,1
1073,852	0,1
1074,266	0,1
1074,681	0,1
1075,096	0,1
1075,51	0,1
1075,925	0,1
1076,339	0,1
1076,754	0,1
1077,168	0,09
1077,583	0,09
1077,997	0,09
1078,412	0,09
1078,826	0,09
1079,24	0,09
1079,655	0,09
1080,069	0,09
1080,483	0,09
1080,897	0,09
1081,312	0,09
1081,726	0,09
1082,14	0,09
1082,554	0,09
1082,968	0,09
1083,382	0,09
1083,796	0,09
1084,21	0,09
1084,624	0,09
1085,038	0,09
1085,452	0,09
1085,866	0,09
1086,28	0,09
1086,694	0,09
1087,108	0,09
1087,521	0,08
1087,935	0,08
1088,349	0,08
1088,763	0,08
1089,176	0,08
1089,59	0,08
1090,004	0,08
1090,417	0,08
1090,831	0,07
1091,244	0,07
1091,658	0,07
1092,071	0,07
1092,485	0,07
1092,898	0,07
1093,312	0,07
1093,725	0,06
1094,138	0,06
1094,552	0,06
1094,965	0,06
1095,378	0,06
1095,791	0,06
1096,205	0,06
1096,618	0,06
1097,031	0,06
1097,444	0,06
1097,857	0,06
1098,27	0,06
1098,683	0,06
1099,096	0,06
1099,509	0,06
1099,922	0,05
1100,335	0,05
1100,748	0,05
1101,161	0,05
1101,574	0,05
1101,986	0,05
1102,399	0,05
1102,812	0,04
1103,225	0,04
1103,637	0,04
1104,05	0,04
1104,463	0,04
1104,875	0,03
1105,288	0,03
1105,7	0,03
1106,113	0,03
1106,525	0,02
1106,938	0,02
1107,35	0,02
1107,763	0,01
1108,175	0,01
1108,588	0,01
1109	0
1109,412	0
1109,824	0
1110,237	0
1110,649	-0
1111,061	-0,01
