Data from 18C-808nm-8A_Absorbance__1360__01360.txt Node

Date: Mon Jul 17 17:13:03 CEST 2023
User: Laser008
Spectrometer: MAYP115816
Trigger mode: 0
Integration Time (sec): 2,500000E-1
Scans to average: 10
Electric dark correction enabled: true
Nonlinearity correction enabled: true
Boxcar width: 5
XAxis mode: Wavelengths
Number of Pixels in Spectrum: 2068
>>>>>Begin Spectral Data<<<<<
198,914	-0,67
199,384	-0,48
199,855	-0,36
200,325	-0,29
200,796	-0,27
201,266	-0,22
201,737	-0,2
202,207	-0,19
202,677	-0,18
203,147	-0,17
203,618	-0,13
204,088	-0,12
204,558	-0,11
205,028	-0,09
205,498	-0,1
205,968	-0,1
206,439	-0,11
206,909	-0,11
207,379	-0,11
207,849	-0,11
208,319	-0,12
208,789	-0,13
209,258	-0,12
209,728	-0,13
210,198	-0,14
210,668	-0,13
211,138	-0,13
211,608	-0,13
212,077	-0,13
212,547	-0,13
213,017	-0,13
213,486	-0,13
213,956	-0,14
214,426	-0,15
214,895	-0,15
215,365	-0,15
215,834	-0,14
216,304	-0,15
216,773	-0,15
217,243	-0,17
217,712	-0,17
218,181	-0,17
218,651	-0,17
219,12	-0,17
219,589	-0,17
220,058	-0,16
220,528	-0,17
220,997	-0,18
221,466	-0,19
221,935	-0,2
222,404	-0,2
222,873	-0,19
223,342	-0,19
223,812	-0,18
224,281	-0,18
224,749	-0,19
225,218	-0,21
225,687	-0,21
226,156	-0,2
226,625	-0,19
227,094	-0,19
227,563	-0,18
228,031	-0,2
228,5	-0,2
228,969	-0,21
229,438	-0,21
229,906	-0,2
230,375	-0,18
230,844	-0,18
231,312	-0,19
231,781	-0,19
232,249	-0,18
232,718	-0,18
233,186	-0,16
233,655	-0,17
234,123	-0,16
234,591	-0,16
235,06	-0,16
235,528	-0,17
235,996	-0,16
236,465	-0,15
236,933	-0,15
237,401	-0,15
237,869	-0,15
238,337	-0,15
238,805	-0,13
239,274	-0,13
239,742	-0,13
240,21	-0,13
240,678	-0,12
241,146	-0,12
241,614	-0,12
242,081	-0,11
242,549	-0,11
243,017	-0,11
243,485	-0,13
243,953	-0,13
244,421	-0,12
244,888	-0,11
245,356	-0,12
245,824	-0,11
246,291	-0,12
246,759	-0,13
247,227	-0,13
247,694	-0,12
248,162	-0,12
248,629	-0,1
249,097	-0,11
249,564	-0,12
250,032	-0,14
250,499	-0,13
250,967	-0,14
251,434	-0,14
251,901	-0,13
252,369	-0,13
252,836	-0,15
253,303	-0,16
253,77	-0,17
254,237	-0,17
254,705	-0,17
255,172	-0,16
255,639	-0,16
256,106	-0,18
256,573	-0,18
257,04	-0,18
257,507	-0,19
257,974	-0,19
258,441	-0,17
258,908	-0,18
259,375	-0,19
259,841	-0,19
260,308	-0,19
260,775	-0,19
261,242	-0,18
261,709	-0,18
262,175	-0,19
262,642	-0,18
263,109	-0,17
263,575	-0,19
264,042	-0,18
264,508	-0,17
264,975	-0,19
265,441	-0,2
265,908	-0,21
266,374	-0,2
266,841	-0,22
267,307	-0,22
267,773	-0,21
268,24	-0,2
268,706	-0,2
269,172	-0,21
269,639	-0,22
270,105	-0,21
270,571	-0,21
271,037	-0,21
271,503	-0,22
271,969	-0,21
272,435	-0,21
272,902	-0,23
273,368	-0,25
273,834	-0,24
274,3	-0,25
274,765	-0,24
275,231	-0,24
275,697	-0,22
276,163	-0,22
276,629	-0,23
277,095	-0,24
277,56	-0,24
278,026	-0,23
278,492	-0,22
278,958	-0,22
279,423	-0,22
279,889	-0,22
280,354	-0,23
280,82	-0,23
281,286	-0,24
281,751	-0,23
282,217	-0,22
282,682	-0,21
283,147	-0,21
283,613	-0,22
284,078	-0,23
284,544	-0,24
285,009	-0,24
285,474	-0,23
285,939	-0,24
286,405	-0,24
286,87	-0,24
287,335	-0,23
287,8	-0,23
288,265	-0,21
288,73	-0,22
289,195	-0,24
289,66	-0,23
290,125	-0,22
290,59	-0,23
291,055	-0,22
291,52	-0,21
291,985	-0,22
292,45	-0,23
292,915	-0,23
293,38	-0,24
293,844	-0,22
294,309	-0,2
294,774	-0,19
295,239	-0,2
295,703	-0,21
296,168	-0,2
296,632	-0,19
297,097	-0,18
297,562	-0,17
298,026	-0,17
298,491	-0,17
298,955	-0,17
299,419	-0,17
299,884	-0,17
300,348	-0,17
300,813	-0,15
301,277	-0,16
301,741	-0,16
302,205	-0,16
302,67	-0,14
303,134	-0,15
303,598	-0,15
304,062	-0,15
304,526	-0,15
304,99	-0,17
305,454	-0,16
305,919	-0,15
306,383	-0,16
306,847	-0,15
307,31	-0,16
307,774	-0,18
308,238	-0,18
308,702	-0,17
309,166	-0,18
309,63	-0,18
310,094	-0,15
310,557	-0,16
311,021	-0,16
311,485	-0,16
311,948	-0,15
312,412	-0,15
312,876	-0,14
313,339	-0,14
313,803	-0,14
314,266	-0,13
314,73	-0,13
315,193	-0,13
315,657	-0,12
316,12	-0,12
316,584	-0,11
317,047	-0,11
317,51	-0,1
317,973	-0,1
318,437	-0,09
318,9	-0,08
319,363	-0,08
319,826	-0,08
320,29	-0,09
320,753	-0,09
321,216	-0,09
321,679	-0,08
322,142	-0,08
322,605	-0,09
323,068	-0,09
323,531	-0,09
323,994	-0,09
324,457	-0,09
324,92	-0,08
325,382	-0,07
325,845	-0,07
326,308	-0,06
326,771	-0,06
327,233	-0,06
327,696	-0,06
328,159	-0,05
328,622	-0,04
329,084	-0,03
329,547	-0,03
330,009	-0,02
330,472	-0,02
330,934	-0,02
331,397	-0,02
331,859	-0,02
332,322	-0,01
332,784	-0,01
333,246	0,01
333,709	0,01
334,171	0,01
334,633	0,02
335,096	0,01
335,558	0,02
336,02	0,03
336,482	0,03
336,944	0,04
337,406	0,05
337,868	0,05
338,331	0,05
338,793	0,05
339,255	0,05
339,717	0,06
340,178	0,06
340,64	0,07
341,102	0,07
341,564	0,08
342,026	0,09
342,488	0,1
342,949	0,11
343,411	0,13
343,873	0,15
344,335	0,18
344,796	0,21
345,258	0,24
345,719	0,27
346,181	0,31
346,643	0,34
347,104	0,36
347,566	0,38
348,027	0,4
348,488	0,41
348,95	0,42
349,411	0,44
349,873	0,45
350,334	0,46
350,795	0,47
351,256	0,48
351,718	0,48
352,179	0,49
352,64	0,49
353,101	0,49
353,562	0,49
354,023	0,49
354,484	0,5
354,945	0,5
355,406	0,5
355,867	0,5
356,328	0,5
356,789	0,5
357,25	0,5
357,711	0,5
358,172	0,51
358,633	0,51
359,093	0,51
359,554	0,51
360,015	0,51
360,476	0,51
360,936	0,51
361,397	0,51
361,858	0,51
362,318	0,51
362,779	0,51
363,239	0,51
363,7	0,51
364,16	0,51
364,621	0,51
365,081	0,51
365,541	0,51
366,002	0,51
366,462	0,51
366,922	0,51
367,383	0,51
367,843	0,51
368,303	0,51
368,763	0,51
369,223	0,51
369,684	0,51
370,144	0,51
370,604	0,51
371,064	0,51
371,524	0,51
371,984	0,51
372,444	0,51
372,904	0,51
373,363	0,51
373,823	0,51
374,283	0,51
374,743	0,51
375,203	0,51
375,663	0,51
376,122	0,51
376,582	0,51
377,042	0,51
377,501	0,51
377,961	0,51
378,42	0,51
378,88	0,51
379,34	0,51
379,799	0,5
380,259	0,5
380,718	0,5
381,177	0,5
381,637	0,5
382,096	0,5
382,555	0,5
383,015	0,5
383,474	0,5
383,933	0,5
384,393	0,5
384,852	0,5
385,311	0,5
385,77	0,5
386,229	0,5
386,688	0,5
387,147	0,5
387,606	0,5
388,065	0,5
388,524	0,5
388,983	0,5
389,442	0,5
389,901	0,5
390,36	0,5
390,819	0,5
391,277	0,5
391,736	0,5
392,195	0,49
392,654	0,49
393,112	0,49
393,571	0,49
394,03	0,49
394,488	0,49
394,947	0,49
395,405	0,49
395,864	0,49
396,322	0,49
396,781	0,49
397,239	0,49
397,698	0,49
398,156	0,49
398,614	0,49
399,073	0,49
399,531	0,49
399,989	0,49
400,447	0,49
400,905	0,49
401,364	0,49
401,822	0,49
402,28	0,49
402,738	0,49
403,196	0,49
403,654	0,49
404,112	0,49
404,57	0,49
405,028	0,49
405,486	0,49
405,944	0,49
406,402	0,49
406,859	0,49
407,317	0,49
407,775	0,49
408,233	0,49
408,691	0,49
409,148	0,49
409,606	0,49
410,064	0,49
410,521	0,49
410,979	0,48
411,436	0,48
411,894	0,48
412,351	0,48
412,809	0,48
413,266	0,48
413,724	0,48
414,181	0,48
414,638	0,48
415,096	0,48
415,553	0,48
416,01	0,48
416,467	0,48
416,925	0,48
417,382	0,48
417,839	0,48
418,296	0,48
418,753	0,48
419,21	0,48
419,667	0,48
420,124	0,48
420,581	0,48
421,038	0,48
421,495	0,48
421,952	0,48
422,409	0,48
422,866	0,48
423,322	0,48
423,779	0,48
424,236	0,48
424,693	0,48
425,149	0,48
425,606	0,48
426,063	0,48
426,519	0,48
426,976	0,48
427,433	0,48
427,889	0,48
428,346	0,48
428,802	0,48
429,258	0,48
429,715	0,48
430,171	0,48
430,628	0,48
431,084	0,48
431,54	0,48
431,997	0,48
432,453	0,48
432,909	0,48
433,365	0,48
433,821	0,47
434,277	0,47
434,734	0,47
435,19	0,47
435,646	0,47
436,102	0,47
436,558	0,47
437,014	0,47
437,47	0,47
437,925	0,47
438,381	0,47
438,837	0,48
439,293	0,48
439,749	0,47
440,205	0,47
440,66	0,47
441,116	0,47
441,572	0,47
442,027	0,47
442,483	0,47
442,939	0,47
443,394	0,47
443,85	0,47
444,305	0,47
444,761	0,47
445,216	0,47
445,672	0,47
446,127	0,48
446,582	0,48
447,038	0,48
447,493	0,48
447,948	0,48
448,403	0,48
448,859	0,48
449,314	0,48
449,769	0,48
450,224	0,48
450,679	0,48
451,134	0,48
451,589	0,48
452,044	0,48
452,499	0,48
452,954	0,48
453,409	0,48
453,864	0,48
454,319	0,48
454,774	0,48
455,229	0,48
455,684	0,48
456,138	0,48
456,593	0,48
457,048	0,48
457,503	0,48
457,957	0,48
458,412	0,48
458,866	0,48
459,321	0,48
459,776	0,48
460,23	0,48
460,685	0,48
461,139	0,48
461,593	0,48
462,048	0,48
462,502	0,48
462,957	0,48
463,411	0,48
463,865	0,48
464,319	0,48
464,774	0,49
465,228	0,49
465,682	0,49
466,136	0,49
466,59	0,49
467,044	0,49
467,499	0,49
467,953	0,49
468,407	0,49
468,861	0,49
469,315	0,49
469,768	0,49
470,222	0,49
470,676	0,49
471,13	0,49
471,584	0,49
472,038	0,49
472,491	0,49
472,945	0,49
473,399	0,49
473,852	0,5
474,306	0,5
474,76	0,5
475,213	0,5
475,667	0,5
476,12	0,5
476,574	0,5
477,027	0,5
477,481	0,5
477,934	0,5
478,388	0,5
478,841	0,51
479,294	0,51
479,748	0,51
480,201	0,51
480,654	0,51
481,107	0,51
481,561	0,51
482,014	0,51
482,467	0,52
482,92	0,52
483,373	0,52
483,826	0,52
484,279	0,52
484,732	0,52
485,185	0,52
485,638	0,52
486,091	0,52
486,544	0,53
486,997	0,53
487,449	0,53
487,902	0,53
488,355	0,53
488,808	0,53
489,26	0,54
489,713	0,54
490,166	0,54
490,618	0,54
491,071	0,54
491,523	0,55
491,976	0,55
492,429	0,55
492,881	0,55
493,333	0,56
493,786	0,56
494,238	0,56
494,691	0,56
495,143	0,56
495,595	0,57
496,048	0,57
496,5	0,57
496,952	0,57
497,404	0,58
497,856	0,58
498,309	0,58
498,761	0,59
499,213	0,59
499,665	0,59
500,117	0,59
500,569	0,6
501,021	0,6
501,473	0,6
501,925	0,61
502,377	0,61
502,828	0,61
503,28	0,61
503,732	0,62
504,184	0,62
504,636	0,62
505,087	0,63
505,539	0,63
505,991	0,63
506,442	0,63
506,894	0,64
507,345	0,64
507,797	0,64
508,249	0,65
508,7	0,65
509,151	0,65
509,603	0,66
510,054	0,66
510,506	0,66
510,957	0,66
511,408	0,67
511,86	0,67
512,311	0,67
512,762	0,67
513,213	0,68
513,665	0,68
514,116	0,68
514,567	0,68
515,018	0,69
515,469	0,69
515,92	0,69
516,371	0,7
516,822	0,7
517,273	0,7
517,724	0,7
518,175	0,7
518,626	0,71
519,076	0,71
519,527	0,71
519,978	0,71
520,429	0,71
520,88	0,71
521,33	0,71
521,781	0,72
522,232	0,72
522,682	0,72
523,133	0,72
523,583	0,72
524,034	0,72
524,484	0,72
524,935	0,72
525,385	0,73
525,836	0,73
526,286	0,73
526,736	0,73
527,187	0,73
527,637	0,73
528,087	0,73
528,538	0,73
528,988	0,72
529,438	0,72
529,888	0,72
530,338	0,72
530,788	0,72
531,238	0,72
531,688	0,72
532,139	0,72
532,589	0,72
533,038	0,72
533,488	0,72
533,938	0,72
534,388	0,72
534,838	0,71
535,288	0,71
535,738	0,71
536,187	0,71
536,637	0,7
537,087	0,7
537,537	0,7
537,986	0,7
538,436	0,69
538,885	0,69
539,335	0,69
539,785	0,68
540,234	0,68
540,684	0,68
541,133	0,68
541,582	0,67
542,032	0,67
542,481	0,67
542,931	0,66
543,38	0,66
543,829	0,66
544,278	0,65
544,728	0,65
545,177	0,65
545,626	0,64
546,075	0,64
546,524	0,64
546,973	0,63
547,422	0,63
547,871	0,63
548,32	0,63
548,769	0,63
549,218	0,62
549,667	0,62
550,116	0,62
550,565	0,62
551,014	0,61
551,463	0,61
551,911	0,61
552,36	0,61
552,809	0,6
553,258	0,6
553,706	0,6
554,155	0,59
554,603	0,59
555,052	0,59
555,501	0,59
555,949	0,58
556,398	0,58
556,846	0,58
557,294	0,57
557,743	0,57
558,191	0,57
558,64	0,56
559,088	0,56
559,536	0,56
559,985	0,55
560,433	0,55
560,881	0,55
561,329	0,55
561,777	0,54
562,225	0,54
562,674	0,54
563,122	0,53
563,57	0,53
564,018	0,53
564,466	0,53
564,914	0,52
565,362	0,52
565,809	0,52
566,257	0,51
566,705	0,51
567,153	0,51
567,601	0,51
568,048	0,5
568,496	0,5
568,944	0,5
569,392	0,5
569,839	0,49
570,287	0,49
570,734	0,49
571,182	0,49
571,63	0,48
572,077	0,48
572,525	0,48
572,972	0,48
573,419	0,47
573,867	0,47
574,314	0,47
574,761	0,47
575,209	0,46
575,656	0,46
576,103	0,46
576,551	0,46
576,998	0,46
577,445	0,46
577,892	0,45
578,339	0,45
578,786	0,45
579,233	0,45
579,68	0,45
580,127	0,44
580,574	0,44
581,021	0,44
581,468	0,44
581,915	0,44
582,362	0,44
582,809	0,43
583,255	0,43
583,702	0,43
584,149	0,43
584,596	0,43
585,042	0,42
585,489	0,42
585,936	0,42
586,382	0,42
586,829	0,42
587,275	0,42
587,722	0,42
588,168	0,42
588,615	0,41
589,061	0,41
589,508	0,41
589,954	0,41
590,4	0,41
590,847	0,41
591,293	0,41
591,739	0,41
592,185	0,4
592,632	0,4
593,078	0,4
593,524	0,4
593,97	0,4
594,416	0,4
594,862	0,4
595,308	0,4
595,754	0,4
596,2	0,4
596,646	0,39
597,092	0,39
597,538	0,39
597,984	0,39
598,43	0,39
598,876	0,39
599,321	0,39
599,767	0,39
600,213	0,39
600,659	0,39
601,104	0,38
601,55	0,38
601,995	0,38
602,441	0,38
602,887	0,38
603,332	0,38
603,778	0,38
604,223	0,38
604,668	0,38
605,114	0,38
605,559	0,38
606,005	0,38
606,45	0,38
606,895	0,38
607,341	0,37
607,786	0,37
608,231	0,37
608,676	0,37
609,121	0,37
609,566	0,36
610,012	0,36
610,457	0,36
610,902	0,35
611,347	0,35
611,792	0,35
612,237	0,35
612,682	0,35
613,127	0,35
613,571	0,35
614,016	0,35
614,461	0,35
614,906	0,35
615,351	0,35
615,795	0,35
616,24	0,35
616,685	0,35
617,129	0,35
617,574	0,35
618,019	0,35
618,463	0,35
618,908	0,35
619,352	0,35
619,797	0,35
620,241	0,35
620,686	0,35
621,13	0,35
621,574	0,35
622,019	0,35
622,463	0,35
622,907	0,35
623,352	0,35
623,796	0,35
624,24	0,35
624,684	0,35
625,128	0,35
625,572	0,35
626,016	0,35
626,461	0,35
626,905	0,35
627,349	0,35
627,793	0,34
628,236	0,34
628,68	0,34
629,124	0,34
629,568	0,34
630,012	0,34
630,456	0,34
630,9	0,34
631,343	0,34
631,787	0,34
632,231	0,34
632,674	0,34
633,118	0,34
633,562	0,34
634,005	0,34
634,449	0,34
634,892	0,34
635,336	0,34
635,779	0,34
636,223	0,34
636,666	0,34
637,109	0,34
637,553	0,34
637,996	0,34
638,439	0,34
638,883	0,34
639,326	0,34
639,769	0,33
640,212	0,33
640,655	0,33
641,099	0,33
641,542	0,33
641,985	0,33
642,428	0,33
642,871	0,33
643,314	0,33
643,757	0,33
644,2	0,33
644,643	0,33
645,085	0,33
645,528	0,33
645,971	0,33
646,414	0,33
646,857	0,33
647,299	0,33
647,742	0,33
648,185	0,33
648,627	0,33
649,07	0,33
649,513	0,33
649,955	0,32
650,398	0,32
650,84	0,32
651,283	0,32
651,725	0,32
652,168	0,32
652,61	0,32
653,052	0,32
653,495	0,32
653,937	0,25
654,379	0,2
654,821	0,21
655,264	0,21
655,706	0,21
656,148	0,21
656,59	0,21
657,032	0,21
657,474	0,21
657,916	0,21
658,358	0,2
658,8	0,25
659,242	0,32
659,684	0,32
660,126	0,32
660,568	0,32
661,01	0,32
661,452	0,32
661,894	0,32
662,335	0,32
662,777	0,32
663,219	0,32
663,661	0,32
664,102	0,32
664,544	0,32
664,985	0,32
665,427	0,32
665,869	0,32
666,31	0,32
666,752	0,32
667,193	0,32
667,634	0,32
668,076	0,32
668,517	0,32
668,959	0,32
669,4	0,32
669,841	0,32
670,282	0,32
670,724	0,32
671,165	0,32
671,606	0,32
672,047	0,32
672,488	0,32
672,929	0,32
673,37	0,32
673,811	0,32
674,252	0,32
674,693	0,32
675,134	0,31
675,575	0,31
676,016	0,31
676,457	0,31
676,898	0,31
677,339	0,31
677,78	0,31
678,22	0,31
678,661	0,31
679,102	0,31
679,542	0,31
679,983	0,31
680,424	0,31
680,864	0,31
681,305	0,31
681,745	0,31
682,186	0,31
682,626	0,31
683,067	0,31
683,507	0,31
683,948	0,31
684,388	0,31
684,828	0,31
685,269	0,31
685,709	0,31
686,149	0,31
686,589	0,31
687,029	0,31
687,47	0,31
687,91	0,3
688,35	0,3
688,79	0,3
689,23	0,3
689,67	0,3
690,11	0,3
690,55	0,3
690,99	0,3
691,43	0,3
691,87	0,3
692,31	0,3
692,749	0,3
693,189	0,3
693,629	0,3
694,069	0,3
694,508	0,3
694,948	0,3
695,388	0,3
695,827	0,3
696,267	0,3
696,706	0,3
697,146	0,3
697,586	0,3
698,025	0,3
698,464	0,31
698,904	0,31
699,343	0,31
699,783	0,31
700,222	0,31
700,661	0,31
701,101	0,31
701,54	0,3
701,979	0,3
702,418	0,3
702,857	0,3
703,297	0,3
703,736	0,3
704,175	0,3
704,614	0,3
705,053	0,3
705,492	0,3
705,931	0,3
706,37	0,3
706,809	0,3
707,248	0,3
707,687	0,3
708,125	0,3
708,564	0,3
709,003	0,3
709,442	0,3
709,88	0,29
710,319	0,29
710,758	0,29
711,196	0,29
711,635	0,29
712,074	0,29
712,512	0,29
712,951	0,29
713,389	0,29
713,828	0,29
714,266	0,29
714,705	0,29
715,143	0,29
715,581	0,29
716,02	0,29
716,458	0,29
716,896	0,29
717,334	0,29
717,773	0,29
718,211	0,29
718,649	0,29
719,087	0,29
719,525	0,29
719,963	0,29
720,401	0,29
720,839	0,29
721,277	0,29
721,715	0,29
722,153	0,29
722,591	0,29
723,029	0,29
723,467	0,29
723,905	0,29
724,342	0,29
724,78	0,29
725,218	0,29
725,656	0,29
726,093	0,29
726,531	0,29
726,969	0,29
727,406	0,29
727,844	0,29
728,281	0,29
728,719	0,29
729,156	0,29
729,594	0,29
730,031	0,29
730,469	0,28
730,906	0,28
731,343	0,28
731,781	0,28
732,218	0,28
732,655	0,28
733,092	0,28
733,53	0,28
733,967	0,28
734,404	0,28
734,841	0,28
735,278	0,28
735,715	0,28
736,152	0,28
736,589	0,28
737,026	0,28
737,463	0,28
737,9	0,28
738,337	0,28
738,774	0,28
739,211	0,28
739,647	0,28
740,084	0,28
740,521	0,28
740,958	0,28
741,394	0,28
741,831	0,27
742,268	0,27
742,704	0,27
743,141	0,27
743,577	0,27
744,014	0,27
744,45	0,27
744,887	0,27
745,323	0,26
745,76	0,26
746,196	0,26
746,632	0,26
747,069	0,26
747,505	0,26
747,941	0,26
748,378	0,26
748,814	0,26
749,25	0,27
749,686	0,27
750,122	0,27
750,558	0,27
750,994	0,27
751,43	0,27
751,866	0,27
752,302	0,28
752,738	0,28
753,174	0,28
753,61	0,28
754,046	0,28
754,482	0,28
754,918	0,28
755,354	0,28
755,789	0,28
756,225	0,28
756,661	0,28
757,096	0,28
757,532	0,28
757,968	0,28
758,403	0,27
758,839	0,27
759,274	0,27
759,71	0,27
760,145	0,26
760,581	0,26
761,016	0,26
761,452	0,26
761,887	0,25
762,322	0,25
762,758	0,25
763,193	0,24
763,628	0,24
764,063	0,23
764,499	0,23
764,934	0,23
765,369	0,22
765,804	0,21
766,239	0,21
766,674	0,2
767,109	0,19
767,544	0,19
767,979	0,18
768,414	0,17
768,849	0,17
769,284	0,16
769,719	0,15
770,154	0,15
770,588	0,14
771,023	0,14
771,458	0,13
771,893	0,12
772,327	0,11
772,762	0,1
773,197	0,1
773,631	0,09
774,066	0,09
774,5	0,08
774,935	0,07
775,369	0,06
775,804	0,05
776,238	0,05
776,673	0,04
777,107	0,03
777,541	0,03
777,976	0,02
778,41	0,01
778,844	-0
779,279	-0
779,713	-0,01
780,147	-0,02
780,581	-0,02
781,015	-0,04
781,449	-0,04
781,883	-0,05
782,317	-0,07
782,751	-0,08
783,185	-0,08
783,619	-0,09
784,053	-0,1
784,487	-0,11
784,921	-0,11
785,355	-0,12
785,789	-0,13
786,223	-0,14
786,656	-0,15
787,09	-0,15
787,524	-0,16
787,957	-0,17
788,391	-0,19
788,825	-0,2
789,258	-0,22
789,692	-0,22
790,125	-0,24
790,559	-0,25
790,992	-0,27
791,426	-0,3
791,859	-0,31
792,293	-0,34
792,726	-0,35
793,159	-0,37
793,593	-0,38
794,026	-0,4
794,459	-0,43
794,892	-0,46
795,326	-0,48
795,759	-0,52
796,192	-0,56
796,625	-0,6
797,058	-0,63
797,491	-0,67
797,924	-0,71
798,357	-0,76
798,79	-0,8
799,223	-0,84
799,656	-0,9
800,089	-0,94
800,522	-0,99
800,955	-1,03
801,387	-1,09
801,82	-1,14
802,253	-1,2
802,686	-1,28
803,118	-1,34
803,551	-1,39
803,984	-1,43
804,416	-1,47
804,849	-1,5
805,281	-1,59
805,714	-1,93
806,146	-2,41
806,579	-2,68
807,011	-2,85
807,444	-2,95
807,876	-3,05
808,308	-3,09
808,741	-3,12
809,173	-3,17
809,605	-3,19
810,037	-3,27
810,47	-3,2
810,902	-3
811,334	-2,86
811,766	-2,71
812,198	-2,5
812,63	-2,08
813,062	-1,82
813,494	-1,71
813,926	-1,62
814,358	-1,56
814,79	-1,48
815,222	-1,42
815,654	-1,37
816,086	-1,3
816,518	-1,25
816,949	-1,19
817,381	-1,15
817,813	-1,13
818,245	-1,09
818,676	-1,05
819,108	-1,02
819,54	-1
819,971	-0,98
820,403	-0,93
820,834	-0,91
821,266	-0,87
821,697	-0,85
822,129	-0,83
822,56	-0,8
822,991	-0,78
823,423	-0,76
823,854	-0,75
824,286	-0,72
824,717	-0,71
825,148	-0,69
825,579	-0,68
826,01	-0,67
826,442	-0,66
826,873	-0,64
827,304	-0,6
827,735	-0,6
828,166	-0,6
828,597	-0,6
829,028	-0,59
829,459	-0,6
829,89	-0,61
830,321	-0,57
830,752	-0,58
831,183	-0,57
831,613	-0,56
832,044	-0,57
832,475	-0,56
832,906	-0,57
833,336	-0,57
833,767	-0,58
834,198	-0,57
834,628	-0,55
835,059	-0,57
835,49	-0,58
835,92	-0,55
836,351	-0,55
836,781	-0,55
837,212	-0,56
837,642	-0,56
838,072	-0,53
838,503	-0,53
838,933	-0,51
839,364	-0,53
839,794	-0,51
840,224	-0,5
840,654	-0,54
841,085	-0,54
841,515	-0,52
841,945	-0,52
842,375	-0,48
842,805	-0,48
843,235	-0,46
843,665	-0,48
844,095	-0,47
844,525	-0,48
844,955	-0,49
845,385	-0,47
845,815	-0,45
846,245	-0,47
846,675	-0,48
847,105	-0,5
847,534	-0,49
847,964	-0,47
848,394	-0,46
848,824	-0,49
849,253	-0,47
849,683	-0,48
850,112	-0,48
850,542	-0,51
850,972	-0,52
851,401	-0,49
851,831	-0,47
852,26	-0,48
852,69	-0,51
853,119	-0,51
853,548	-0,51
853,978	-0,51
854,407	-0,49
854,836	-0,49
855,266	-0,48
855,695	-0,5
856,124	-0,52
856,553	-0,53
856,983	-0,55
857,412	-0,55
857,841	-0,55
858,27	-0,56
858,699	-0,56
859,128	-0,6
859,557	-0,61
859,986	-0,63
860,415	-0,6
860,844	-0,57
861,273	-0,57
861,702	-0,58
862,13	-0,56
862,559	-0,58
862,988	-0,56
863,417	-0,55
863,845	-0,54
864,274	-0,55
864,703	-0,54
865,131	-0,55
865,56	-0,56
865,989	-0,59
866,417	-0,56
866,846	-0,56
867,274	-0,55
867,703	-0,57
868,131	-0,59
868,559	-0,59
868,988	-0,62
869,416	-0,62
869,844	-0,63
870,273	-0,66
870,701	-0,64
871,129	-0,67
871,557	-0,7
871,986	-0,71
872,414	-0,71
872,842	-0,69
873,27	-0,66
873,698	-0,62
874,126	-0,66
874,554	-0,64
874,982	-0,64
875,41	-0,67
875,838	-0,61
876,266	-0,58
876,694	-0,58
877,122	-0,57
877,549	-0,62
877,977	-0,59
878,405	-0,62
878,833	-0,57
879,26	-0,56
879,688	-0,56
880,116	-0,53
880,543	-0,52
880,971	-0,51
881,399	-0,55
881,826	-0,56
882,254	-0,54
882,681	-0,58
883,109	-0,54
883,536	-0,55
883,963	-0,57
884,391	-0,55
884,818	-0,54
885,245	-0,57
885,673	-0,59
886,1	-0,55
886,527	-0,55
886,954	-0,51
887,381	-0,53
887,809	-0,54
888,236	-0,56
888,663	-0,56
889,09	-0,6
889,517	-0,62
889,944	-0,62
890,371	-0,61
890,798	-0,61
891,225	-0,61
891,652	-0,64
892,078	-0,61
892,505	-0,64
892,932	-0,6
893,359	-0,61
893,786	-0,61
894,212	-0,57
894,639	-0,59
895,066	-0,61
895,492	-0,56
895,919	-0,57
896,346	-0,56
896,772	-0,57
897,199	-0,53
897,625	-0,55
898,052	-0,52
898,478	-0,5
898,904	-0,52
899,331	-0,51
899,757	-0,53
900,183	-0,55
900,61	-0,53
901,036	-0,54
901,462	-0,53
901,888	-0,53
902,315	-0,52
902,741	-0,57
903,167	-0,56
903,593	-0,59
904,019	-0,57
904,445	-0,54
904,871	-0,57
905,297	-0,58
905,723	-0,58
906,149	-0,58
906,575	-0,59
907,001	-0,59
907,427	-0,56
907,852	-0,56
908,278	-0,57
908,704	-0,54
909,13	-0,54
909,555	-0,53
909,981	-0,52
910,407	-0,51
910,832	-0,51
911,258	-0,51
911,684	-0,51
912,109	-0,52
912,535	-0,54
912,96	-0,49
913,386	-0,53
913,811	-0,53
914,236	-0,54
914,662	-0,53
915,087	-0,57
915,512	-0,57
915,938	-0,59
916,363	-0,59
916,788	-0,6
917,213	-0,58
917,639	-0,63
918,064	-0,6
918,489	-0,6
918,914	-0,61
919,339	-0,63
919,764	-0,6
920,189	-0,59
920,614	-0,6
921,039	-0,6
921,464	-0,57
921,889	-0,59
922,314	-0,6
922,738	-0,64
923,163	-0,65
923,588	-0,65
924,013	-0,63
924,437	-0,62
924,862	-0,64
925,287	-0,6
925,711	-0,61
926,136	-0,62
926,561	-0,6
926,985	-0,59
927,41	-0,56
927,834	-0,53
928,259	-0,5
928,683	-0,48
929,108	-0,47
929,532	-0,47
929,956	-0,47
930,381	-0,46
930,805	-0,46
931,229	-0,46
931,653	-0,45
932,078	-0,45
932,502	-0,46
932,926	-0,47
933,35	-0,47
933,774	-0,46
934,198	-0,44
934,622	-0,44
935,046	-0,44
935,47	-0,45
935,894	-0,44
936,318	-0,44
936,742	-0,44
937,166	-0,45
937,59	-0,44
938,014	-0,46
938,437	-0,46
938,861	-0,49
939,285	-0,5
939,709	-0,5
940,132	-0,5
940,556	-0,5
940,98	-0,49
941,403	-0,48
941,827	-0,48
942,25	-0,5
942,674	-0,5
943,097	-0,49
943,521	-0,48
943,944	-0,5
944,368	-0,48
944,791	-0,47
945,214	-0,49
945,638	-0,5
946,061	-0,54
946,484	-0,54
946,907	-0,52
947,331	-0,52
947,754	-0,56
948,177	-0,53
948,6	-0,52
949,023	-0,52
949,446	-0,52
949,869	-0,49
950,292	-0,49
950,715	-0,45
951,138	-0,44
951,561	-0,42
951,984	-0,41
952,407	-0,39
952,83	-0,38
953,252	-0,35
953,675	-0,35
954,098	-0,36
954,521	-0,35
954,943	-0,35
955,366	-0,35
955,789	-0,33
956,211	-0,35
956,634	-0,36
957,056	-0,34
957,479	-0,36
957,902	-0,38
958,324	-0,37
958,746	-0,36
959,169	-0,37
959,591	-0,38
960,014	-0,39
960,436	-0,39
960,858	-0,4
961,281	-0,4
961,703	-0,4
962,125	-0,4
962,547	-0,39
962,969	-0,39
963,391	-0,4
963,814	-0,4
964,236	-0,39
964,658	-0,37
965,08	-0,38
965,502	-0,36
965,924	-0,34
966,346	-0,34
966,768	-0,33
967,189	-0,34
967,611	-0,34
968,033	-0,34
968,455	-0,32
968,877	-0,33
969,298	-0,34
969,72	-0,34
970,142	-0,33
970,563	-0,33
970,985	-0,32
971,407	-0,31
971,828	-0,3
972,25	-0,3
972,671	-0,28
973,093	-0,28
973,514	-0,26
973,936	-0,24
974,357	-0,23
974,778	-0,24
975,2	-0,23
975,621	-0,22
976,042	-0,22
976,464	-0,2
976,885	-0,19
977,306	-0,19
977,727	-0,18
978,148	-0,18
978,57	-0,17
978,991	-0,15
979,412	-0,14
979,833	-0,13
980,254	-0,13
980,675	-0,13
981,096	-0,12
981,517	-0,11
981,937	-0,1
982,358	-0,09
982,779	-0,08
983,2	-0,07
983,621	-0,07
984,042	-0,06
984,462	-0,05
984,883	-0,03
985,304	-0,02
985,724	-0,02
986,145	-0,01
986,565	0,01
986,986	0,01
987,407	0,02
987,827	0,03
988,248	0,05
988,668	0,05
989,088	0,06
989,509	0,07
989,929	0,08
990,35	0,09
990,77	0,1
991,19	0,11
991,61	0,11
992,031	0,12
992,451	0,13
992,871	0,13
993,291	0,14
993,711	0,15
994,131	0,15
994,551	0,16
994,971	0,16
995,391	0,16
995,811	0,17
996,231	0,17
996,651	0,17
997,071	0,18
997,491	0,18
997,911	0,19
998,331	0,19
998,75	0,19
999,17	0,2
999,59	0,2
1000,009	0,2
1000,429	0,21
1000,849	0,21
1001,268	0,22
1001,688	0,22
1002,107	0,22
1002,527	0,22
1002,946	0,23
1003,366	0,23
1003,785	0,23
1004,205	0,23
1004,624	0,23
1005,044	0,24
1005,463	0,24
1005,882	0,24
1006,301	0,24
1006,721	0,24
1007,14	0,24
1007,559	0,24
1007,978	0,24
1008,397	0,24
1008,816	0,24
1009,235	0,24
1009,655	0,24
1010,074	0,24
1010,492	0,24
1010,911	0,23
1011,33	0,23
1011,749	0,23
1012,168	0,23
1012,587	0,23
1013,006	0,23
1013,425	0,23
1013,843	0,23
1014,262	0,23
1014,681	0,23
1015,099	0,23
1015,518	0,23
1015,937	0,23
1016,355	0,23
1016,774	0,23
1017,192	0,23
1017,611	0,23
1018,029	0,23
1018,448	0,23
1018,866	0,23
1019,285	0,23
1019,703	0,23
1020,121	0,23
1020,54	0,23
1020,958	0,23
1021,376	0,23
1021,794	0,23
1022,213	0,23
1022,631	0,23
1023,049	0,23
1023,467	0,23
1023,885	0,23
1024,303	0,23
1024,721	0,23
1025,139	0,23
1025,557	0,23
1025,975	0,23
1026,393	0,23
1026,811	0,23
1027,229	0,23
1027,647	0,23
1028,065	0,23
1028,482	0,23
1028,9	0,23
1029,318	0,23
1029,735	0,23
1030,153	0,23
1030,571	0,23
1030,988	0,23
1031,406	0,23
1031,823	0,23
1032,241	0,23
1032,659	0,23
1033,076	0,23
1033,493	0,23
1033,911	0,23
1034,328	0,23
1034,746	0,23
1035,163	0,23
1035,58	0,23
1035,997	0,23
1036,415	0,23
1036,832	0,23
1037,249	0,23
1037,666	0,22
1038,083	0,22
1038,501	0,22
1038,918	0,22
1039,335	0,22
1039,752	0,22
1040,169	0,22
1040,586	0,22
1041,003	0,22
1041,419	0,22
1041,836	0,22
1042,253	0,22
1042,67	0,22
1043,087	0,22
1043,504	0,22
1043,92	0,22
1044,337	0,22
1044,754	0,22
1045,17	0,21
1045,587	0,21
1046,004	0,21
1046,42	0,21
1046,837	0,21
1047,253	0,21
1047,67	0,21
1048,086	0,21
1048,503	0,21
1048,919	0,21
1049,335	0,21
1049,752	0,21
1050,168	0,21
1050,584	0,21
1051,001	0,21
1051,417	0,21
1051,833	0,21
1052,249	0,21
1052,665	0,21
1053,081	0,21
1053,497	0,21
1053,914	0,21
1054,33	0,22
1054,746	0,22
1055,162	0,22
1055,578	0,22
1055,993	0,22
1056,409	0,22
1056,825	0,22
1057,241	0,22
1057,657	0,22
1058,073	0,22
1058,488	0,22
1058,904	0,22
1059,32	0,22
1059,736	0,22
1060,151	0,22
1060,567	0,22
1060,982	0,22
1061,398	0,22
1061,813	0,22
1062,229	0,22
1062,644	0,22
1063,06	0,22
1063,475	0,22
1063,891	0,22
1064,306	0,22
1064,721	0,22
1065,137	0,22
1065,552	0,22
1065,967	0,22
1066,382	0,22
1066,798	0,22
1067,213	0,22
1067,628	0,22
1068,043	0,22
1068,458	0,22
1068,873	0,22
1069,288	0,22
1069,703	0,22
1070,118	0,22
1070,533	0,22
1070,948	0,22
1071,363	0,22
1071,778	0,22
1072,193	0,22
1072,607	0,22
1073,022	0,22
1073,437	0,22
1073,852	0,23
1074,266	0,23
1074,681	0,23
1075,096	0,23
1075,51	0,23
1075,925	0,23
1076,339	0,23
1076,754	0,23
1077,168	0,22
1077,583	0,22
1077,997	0,22
1078,412	0,22
1078,826	0,22
1079,24	0,22
1079,655	0,22
1080,069	0,22
1080,483	0,22
1080,897	0,22
1081,312	0,22
1081,726	0,22
1082,14	0,22
1082,554	0,21
1082,968	0,21
1083,382	0,21
1083,796	0,21
1084,21	0,21
1084,624	0,21
1085,038	0,21
1085,452	0,21
1085,866	0,21
1086,28	0,21
1086,694	0,21
1087,108	0,21
1087,521	0,2
1087,935	0,2
1088,349	0,2
1088,763	0,2
1089,176	0,2
1089,59	0,2
1090,004	0,2
1090,417	0,19
1090,831	0,19
1091,244	0,19
1091,658	0,19
1092,071	0,19
1092,485	0,18
1092,898	0,18
1093,312	0,18
1093,725	0,18
1094,138	0,18
1094,552	0,18
1094,965	0,18
1095,378	0,18
1095,791	0,18
1096,205	0,18
1096,618	0,18
1097,031	0,17
1097,444	0,17
1097,857	0,17
1098,27	0,17
1098,683	0,17
1099,096	0,17
1099,509	0,16
1099,922	0,16
1100,335	0,15
1100,748	0,15
1101,161	0,15
1101,574	0,14
1101,986	0,14
1102,399	0,14
1102,812	0,14
1103,225	0,14
1103,637	0,13
1104,05	0,13
1104,463	0,14
1104,875	0,14
1105,288	0,13
1105,7	0,13
1106,113	0,13
1106,525	0,13
1106,938	0,13
1107,35	0,12
1107,763	0,12
1108,175	0,12
1108,588	0,11
1109	0,11
1109,412	0,1
1109,824	0,1
1110,237	0,11
1110,649	0,11
1111,061	0,1
