Data from 18C-808nm-8A_Absorbance__1059__01059.txt Node

Date: Mon Jul 17 17:00:31 CEST 2023
User: Laser008
Spectrometer: MAYP115816
Trigger mode: 0
Integration Time (sec): 2,500000E-1
Scans to average: 10
Electric dark correction enabled: true
Nonlinearity correction enabled: true
Boxcar width: 5
XAxis mode: Wavelengths
Number of Pixels in Spectrum: 2068
>>>>>Begin Spectral Data<<<<<
198,914	-0,68
199,384	-0,45
199,855	-0,35
200,325	-0,28
200,796	-0,27
201,266	-0,22
201,737	-0,21
202,207	-0,2
202,677	-0,19
203,147	-0,18
203,618	-0,15
204,088	-0,14
204,558	-0,12
205,028	-0,11
205,498	-0,11
205,968	-0,11
206,439	-0,12
206,909	-0,11
207,379	-0,12
207,849	-0,12
208,319	-0,13
208,789	-0,14
209,258	-0,14
209,728	-0,15
210,198	-0,15
210,668	-0,16
211,138	-0,15
211,608	-0,15
212,077	-0,16
212,547	-0,15
213,017	-0,15
213,486	-0,15
213,956	-0,16
214,426	-0,16
214,895	-0,16
215,365	-0,17
215,834	-0,17
216,304	-0,18
216,773	-0,19
217,243	-0,19
217,712	-0,2
218,181	-0,2
218,651	-0,2
219,12	-0,19
219,589	-0,2
220,058	-0,19
220,528	-0,2
220,997	-0,21
221,466	-0,21
221,935	-0,21
222,404	-0,2
222,873	-0,19
223,342	-0,18
223,812	-0,19
224,281	-0,2
224,749	-0,19
225,218	-0,2
225,687	-0,2
226,156	-0,19
226,625	-0,18
227,094	-0,19
227,563	-0,19
228,031	-0,21
228,5	-0,22
228,969	-0,22
229,438	-0,21
229,906	-0,2
230,375	-0,19
230,844	-0,19
231,312	-0,19
231,781	-0,21
232,249	-0,2
232,718	-0,2
233,186	-0,18
233,655	-0,18
234,123	-0,18
234,591	-0,18
235,06	-0,18
235,528	-0,19
235,996	-0,18
236,465	-0,18
236,933	-0,17
237,401	-0,17
237,869	-0,16
238,337	-0,16
238,805	-0,16
239,274	-0,15
239,742	-0,15
240,21	-0,15
240,678	-0,14
241,146	-0,13
241,614	-0,13
242,081	-0,12
242,549	-0,12
243,017	-0,12
243,485	-0,12
243,953	-0,13
244,421	-0,13
244,888	-0,12
245,356	-0,12
245,824	-0,12
246,291	-0,13
246,759	-0,15
247,227	-0,15
247,694	-0,15
248,162	-0,15
248,629	-0,14
249,097	-0,14
249,564	-0,15
250,032	-0,16
250,499	-0,16
250,967	-0,16
251,434	-0,16
251,901	-0,15
252,369	-0,15
252,836	-0,16
253,303	-0,18
253,77	-0,19
254,237	-0,18
254,705	-0,18
255,172	-0,18
255,639	-0,19
256,106	-0,2
256,573	-0,2
257,04	-0,2
257,507	-0,2
257,974	-0,21
258,441	-0,18
258,908	-0,19
259,375	-0,2
259,841	-0,2
260,308	-0,21
260,775	-0,2
261,242	-0,2
261,709	-0,2
262,175	-0,21
262,642	-0,2
263,109	-0,19
263,575	-0,21
264,042	-0,19
264,508	-0,2
264,975	-0,21
265,441	-0,22
265,908	-0,23
266,374	-0,22
266,841	-0,23
267,307	-0,23
267,773	-0,23
268,24	-0,24
268,706	-0,24
269,172	-0,25
269,639	-0,26
270,105	-0,24
270,571	-0,24
271,037	-0,23
271,503	-0,24
271,969	-0,22
272,435	-0,21
272,902	-0,22
273,368	-0,25
273,834	-0,25
274,3	-0,24
274,765	-0,24
275,231	-0,24
275,697	-0,23
276,163	-0,22
276,629	-0,23
277,095	-0,24
277,56	-0,23
278,026	-0,23
278,492	-0,2
278,958	-0,2
279,423	-0,21
279,889	-0,21
280,354	-0,22
280,82	-0,22
281,286	-0,24
281,751	-0,24
282,217	-0,23
282,682	-0,24
283,147	-0,24
283,613	-0,25
284,078	-0,25
284,544	-0,26
285,009	-0,26
285,474	-0,24
285,939	-0,25
286,405	-0,24
286,87	-0,24
287,335	-0,23
287,8	-0,22
288,265	-0,21
288,73	-0,23
289,195	-0,24
289,66	-0,24
290,125	-0,23
290,59	-0,24
291,055	-0,23
291,52	-0,23
291,985	-0,24
292,45	-0,25
292,915	-0,25
293,38	-0,26
293,844	-0,24
294,309	-0,23
294,774	-0,22
295,239	-0,22
295,703	-0,23
296,168	-0,22
296,632	-0,22
297,097	-0,2
297,562	-0,19
298,026	-0,2
298,491	-0,2
298,955	-0,2
299,419	-0,19
299,884	-0,19
300,348	-0,19
300,813	-0,18
301,277	-0,19
301,741	-0,19
302,205	-0,18
302,67	-0,18
303,134	-0,18
303,598	-0,17
304,062	-0,16
304,526	-0,16
304,99	-0,17
305,454	-0,16
305,919	-0,16
306,383	-0,16
306,847	-0,16
307,31	-0,16
307,774	-0,18
308,238	-0,18
308,702	-0,18
309,166	-0,19
309,63	-0,18
310,094	-0,16
310,557	-0,16
311,021	-0,16
311,485	-0,16
311,948	-0,16
312,412	-0,15
312,876	-0,14
313,339	-0,14
313,803	-0,15
314,266	-0,15
314,73	-0,16
315,193	-0,16
315,657	-0,15
316,12	-0,15
316,584	-0,13
317,047	-0,13
317,51	-0,12
317,973	-0,12
318,437	-0,1
318,9	-0,09
319,363	-0,08
319,826	-0,08
320,29	-0,08
320,753	-0,08
321,216	-0,08
321,679	-0,08
322,142	-0,08
322,605	-0,09
323,068	-0,1
323,531	-0,1
323,994	-0,1
324,457	-0,1
324,92	-0,09
325,382	-0,09
325,845	-0,09
326,308	-0,08
326,771	-0,08
327,233	-0,08
327,696	-0,06
328,159	-0,05
328,622	-0,04
329,084	-0,04
329,547	-0,04
330,009	-0,03
330,472	-0,02
330,934	-0,02
331,397	-0,01
331,859	-0,01
332,322	-0,01
332,784	-0,01
333,246	-0
333,709	-0,01
334,171	0
334,633	0,01
335,096	0,01
335,558	0,01
336,02	0,01
336,482	0,01
336,944	0,02
337,406	0,02
337,868	0,02
338,331	0,02
338,793	0,03
339,255	0,03
339,717	0,03
340,178	0,04
340,64	0,05
341,102	0,05
341,564	0,06
342,026	0,07
342,488	0,08
342,949	0,09
343,411	0,11
343,873	0,13
344,335	0,15
344,796	0,17
345,258	0,2
345,719	0,23
346,181	0,26
346,643	0,28
347,104	0,3
347,566	0,32
348,027	0,33
348,488	0,34
348,95	0,36
349,411	0,37
349,873	0,38
350,334	0,39
350,795	0,39
351,256	0,4
351,718	0,4
352,179	0,41
352,64	0,41
353,101	0,41
353,562	0,41
354,023	0,41
354,484	0,41
354,945	0,41
355,406	0,41
355,867	0,41
356,328	0,42
356,789	0,42
357,25	0,42
357,711	0,42
358,172	0,42
358,633	0,42
359,093	0,42
359,554	0,42
360,015	0,42
360,476	0,42
360,936	0,42
361,397	0,42
361,858	0,42
362,318	0,42
362,779	0,43
363,239	0,43
363,7	0,43
364,16	0,43
364,621	0,43
365,081	0,43
365,541	0,43
366,002	0,43
366,462	0,43
366,922	0,43
367,383	0,42
367,843	0,42
368,303	0,42
368,763	0,42
369,223	0,42
369,684	0,42
370,144	0,42
370,604	0,43
371,064	0,43
371,524	0,42
371,984	0,42
372,444	0,42
372,904	0,42
373,363	0,42
373,823	0,42
374,283	0,42
374,743	0,42
375,203	0,42
375,663	0,42
376,122	0,42
376,582	0,42
377,042	0,42
377,501	0,42
377,961	0,42
378,42	0,42
378,88	0,42
379,34	0,42
379,799	0,42
380,259	0,42
380,718	0,42
381,177	0,42
381,637	0,42
382,096	0,42
382,555	0,42
383,015	0,42
383,474	0,42
383,933	0,42
384,393	0,42
384,852	0,42
385,311	0,42
385,77	0,42
386,229	0,42
386,688	0,42
387,147	0,42
387,606	0,41
388,065	0,41
388,524	0,41
388,983	0,41
389,442	0,41
389,901	0,41
390,36	0,41
390,819	0,41
391,277	0,41
391,736	0,41
392,195	0,41
392,654	0,41
393,112	0,41
393,571	0,41
394,03	0,41
394,488	0,41
394,947	0,41
395,405	0,41
395,864	0,41
396,322	0,41
396,781	0,41
397,239	0,41
397,698	0,41
398,156	0,41
398,614	0,41
399,073	0,41
399,531	0,41
399,989	0,41
400,447	0,41
400,905	0,41
401,364	0,41
401,822	0,41
402,28	0,41
402,738	0,41
403,196	0,41
403,654	0,41
404,112	0,41
404,57	0,41
405,028	0,41
405,486	0,41
405,944	0,41
406,402	0,41
406,859	0,41
407,317	0,41
407,775	0,41
408,233	0,41
408,691	0,41
409,148	0,41
409,606	0,41
410,064	0,41
410,521	0,41
410,979	0,4
411,436	0,4
411,894	0,4
412,351	0,4
412,809	0,4
413,266	0,4
413,724	0,4
414,181	0,4
414,638	0,4
415,096	0,4
415,553	0,4
416,01	0,4
416,467	0,4
416,925	0,4
417,382	0,4
417,839	0,4
418,296	0,4
418,753	0,4
419,21	0,4
419,667	0,4
420,124	0,4
420,581	0,4
421,038	0,4
421,495	0,4
421,952	0,4
422,409	0,4
422,866	0,4
423,322	0,4
423,779	0,4
424,236	0,4
424,693	0,4
425,149	0,4
425,606	0,4
426,063	0,4
426,519	0,4
426,976	0,4
427,433	0,4
427,889	0,4
428,346	0,4
428,802	0,4
429,258	0,4
429,715	0,4
430,171	0,4
430,628	0,4
431,084	0,4
431,54	0,4
431,997	0,4
432,453	0,4
432,909	0,4
433,365	0,4
433,821	0,4
434,277	0,39
434,734	0,39
435,19	0,39
435,646	0,39
436,102	0,39
436,558	0,39
437,014	0,39
437,47	0,39
437,925	0,4
438,381	0,4
438,837	0,4
439,293	0,4
439,749	0,4
440,205	0,4
440,66	0,4
441,116	0,4
441,572	0,4
442,027	0,39
442,483	0,39
442,939	0,39
443,394	0,39
443,85	0,39
444,305	0,39
444,761	0,39
445,216	0,4
445,672	0,4
446,127	0,4
446,582	0,4
447,038	0,4
447,493	0,4
447,948	0,4
448,403	0,4
448,859	0,4
449,314	0,4
449,769	0,4
450,224	0,4
450,679	0,4
451,134	0,4
451,589	0,4
452,044	0,4
452,499	0,4
452,954	0,4
453,409	0,4
453,864	0,4
454,319	0,4
454,774	0,4
455,229	0,4
455,684	0,4
456,138	0,4
456,593	0,4
457,048	0,4
457,503	0,4
457,957	0,4
458,412	0,4
458,866	0,4
459,321	0,4
459,776	0,4
460,23	0,4
460,685	0,4
461,139	0,4
461,593	0,4
462,048	0,4
462,502	0,4
462,957	0,4
463,411	0,4
463,865	0,4
464,319	0,4
464,774	0,4
465,228	0,4
465,682	0,4
466,136	0,4
466,59	0,4
467,044	0,4
467,499	0,41
467,953	0,41
468,407	0,41
468,861	0,41
469,315	0,41
469,768	0,41
470,222	0,41
470,676	0,41
471,13	0,41
471,584	0,41
472,038	0,41
472,491	0,41
472,945	0,41
473,399	0,41
473,852	0,41
474,306	0,41
474,76	0,41
475,213	0,41
475,667	0,41
476,12	0,41
476,574	0,41
477,027	0,41
477,481	0,41
477,934	0,41
478,388	0,42
478,841	0,42
479,294	0,42
479,748	0,42
480,201	0,42
480,654	0,42
481,107	0,42
481,561	0,42
482,014	0,42
482,467	0,42
482,92	0,42
483,373	0,43
483,826	0,43
484,279	0,43
484,732	0,43
485,185	0,43
485,638	0,43
486,091	0,43
486,544	0,43
486,997	0,43
487,449	0,43
487,902	0,43
488,355	0,44
488,808	0,44
489,26	0,44
489,713	0,44
490,166	0,44
490,618	0,44
491,071	0,44
491,523	0,45
491,976	0,45
492,429	0,45
492,881	0,45
493,333	0,45
493,786	0,45
494,238	0,46
494,691	0,46
495,143	0,46
495,595	0,46
496,048	0,46
496,5	0,47
496,952	0,47
497,404	0,47
497,856	0,47
498,309	0,47
498,761	0,47
499,213	0,48
499,665	0,48
500,117	0,48
500,569	0,48
501,021	0,49
501,473	0,49
501,925	0,49
502,377	0,49
502,828	0,5
503,28	0,5
503,732	0,5
504,184	0,5
504,636	0,5
505,087	0,51
505,539	0,51
505,991	0,51
506,442	0,51
506,894	0,51
507,345	0,52
507,797	0,52
508,249	0,52
508,7	0,52
509,151	0,53
509,603	0,53
510,054	0,53
510,506	0,53
510,957	0,53
511,408	0,54
511,86	0,54
512,311	0,54
512,762	0,54
513,213	0,54
513,665	0,55
514,116	0,55
514,567	0,55
515,018	0,55
515,469	0,55
515,92	0,56
516,371	0,56
516,822	0,56
517,273	0,56
517,724	0,56
518,175	0,56
518,626	0,57
519,076	0,57
519,527	0,57
519,978	0,57
520,429	0,57
520,88	0,57
521,33	0,58
521,781	0,58
522,232	0,58
522,682	0,58
523,133	0,58
523,583	0,58
524,034	0,58
524,484	0,58
524,935	0,58
525,385	0,58
525,836	0,58
526,286	0,58
526,736	0,59
527,187	0,59
527,637	0,59
528,087	0,59
528,538	0,58
528,988	0,58
529,438	0,58
529,888	0,58
530,338	0,58
530,788	0,58
531,238	0,58
531,688	0,58
532,139	0,58
532,589	0,58
533,038	0,58
533,488	0,58
533,938	0,58
534,388	0,58
534,838	0,58
535,288	0,58
535,738	0,58
536,187	0,57
536,637	0,57
537,087	0,57
537,537	0,57
537,986	0,57
538,436	0,57
538,885	0,56
539,335	0,56
539,785	0,56
540,234	0,56
540,684	0,55
541,133	0,55
541,582	0,55
542,032	0,55
542,481	0,55
542,931	0,54
543,38	0,54
543,829	0,54
544,278	0,53
544,728	0,53
545,177	0,53
545,626	0,53
546,075	0,53
546,524	0,52
546,973	0,52
547,422	0,52
547,871	0,52
548,32	0,52
548,769	0,52
549,218	0,52
549,667	0,52
550,116	0,52
550,565	0,52
551,014	0,51
551,463	0,51
551,911	0,51
552,36	0,51
552,809	0,51
553,258	0,51
553,706	0,5
554,155	0,5
554,603	0,5
555,052	0,5
555,501	0,5
555,949	0,49
556,398	0,49
556,846	0,49
557,294	0,49
557,743	0,49
558,191	0,48
558,64	0,48
559,088	0,48
559,536	0,48
559,985	0,47
560,433	0,47
560,881	0,47
561,329	0,47
561,777	0,47
562,225	0,47
562,674	0,46
563,122	0,46
563,57	0,46
564,018	0,46
564,466	0,46
564,914	0,45
565,362	0,45
565,809	0,45
566,257	0,45
566,705	0,45
567,153	0,45
567,601	0,44
568,048	0,44
568,496	0,44
568,944	0,44
569,392	0,44
569,839	0,43
570,287	0,43
570,734	0,43
571,182	0,43
571,63	0,43
572,077	0,43
572,525	0,42
572,972	0,42
573,419	0,42
573,867	0,42
574,314	0,42
574,761	0,42
575,209	0,41
575,656	0,41
576,103	0,41
576,551	0,41
576,998	0,41
577,445	0,41
577,892	0,41
578,339	0,41
578,786	0,41
579,233	0,4
579,68	0,4
580,127	0,4
580,574	0,4
581,021	0,4
581,468	0,4
581,915	0,4
582,362	0,4
582,809	0,4
583,255	0,39
583,702	0,39
584,149	0,39
584,596	0,39
585,042	0,39
585,489	0,39
585,936	0,39
586,382	0,38
586,829	0,38
587,275	0,38
587,722	0,38
588,168	0,38
588,615	0,38
589,061	0,38
589,508	0,38
589,954	0,38
590,4	0,38
590,847	0,38
591,293	0,38
591,739	0,38
592,185	0,38
592,632	0,38
593,078	0,38
593,524	0,37
593,97	0,37
594,416	0,37
594,862	0,37
595,308	0,37
595,754	0,37
596,2	0,37
596,646	0,37
597,092	0,37
597,538	0,37
597,984	0,37
598,43	0,37
598,876	0,37
599,321	0,37
599,767	0,36
600,213	0,36
600,659	0,36
601,104	0,36
601,55	0,36
601,995	0,36
602,441	0,36
602,887	0,36
603,332	0,36
603,778	0,36
604,223	0,36
604,668	0,36
605,114	0,36
605,559	0,36
606,005	0,36
606,45	0,36
606,895	0,36
607,341	0,36
607,786	0,36
608,231	0,35
608,676	0,35
609,121	0,35
609,566	0,34
610,012	0,34
610,457	0,34
610,902	0,34
611,347	0,34
611,792	0,33
612,237	0,33
612,682	0,33
613,127	0,33
613,571	0,33
614,016	0,34
614,461	0,34
614,906	0,34
615,351	0,34
615,795	0,34
616,24	0,34
616,685	0,34
617,129	0,34
617,574	0,34
618,019	0,34
618,463	0,34
618,908	0,34
619,352	0,34
619,797	0,34
620,241	0,34
620,686	0,34
621,13	0,34
621,574	0,34
622,019	0,34
622,463	0,34
622,907	0,34
623,352	0,34
623,796	0,34
624,24	0,34
624,684	0,34
625,128	0,34
625,572	0,34
626,016	0,34
626,461	0,34
626,905	0,34
627,349	0,34
627,793	0,34
628,236	0,34
628,68	0,34
629,124	0,33
629,568	0,33
630,012	0,33
630,456	0,33
630,9	0,33
631,343	0,33
631,787	0,33
632,231	0,33
632,674	0,33
633,118	0,33
633,562	0,33
634,005	0,33
634,449	0,34
634,892	0,34
635,336	0,34
635,779	0,34
636,223	0,33
636,666	0,33
637,109	0,33
637,553	0,33
637,996	0,33
638,439	0,33
638,883	0,33
639,326	0,33
639,769	0,33
640,212	0,33
640,655	0,33
641,099	0,33
641,542	0,33
641,985	0,33
642,428	0,33
642,871	0,33
643,314	0,33
643,757	0,33
644,2	0,33
644,643	0,33
645,085	0,33
645,528	0,33
645,971	0,33
646,414	0,33
646,857	0,33
647,299	0,33
647,742	0,32
648,185	0,32
648,627	0,32
649,07	0,32
649,513	0,32
649,955	0,32
650,398	0,32
650,84	0,32
651,283	0,32
651,725	0,32
652,168	0,32
652,61	0,32
653,052	0,32
653,495	0,32
653,937	0,25
654,379	0,2
654,821	0,21
655,264	0,21
655,706	0,21
656,148	0,21
656,59	0,21
657,032	0,21
657,474	0,21
657,916	0,21
658,358	0,2
658,8	0,25
659,242	0,32
659,684	0,32
660,126	0,32
660,568	0,32
661,01	0,32
661,452	0,32
661,894	0,32
662,335	0,32
662,777	0,32
663,219	0,32
663,661	0,32
664,102	0,32
664,544	0,32
664,985	0,32
665,427	0,32
665,869	0,32
666,31	0,32
666,752	0,32
667,193	0,32
667,634	0,32
668,076	0,32
668,517	0,32
668,959	0,32
669,4	0,32
669,841	0,32
670,282	0,32
670,724	0,32
671,165	0,32
671,606	0,32
672,047	0,32
672,488	0,32
672,929	0,32
673,37	0,32
673,811	0,32
674,252	0,32
674,693	0,31
675,134	0,31
675,575	0,31
676,016	0,31
676,457	0,31
676,898	0,31
677,339	0,31
677,78	0,31
678,22	0,31
678,661	0,31
679,102	0,31
679,542	0,31
679,983	0,32
680,424	0,32
680,864	0,32
681,305	0,32
681,745	0,32
682,186	0,32
682,626	0,32
683,067	0,32
683,507	0,32
683,948	0,32
684,388	0,32
684,828	0,31
685,269	0,31
685,709	0,31
686,149	0,31
686,589	0,31
687,029	0,31
687,47	0,31
687,91	0,31
688,35	0,31
688,79	0,31
689,23	0,31
689,67	0,3
690,11	0,3
690,55	0,3
690,99	0,3
691,43	0,3
691,87	0,3
692,31	0,3
692,749	0,3
693,189	0,3
693,629	0,3
694,069	0,3
694,508	0,3
694,948	0,3
695,388	0,3
695,827	0,3
696,267	0,3
696,706	0,3
697,146	0,31
697,586	0,31
698,025	0,31
698,464	0,31
698,904	0,31
699,343	0,31
699,783	0,31
700,222	0,31
700,661	0,31
701,101	0,31
701,54	0,31
701,979	0,31
702,418	0,31
702,857	0,31
703,297	0,31
703,736	0,31
704,175	0,31
704,614	0,3
705,053	0,3
705,492	0,3
705,931	0,3
706,37	0,3
706,809	0,3
707,248	0,3
707,687	0,3
708,125	0,3
708,564	0,3
709,003	0,3
709,442	0,3
709,88	0,3
710,319	0,3
710,758	0,3
711,196	0,3
711,635	0,3
712,074	0,3
712,512	0,3
712,951	0,3
713,389	0,3
713,828	0,29
714,266	0,29
714,705	0,29
715,143	0,29
715,581	0,29
716,02	0,29
716,458	0,29
716,896	0,29
717,334	0,29
717,773	0,29
718,211	0,29
718,649	0,29
719,087	0,29
719,525	0,29
719,963	0,29
720,401	0,29
720,839	0,29
721,277	0,29
721,715	0,29
722,153	0,29
722,591	0,29
723,029	0,29
723,467	0,29
723,905	0,29
724,342	0,29
724,78	0,29
725,218	0,29
725,656	0,29
726,093	0,29
726,531	0,29
726,969	0,29
727,406	0,29
727,844	0,29
728,281	0,29
728,719	0,29
729,156	0,29
729,594	0,29
730,031	0,29
730,469	0,29
730,906	0,29
731,343	0,29
731,781	0,29
732,218	0,29
732,655	0,29
733,092	0,29
733,53	0,29
733,967	0,29
734,404	0,29
734,841	0,29
735,278	0,28
735,715	0,28
736,152	0,28
736,589	0,28
737,026	0,28
737,463	0,28
737,9	0,28
738,337	0,28
738,774	0,28
739,211	0,28
739,647	0,28
740,084	0,28
740,521	0,28
740,958	0,28
741,394	0,28
741,831	0,28
742,268	0,28
742,704	0,27
743,141	0,27
743,577	0,27
744,014	0,27
744,45	0,27
744,887	0,27
745,323	0,27
745,76	0,27
746,196	0,26
746,632	0,26
747,069	0,26
747,505	0,26
747,941	0,26
748,378	0,26
748,814	0,27
749,25	0,27
749,686	0,27
750,122	0,27
750,558	0,27
750,994	0,27
751,43	0,27
751,866	0,27
752,302	0,27
752,738	0,28
753,174	0,28
753,61	0,28
754,046	0,28
754,482	0,28
754,918	0,28
755,354	0,28
755,789	0,28
756,225	0,28
756,661	0,28
757,096	0,28
757,532	0,27
757,968	0,27
758,403	0,27
758,839	0,27
759,274	0,27
759,71	0,26
760,145	0,26
760,581	0,26
761,016	0,25
761,452	0,25
761,887	0,25
762,322	0,24
762,758	0,24
763,193	0,24
763,628	0,23
764,063	0,23
764,499	0,22
764,934	0,22
765,369	0,21
765,804	0,21
766,239	0,2
766,674	0,2
767,109	0,19
767,544	0,19
767,979	0,18
768,414	0,17
768,849	0,17
769,284	0,16
769,719	0,15
770,154	0,15
770,588	0,14
771,023	0,13
771,458	0,13
771,893	0,12
772,327	0,11
772,762	0,1
773,197	0,09
773,631	0,09
774,066	0,08
774,5	0,07
774,935	0,06
775,369	0,05
775,804	0,04
776,238	0,04
776,673	0,03
777,107	0,02
777,541	0,02
777,976	0,01
778,41	-0
778,844	-0,01
779,279	-0,02
779,713	-0,02
780,147	-0,03
780,581	-0,04
781,015	-0,05
781,449	-0,06
781,883	-0,06
782,317	-0,08
782,751	-0,09
783,185	-0,1
783,619	-0,11
784,053	-0,11
784,487	-0,13
784,921	-0,13
785,355	-0,14
785,789	-0,14
786,223	-0,15
786,656	-0,15
787,09	-0,17
787,524	-0,17
787,957	-0,18
788,391	-0,2
788,825	-0,21
789,258	-0,22
789,692	-0,23
790,125	-0,25
790,559	-0,27
790,992	-0,29
791,426	-0,32
791,859	-0,34
792,293	-0,37
792,726	-0,38
793,159	-0,4
793,593	-0,42
794,026	-0,45
794,459	-0,48
794,892	-0,5
795,326	-0,53
795,759	-0,57
796,192	-0,61
796,625	-0,65
797,058	-0,67
797,491	-0,72
797,924	-0,75
798,357	-0,8
798,79	-0,85
799,223	-0,89
799,656	-0,94
800,089	-0,99
800,522	-1,03
800,955	-1,08
801,387	-1,13
801,82	-1,19
802,253	-1,25
802,686	-1,33
803,118	-1,39
803,551	-1,44
803,984	-1,48
804,416	-1,52
804,849	-1,56
805,281	-1,7
805,714	-2,04
806,146	-2,47
806,579	-2,72
807,011	-2,88
807,444	-2,97
807,876	-3,06
808,308	-3,09
808,741	-3,12
809,173	-3,17
809,605	-3,19
810,037	-3,27
810,47	-3,19
810,902	-2,99
811,334	-2,84
811,766	-2,68
812,198	-2,44
812,63	-2,03
813,062	-1,82
813,494	-1,73
813,926	-1,64
814,358	-1,59
814,79	-1,51
815,222	-1,45
815,654	-1,4
816,086	-1,33
816,518	-1,28
816,949	-1,22
817,381	-1,18
817,813	-1,16
818,245	-1,12
818,676	-1,08
819,108	-1,04
819,54	-1,03
819,971	-1,01
820,403	-0,95
820,834	-0,94
821,266	-0,89
821,697	-0,87
822,129	-0,85
822,56	-0,82
822,991	-0,8
823,423	-0,77
823,854	-0,77
824,286	-0,74
824,717	-0,73
825,148	-0,71
825,579	-0,7
826,01	-0,69
826,442	-0,68
826,873	-0,66
827,304	-0,62
827,735	-0,61
828,166	-0,61
828,597	-0,6
829,028	-0,59
829,459	-0,6
829,89	-0,6
830,321	-0,56
830,752	-0,57
831,183	-0,56
831,613	-0,55
832,044	-0,55
832,475	-0,54
832,906	-0,55
833,336	-0,55
833,767	-0,56
834,198	-0,54
834,628	-0,52
835,059	-0,55
835,49	-0,56
835,92	-0,53
836,351	-0,53
836,781	-0,53
837,212	-0,54
837,642	-0,55
838,072	-0,53
838,503	-0,54
838,933	-0,52
839,364	-0,53
839,794	-0,51
840,224	-0,49
840,654	-0,54
841,085	-0,54
841,515	-0,52
841,945	-0,52
842,375	-0,47
842,805	-0,46
843,235	-0,45
843,665	-0,46
844,095	-0,44
844,525	-0,46
844,955	-0,47
845,385	-0,45
845,815	-0,43
846,245	-0,45
846,675	-0,47
847,105	-0,49
847,534	-0,49
847,964	-0,48
848,394	-0,47
848,824	-0,5
849,253	-0,49
849,683	-0,49
850,112	-0,5
850,542	-0,54
850,972	-0,54
851,401	-0,51
851,831	-0,49
852,26	-0,5
852,69	-0,54
853,119	-0,53
853,548	-0,53
853,978	-0,55
854,407	-0,54
854,836	-0,54
855,266	-0,53
855,695	-0,54
856,124	-0,55
856,553	-0,57
856,983	-0,58
857,412	-0,58
857,841	-0,59
858,27	-0,59
858,699	-0,58
859,128	-0,61
859,557	-0,62
859,986	-0,63
860,415	-0,61
860,844	-0,58
861,273	-0,58
861,702	-0,59
862,13	-0,57
862,559	-0,58
862,988	-0,56
863,417	-0,55
863,845	-0,55
864,274	-0,55
864,703	-0,54
865,131	-0,54
865,56	-0,56
865,989	-0,59
866,417	-0,55
866,846	-0,56
867,274	-0,56
867,703	-0,58
868,131	-0,59
868,559	-0,6
868,988	-0,61
869,416	-0,61
869,844	-0,62
870,273	-0,65
870,701	-0,62
871,129	-0,66
871,557	-0,69
871,986	-0,68
872,414	-0,69
872,842	-0,66
873,27	-0,64
873,698	-0,61
874,126	-0,65
874,554	-0,63
874,982	-0,62
875,41	-0,65
875,838	-0,59
876,266	-0,57
876,694	-0,57
877,122	-0,57
877,549	-0,62
877,977	-0,59
878,405	-0,62
878,833	-0,58
879,26	-0,57
879,688	-0,57
880,116	-0,56
880,543	-0,54
880,971	-0,53
881,399	-0,55
881,826	-0,56
882,254	-0,54
882,681	-0,58
883,109	-0,54
883,536	-0,55
883,963	-0,57
884,391	-0,55
884,818	-0,54
885,245	-0,58
885,673	-0,59
886,1	-0,57
886,527	-0,56
886,954	-0,53
887,381	-0,55
887,809	-0,57
888,236	-0,58
888,663	-0,58
889,09	-0,62
889,517	-0,64
889,944	-0,64
890,371	-0,63
890,798	-0,64
891,225	-0,64
891,652	-0,66
892,078	-0,63
892,505	-0,65
892,932	-0,61
893,359	-0,61
893,786	-0,6
894,212	-0,57
894,639	-0,59
895,066	-0,61
895,492	-0,55
895,919	-0,56
896,346	-0,57
896,772	-0,58
897,199	-0,54
897,625	-0,58
898,052	-0,55
898,478	-0,54
898,904	-0,54
899,331	-0,54
899,757	-0,57
900,183	-0,58
900,61	-0,56
901,036	-0,56
901,462	-0,56
901,888	-0,55
902,315	-0,54
902,741	-0,58
903,167	-0,57
903,593	-0,6
904,019	-0,57
904,445	-0,54
904,871	-0,57
905,297	-0,59
905,723	-0,57
906,149	-0,56
906,575	-0,57
907,001	-0,57
907,427	-0,54
907,852	-0,54
908,278	-0,55
908,704	-0,52
909,13	-0,52
909,555	-0,51
909,981	-0,51
910,407	-0,51
910,832	-0,51
911,258	-0,51
911,684	-0,51
912,109	-0,51
912,535	-0,52
912,96	-0,48
913,386	-0,52
913,811	-0,52
914,236	-0,54
914,662	-0,52
915,087	-0,55
915,512	-0,55
915,938	-0,57
916,363	-0,57
916,788	-0,58
917,213	-0,56
917,639	-0,61
918,064	-0,58
918,489	-0,59
918,914	-0,59
919,339	-0,6
919,764	-0,58
920,189	-0,57
920,614	-0,59
921,039	-0,59
921,464	-0,54
921,889	-0,57
922,314	-0,58
922,738	-0,61
923,163	-0,62
923,588	-0,62
924,013	-0,61
924,437	-0,6
924,862	-0,63
925,287	-0,59
925,711	-0,6
926,136	-0,63
926,561	-0,6
926,985	-0,6
927,41	-0,57
927,834	-0,55
928,259	-0,52
928,683	-0,5
929,108	-0,48
929,532	-0,49
929,956	-0,48
930,381	-0,47
930,805	-0,47
931,229	-0,47
931,653	-0,45
932,078	-0,45
932,502	-0,47
932,926	-0,48
933,35	-0,48
933,774	-0,47
934,198	-0,45
934,622	-0,44
935,046	-0,45
935,47	-0,45
935,894	-0,45
936,318	-0,45
936,742	-0,45
937,166	-0,45
937,59	-0,44
938,014	-0,47
938,437	-0,47
938,861	-0,49
939,285	-0,5
939,709	-0,49
940,132	-0,5
940,556	-0,5
940,98	-0,49
941,403	-0,48
941,827	-0,47
942,25	-0,48
942,674	-0,46
943,097	-0,46
943,521	-0,47
943,944	-0,48
944,368	-0,46
944,791	-0,45
945,214	-0,47
945,638	-0,48
946,061	-0,51
946,484	-0,52
946,907	-0,51
947,331	-0,52
947,754	-0,55
948,177	-0,53
948,6	-0,52
949,023	-0,52
949,446	-0,52
949,869	-0,5
950,292	-0,5
950,715	-0,47
951,138	-0,45
951,561	-0,43
951,984	-0,42
952,407	-0,41
952,83	-0,39
953,252	-0,35
953,675	-0,35
954,098	-0,36
954,521	-0,34
954,943	-0,33
955,366	-0,33
955,789	-0,32
956,211	-0,34
956,634	-0,35
957,056	-0,32
957,479	-0,34
957,902	-0,36
958,324	-0,37
958,746	-0,35
959,169	-0,36
959,591	-0,37
960,014	-0,39
960,436	-0,38
960,858	-0,38
961,281	-0,38
961,703	-0,39
962,125	-0,39
962,547	-0,38
962,969	-0,39
963,391	-0,39
963,814	-0,4
964,236	-0,39
964,658	-0,36
965,08	-0,37
965,502	-0,36
965,924	-0,34
966,346	-0,34
966,768	-0,33
967,189	-0,34
967,611	-0,34
968,033	-0,35
968,455	-0,33
968,877	-0,34
969,298	-0,35
969,72	-0,36
970,142	-0,36
970,563	-0,36
970,985	-0,35
971,407	-0,34
971,828	-0,32
972,25	-0,31
972,671	-0,29
973,093	-0,28
973,514	-0,27
973,936	-0,25
974,357	-0,24
974,778	-0,24
975,2	-0,24
975,621	-0,23
976,042	-0,22
976,464	-0,21
976,885	-0,2
977,306	-0,2
977,727	-0,19
978,148	-0,19
978,57	-0,17
978,991	-0,15
979,412	-0,14
979,833	-0,13
980,254	-0,13
980,675	-0,13
981,096	-0,13
981,517	-0,11
981,937	-0,11
982,358	-0,1
982,779	-0,09
983,2	-0,09
983,621	-0,09
984,042	-0,08
984,462	-0,07
984,883	-0,05
985,304	-0,03
985,724	-0,03
986,145	-0,02
986,565	-0
986,986	0,01
987,407	0,01
987,827	0,02
988,248	0,03
988,668	0,04
989,088	0,04
989,509	0,05
989,929	0,06
990,35	0,07
990,77	0,08
991,19	0,08
991,61	0,09
992,031	0,1
992,451	0,11
992,871	0,12
993,291	0,13
993,711	0,14
994,131	0,14
994,551	0,14
994,971	0,15
995,391	0,15
995,811	0,16
996,231	0,16
996,651	0,16
997,071	0,17
997,491	0,18
997,911	0,18
998,331	0,18
998,75	0,19
999,17	0,19
999,59	0,2
1000,009	0,2
1000,429	0,2
1000,849	0,2
1001,268	0,21
1001,688	0,21
1002,107	0,21
1002,527	0,21
1002,946	0,22
1003,366	0,22
1003,785	0,22
1004,205	0,22
1004,624	0,22
1005,044	0,23
1005,463	0,23
1005,882	0,23
1006,301	0,23
1006,721	0,23
1007,14	0,23
1007,559	0,23
1007,978	0,23
1008,397	0,23
1008,816	0,23
1009,235	0,23
1009,655	0,23
1010,074	0,23
1010,492	0,23
1010,911	0,22
1011,33	0,22
1011,749	0,22
1012,168	0,22
1012,587	0,22
1013,006	0,22
1013,425	0,22
1013,843	0,22
1014,262	0,22
1014,681	0,22
1015,099	0,22
1015,518	0,22
1015,937	0,22
1016,355	0,22
1016,774	0,22
1017,192	0,22
1017,611	0,22
1018,029	0,22
1018,448	0,22
1018,866	0,22
1019,285	0,22
1019,703	0,22
1020,121	0,22
1020,54	0,22
1020,958	0,22
1021,376	0,22
1021,794	0,22
1022,213	0,22
1022,631	0,22
1023,049	0,22
1023,467	0,22
1023,885	0,22
1024,303	0,22
1024,721	0,22
1025,139	0,22
1025,557	0,22
1025,975	0,22
1026,393	0,22
1026,811	0,22
1027,229	0,22
1027,647	0,22
1028,065	0,21
1028,482	0,21
1028,9	0,21
1029,318	0,21
1029,735	0,21
1030,153	0,21
1030,571	0,21
1030,988	0,21
1031,406	0,21
1031,823	0,21
1032,241	0,21
1032,659	0,21
1033,076	0,21
1033,493	0,21
1033,911	0,21
1034,328	0,21
1034,746	0,21
1035,163	0,21
1035,58	0,21
1035,997	0,21
1036,415	0,21
1036,832	0,21
1037,249	0,21
1037,666	0,21
1038,083	0,21
1038,501	0,21
1038,918	0,21
1039,335	0,21
1039,752	0,21
1040,169	0,21
1040,586	0,21
1041,003	0,21
1041,419	0,21
1041,836	0,21
1042,253	0,21
1042,67	0,21
1043,087	0,2
1043,504	0,2
1043,92	0,2
1044,337	0,2
1044,754	0,2
1045,17	0,2
1045,587	0,2
1046,004	0,2
1046,42	0,2
1046,837	0,2
1047,253	0,2
1047,67	0,2
1048,086	0,2
1048,503	0,2
1048,919	0,2
1049,335	0,2
1049,752	0,2
1050,168	0,2
1050,584	0,2
1051,001	0,2
1051,417	0,2
1051,833	0,2
1052,249	0,2
1052,665	0,2
1053,081	0,2
1053,497	0,2
1053,914	0,2
1054,33	0,2
1054,746	0,2
1055,162	0,2
1055,578	0,2
1055,993	0,2
1056,409	0,21
1056,825	0,21
1057,241	0,21
1057,657	0,21
1058,073	0,21
1058,488	0,21
1058,904	0,21
1059,32	0,21
1059,736	0,21
1060,151	0,21
1060,567	0,21
1060,982	0,21
1061,398	0,21
1061,813	0,21
1062,229	0,21
1062,644	0,2
1063,06	0,2
1063,475	0,2
1063,891	0,2
1064,306	0,2
1064,721	0,2
1065,137	0,2
1065,552	0,2
1065,967	0,2
1066,382	0,2
1066,798	0,2
1067,213	0,2
1067,628	0,2
1068,043	0,2
1068,458	0,2
1068,873	0,2
1069,288	0,2
1069,703	0,2
1070,118	0,21
1070,533	0,21
1070,948	0,21
1071,363	0,21
1071,778	0,21
1072,193	0,21
1072,607	0,21
1073,022	0,21
1073,437	0,21
1073,852	0,21
1074,266	0,21
1074,681	0,21
1075,096	0,21
1075,51	0,21
1075,925	0,21
1076,339	0,21
1076,754	0,21
1077,168	0,21
1077,583	0,21
1077,997	0,21
1078,412	0,21
1078,826	0,21
1079,24	0,21
1079,655	0,21
1080,069	0,2
1080,483	0,2
1080,897	0,2
1081,312	0,2
1081,726	0,2
1082,14	0,2
1082,554	0,2
1082,968	0,2
1083,382	0,2
1083,796	0,2
1084,21	0,2
1084,624	0,2
1085,038	0,2
1085,452	0,2
1085,866	0,19
1086,28	0,19
1086,694	0,19
1087,108	0,19
1087,521	0,19
1087,935	0,19
1088,349	0,19
1088,763	0,19
1089,176	0,19
1089,59	0,19
1090,004	0,19
1090,417	0,18
1090,831	0,18
1091,244	0,18
1091,658	0,18
1092,071	0,18
1092,485	0,17
1092,898	0,17
1093,312	0,17
1093,725	0,17
1094,138	0,17
1094,552	0,17
1094,965	0,17
1095,378	0,17
1095,791	0,16
1096,205	0,16
1096,618	0,16
1097,031	0,16
1097,444	0,16
1097,857	0,16
1098,27	0,16
1098,683	0,16
1099,096	0,15
1099,509	0,15
1099,922	0,15
1100,335	0,15
1100,748	0,14
1101,161	0,14
1101,574	0,14
1101,986	0,13
1102,399	0,13
1102,812	0,13
1103,225	0,13
1103,637	0,12
1104,05	0,12
1104,463	0,12
1104,875	0,12
1105,288	0,12
1105,7	0,12
1106,113	0,11
1106,525	0,11
1106,938	0,1
1107,35	0,1
1107,763	0,1
1108,175	0,1
1108,588	0,09
1109	0,09
1109,412	0,08
1109,824	0,08
1110,237	0,08
1110,649	0,07
1111,061	0,06
