Data from 18C-808nm-8A_Absorbance__1123__01123.txt Node

Date: Mon Jul 17 17:03:11 CEST 2023
User: Laser008
Spectrometer: MAYP115816
Trigger mode: 0
Integration Time (sec): 2,500000E-1
Scans to average: 10
Electric dark correction enabled: true
Nonlinearity correction enabled: true
Boxcar width: 5
XAxis mode: Wavelengths
Number of Pixels in Spectrum: 2068
>>>>>Begin Spectral Data<<<<<
198,914	-0,7
199,384	-0,49
199,855	-0,37
200,325	-0,3
200,796	-0,27
201,266	-0,22
201,737	-0,2
202,207	-0,19
202,677	-0,19
203,147	-0,17
203,618	-0,13
204,088	-0,12
204,558	-0,11
205,028	-0,11
205,498	-0,11
205,968	-0,1
206,439	-0,12
206,909	-0,11
207,379	-0,11
207,849	-0,11
208,319	-0,12
208,789	-0,12
209,258	-0,12
209,728	-0,13
210,198	-0,13
210,668	-0,12
211,138	-0,12
211,608	-0,12
212,077	-0,12
212,547	-0,12
213,017	-0,12
213,486	-0,12
213,956	-0,13
214,426	-0,14
214,895	-0,13
215,365	-0,13
215,834	-0,13
216,304	-0,13
216,773	-0,14
217,243	-0,16
217,712	-0,16
218,181	-0,16
218,651	-0,17
219,12	-0,17
219,589	-0,17
220,058	-0,17
220,528	-0,19
220,997	-0,19
221,466	-0,21
221,935	-0,22
222,404	-0,21
222,873	-0,2
223,342	-0,2
223,812	-0,2
224,281	-0,2
224,749	-0,21
225,218	-0,22
225,687	-0,21
226,156	-0,2
226,625	-0,18
227,094	-0,18
227,563	-0,18
228,031	-0,2
228,5	-0,2
228,969	-0,19
229,438	-0,19
229,906	-0,18
230,375	-0,17
230,844	-0,17
231,312	-0,17
231,781	-0,18
232,249	-0,18
232,718	-0,18
233,186	-0,17
233,655	-0,17
234,123	-0,16
234,591	-0,16
235,06	-0,16
235,528	-0,16
235,996	-0,15
236,465	-0,16
236,933	-0,16
237,401	-0,15
237,869	-0,14
238,337	-0,15
238,805	-0,14
239,274	-0,14
239,742	-0,15
240,21	-0,14
240,678	-0,13
241,146	-0,13
241,614	-0,13
242,081	-0,12
242,549	-0,12
243,017	-0,13
243,485	-0,13
243,953	-0,13
244,421	-0,13
244,888	-0,12
245,356	-0,13
245,824	-0,13
246,291	-0,13
246,759	-0,14
247,227	-0,14
247,694	-0,13
248,162	-0,11
248,629	-0,11
249,097	-0,11
249,564	-0,12
250,032	-0,12
250,499	-0,12
250,967	-0,12
251,434	-0,12
251,901	-0,11
252,369	-0,12
252,836	-0,13
253,303	-0,15
253,77	-0,16
254,237	-0,16
254,705	-0,17
255,172	-0,17
255,639	-0,17
256,106	-0,18
256,573	-0,18
257,04	-0,18
257,507	-0,18
257,974	-0,19
258,441	-0,16
258,908	-0,17
259,375	-0,18
259,841	-0,18
260,308	-0,18
260,775	-0,19
261,242	-0,18
261,709	-0,19
262,175	-0,2
262,642	-0,19
263,109	-0,19
263,575	-0,21
264,042	-0,21
264,508	-0,19
264,975	-0,2
265,441	-0,22
265,908	-0,22
266,374	-0,21
266,841	-0,21
267,307	-0,22
267,773	-0,22
268,24	-0,23
268,706	-0,22
269,172	-0,22
269,639	-0,24
270,105	-0,22
270,571	-0,22
271,037	-0,22
271,503	-0,22
271,969	-0,22
272,435	-0,22
272,902	-0,23
273,368	-0,24
273,834	-0,24
274,3	-0,24
274,765	-0,24
275,231	-0,24
275,697	-0,23
276,163	-0,23
276,629	-0,23
277,095	-0,24
277,56	-0,23
278,026	-0,23
278,492	-0,21
278,958	-0,21
279,423	-0,22
279,889	-0,22
280,354	-0,22
280,82	-0,22
281,286	-0,24
281,751	-0,24
282,217	-0,23
282,682	-0,23
283,147	-0,22
283,613	-0,23
284,078	-0,23
284,544	-0,24
285,009	-0,24
285,474	-0,23
285,939	-0,24
286,405	-0,23
286,87	-0,23
287,335	-0,22
287,8	-0,21
288,265	-0,2
288,73	-0,22
289,195	-0,24
289,66	-0,24
290,125	-0,23
290,59	-0,24
291,055	-0,23
291,52	-0,23
291,985	-0,23
292,45	-0,24
292,915	-0,25
293,38	-0,24
293,844	-0,22
294,309	-0,21
294,774	-0,2
295,239	-0,21
295,703	-0,22
296,168	-0,21
296,632	-0,21
297,097	-0,2
297,562	-0,18
298,026	-0,18
298,491	-0,19
298,955	-0,19
299,419	-0,18
299,884	-0,19
300,348	-0,17
300,813	-0,16
301,277	-0,17
301,741	-0,16
302,205	-0,15
302,67	-0,15
303,134	-0,14
303,598	-0,14
304,062	-0,13
304,526	-0,13
304,99	-0,14
305,454	-0,15
305,919	-0,14
306,383	-0,13
306,847	-0,14
307,31	-0,16
307,774	-0,16
308,238	-0,17
308,702	-0,17
309,166	-0,18
309,63	-0,18
310,094	-0,16
310,557	-0,15
311,021	-0,15
311,485	-0,16
311,948	-0,16
312,412	-0,15
312,876	-0,15
313,339	-0,15
313,803	-0,15
314,266	-0,15
314,73	-0,15
315,193	-0,15
315,657	-0,14
316,12	-0,14
316,584	-0,12
317,047	-0,12
317,51	-0,11
317,973	-0,11
318,437	-0,09
318,9	-0,08
319,363	-0,07
319,826	-0,07
320,29	-0,08
320,753	-0,08
321,216	-0,07
321,679	-0,07
322,142	-0,06
322,605	-0,07
323,068	-0,07
323,531	-0,08
323,994	-0,08
324,457	-0,07
324,92	-0,06
325,382	-0,06
325,845	-0,05
326,308	-0,05
326,771	-0,05
327,233	-0,05
327,696	-0,04
328,159	-0,04
328,622	-0,03
329,084	-0,03
329,547	-0,03
330,009	-0,02
330,472	-0,01
330,934	-0,01
331,397	-0,01
331,859	-0
332,322	-0
332,784	0
333,246	0,01
333,709	0,01
334,171	0,02
334,633	0,02
335,096	0,02
335,558	0,02
336,02	0,02
336,482	0,02
336,944	0,03
337,406	0,04
337,868	0,04
338,331	0,04
338,793	0,05
339,255	0,05
339,717	0,06
340,178	0,06
340,64	0,06
341,102	0,07
341,564	0,08
342,026	0,08
342,488	0,09
342,949	0,09
343,411	0,11
343,873	0,13
344,335	0,15
344,796	0,18
345,258	0,21
345,719	0,24
346,181	0,27
346,643	0,29
347,104	0,31
347,566	0,33
348,027	0,35
348,488	0,36
348,95	0,37
349,411	0,38
349,873	0,39
350,334	0,4
350,795	0,41
351,256	0,41
351,718	0,42
352,179	0,42
352,64	0,42
353,101	0,42
353,562	0,42
354,023	0,43
354,484	0,43
354,945	0,43
355,406	0,43
355,867	0,43
356,328	0,43
356,789	0,43
357,25	0,44
357,711	0,44
358,172	0,44
358,633	0,44
359,093	0,44
359,554	0,44
360,015	0,44
360,476	0,44
360,936	0,44
361,397	0,44
361,858	0,44
362,318	0,44
362,779	0,44
363,239	0,44
363,7	0,44
364,16	0,44
364,621	0,44
365,081	0,44
365,541	0,44
366,002	0,44
366,462	0,44
366,922	0,44
367,383	0,44
367,843	0,44
368,303	0,44
368,763	0,44
369,223	0,44
369,684	0,44
370,144	0,44
370,604	0,44
371,064	0,44
371,524	0,44
371,984	0,44
372,444	0,44
372,904	0,44
373,363	0,44
373,823	0,44
374,283	0,44
374,743	0,44
375,203	0,44
375,663	0,44
376,122	0,44
376,582	0,44
377,042	0,44
377,501	0,44
377,961	0,44
378,42	0,44
378,88	0,44
379,34	0,44
379,799	0,43
380,259	0,43
380,718	0,43
381,177	0,43
381,637	0,43
382,096	0,43
382,555	0,43
383,015	0,43
383,474	0,43
383,933	0,43
384,393	0,43
384,852	0,43
385,311	0,43
385,77	0,43
386,229	0,43
386,688	0,43
387,147	0,43
387,606	0,43
388,065	0,43
388,524	0,43
388,983	0,43
389,442	0,43
389,901	0,43
390,36	0,43
390,819	0,43
391,277	0,43
391,736	0,43
392,195	0,43
392,654	0,43
393,112	0,43
393,571	0,43
394,03	0,43
394,488	0,43
394,947	0,43
395,405	0,43
395,864	0,43
396,322	0,43
396,781	0,43
397,239	0,43
397,698	0,43
398,156	0,43
398,614	0,43
399,073	0,42
399,531	0,42
399,989	0,42
400,447	0,42
400,905	0,42
401,364	0,42
401,822	0,42
402,28	0,42
402,738	0,42
403,196	0,42
403,654	0,42
404,112	0,42
404,57	0,42
405,028	0,42
405,486	0,42
405,944	0,42
406,402	0,42
406,859	0,42
407,317	0,42
407,775	0,42
408,233	0,42
408,691	0,42
409,148	0,42
409,606	0,42
410,064	0,42
410,521	0,42
410,979	0,42
411,436	0,42
411,894	0,42
412,351	0,42
412,809	0,42
413,266	0,42
413,724	0,42
414,181	0,42
414,638	0,42
415,096	0,42
415,553	0,42
416,01	0,42
416,467	0,42
416,925	0,42
417,382	0,42
417,839	0,42
418,296	0,42
418,753	0,42
419,21	0,41
419,667	0,41
420,124	0,41
420,581	0,41
421,038	0,41
421,495	0,41
421,952	0,41
422,409	0,41
422,866	0,41
423,322	0,41
423,779	0,41
424,236	0,41
424,693	0,41
425,149	0,41
425,606	0,41
426,063	0,41
426,519	0,41
426,976	0,41
427,433	0,41
427,889	0,41
428,346	0,41
428,802	0,41
429,258	0,41
429,715	0,41
430,171	0,41
430,628	0,41
431,084	0,41
431,54	0,41
431,997	0,41
432,453	0,41
432,909	0,41
433,365	0,41
433,821	0,41
434,277	0,41
434,734	0,41
435,19	0,41
435,646	0,41
436,102	0,41
436,558	0,41
437,014	0,41
437,47	0,41
437,925	0,41
438,381	0,41
438,837	0,41
439,293	0,41
439,749	0,41
440,205	0,41
440,66	0,41
441,116	0,41
441,572	0,41
442,027	0,41
442,483	0,41
442,939	0,41
443,394	0,41
443,85	0,41
444,305	0,41
444,761	0,41
445,216	0,41
445,672	0,41
446,127	0,41
446,582	0,41
447,038	0,41
447,493	0,41
447,948	0,41
448,403	0,41
448,859	0,41
449,314	0,41
449,769	0,41
450,224	0,41
450,679	0,41
451,134	0,41
451,589	0,41
452,044	0,41
452,499	0,41
452,954	0,41
453,409	0,41
453,864	0,41
454,319	0,41
454,774	0,41
455,229	0,41
455,684	0,41
456,138	0,41
456,593	0,41
457,048	0,41
457,503	0,41
457,957	0,41
458,412	0,41
458,866	0,41
459,321	0,41
459,776	0,41
460,23	0,41
460,685	0,41
461,139	0,41
461,593	0,41
462,048	0,41
462,502	0,42
462,957	0,42
463,411	0,42
463,865	0,42
464,319	0,42
464,774	0,42
465,228	0,42
465,682	0,42
466,136	0,42
466,59	0,42
467,044	0,42
467,499	0,42
467,953	0,42
468,407	0,42
468,861	0,42
469,315	0,42
469,768	0,42
470,222	0,42
470,676	0,42
471,13	0,42
471,584	0,42
472,038	0,42
472,491	0,42
472,945	0,42
473,399	0,42
473,852	0,42
474,306	0,42
474,76	0,42
475,213	0,42
475,667	0,43
476,12	0,43
476,574	0,43
477,027	0,43
477,481	0,43
477,934	0,43
478,388	0,43
478,841	0,43
479,294	0,43
479,748	0,43
480,201	0,43
480,654	0,44
481,107	0,44
481,561	0,44
482,014	0,44
482,467	0,44
482,92	0,44
483,373	0,44
483,826	0,44
484,279	0,44
484,732	0,44
485,185	0,45
485,638	0,45
486,091	0,45
486,544	0,45
486,997	0,45
487,449	0,45
487,902	0,45
488,355	0,45
488,808	0,45
489,26	0,46
489,713	0,46
490,166	0,46
490,618	0,46
491,071	0,46
491,523	0,46
491,976	0,47
492,429	0,47
492,881	0,47
493,333	0,47
493,786	0,47
494,238	0,47
494,691	0,48
495,143	0,48
495,595	0,48
496,048	0,48
496,5	0,48
496,952	0,49
497,404	0,49
497,856	0,49
498,309	0,49
498,761	0,49
499,213	0,5
499,665	0,5
500,117	0,5
500,569	0,5
501,021	0,51
501,473	0,51
501,925	0,51
502,377	0,51
502,828	0,52
503,28	0,52
503,732	0,52
504,184	0,52
504,636	0,52
505,087	0,53
505,539	0,53
505,991	0,53
506,442	0,53
506,894	0,54
507,345	0,54
507,797	0,54
508,249	0,54
508,7	0,55
509,151	0,55
509,603	0,55
510,054	0,55
510,506	0,56
510,957	0,56
511,408	0,56
511,86	0,56
512,311	0,56
512,762	0,57
513,213	0,57
513,665	0,57
514,116	0,57
514,567	0,57
515,018	0,58
515,469	0,58
515,92	0,58
516,371	0,58
516,822	0,58
517,273	0,59
517,724	0,59
518,175	0,59
518,626	0,59
519,076	0,59
519,527	0,59
519,978	0,6
520,429	0,6
520,88	0,6
521,33	0,6
521,781	0,6
522,232	0,6
522,682	0,6
523,133	0,6
523,583	0,61
524,034	0,61
524,484	0,61
524,935	0,61
525,385	0,61
525,836	0,61
526,286	0,61
526,736	0,61
527,187	0,61
527,637	0,61
528,087	0,61
528,538	0,61
528,988	0,61
529,438	0,61
529,888	0,61
530,338	0,61
530,788	0,61
531,238	0,61
531,688	0,61
532,139	0,61
532,589	0,61
533,038	0,61
533,488	0,61
533,938	0,61
534,388	0,6
534,838	0,6
535,288	0,6
535,738	0,6
536,187	0,6
536,637	0,6
537,087	0,59
537,537	0,59
537,986	0,59
538,436	0,59
538,885	0,59
539,335	0,58
539,785	0,58
540,234	0,58
540,684	0,58
541,133	0,57
541,582	0,57
542,032	0,57
542,481	0,57
542,931	0,56
543,38	0,56
543,829	0,56
544,278	0,56
544,728	0,55
545,177	0,55
545,626	0,55
546,075	0,55
546,524	0,54
546,973	0,54
547,422	0,54
547,871	0,54
548,32	0,54
548,769	0,54
549,218	0,54
549,667	0,54
550,116	0,54
550,565	0,53
551,014	0,53
551,463	0,53
551,911	0,53
552,36	0,53
552,809	0,52
553,258	0,52
553,706	0,52
554,155	0,52
554,603	0,52
555,052	0,51
555,501	0,51
555,949	0,51
556,398	0,51
556,846	0,51
557,294	0,5
557,743	0,5
558,191	0,5
558,64	0,5
559,088	0,49
559,536	0,49
559,985	0,49
560,433	0,49
560,881	0,48
561,329	0,48
561,777	0,48
562,225	0,48
562,674	0,48
563,122	0,47
563,57	0,47
564,018	0,47
564,466	0,47
564,914	0,47
565,362	0,47
565,809	0,46
566,257	0,46
566,705	0,46
567,153	0,46
567,601	0,45
568,048	0,45
568,496	0,45
568,944	0,45
569,392	0,45
569,839	0,44
570,287	0,44
570,734	0,44
571,182	0,44
571,63	0,44
572,077	0,44
572,525	0,43
572,972	0,43
573,419	0,43
573,867	0,43
574,314	0,43
574,761	0,42
575,209	0,42
575,656	0,42
576,103	0,42
576,551	0,42
576,998	0,42
577,445	0,42
577,892	0,42
578,339	0,42
578,786	0,41
579,233	0,41
579,68	0,41
580,127	0,41
580,574	0,41
581,021	0,41
581,468	0,41
581,915	0,4
582,362	0,4
582,809	0,4
583,255	0,4
583,702	0,4
584,149	0,4
584,596	0,4
585,042	0,4
585,489	0,39
585,936	0,39
586,382	0,39
586,829	0,39
587,275	0,39
587,722	0,39
588,168	0,39
588,615	0,39
589,061	0,39
589,508	0,39
589,954	0,39
590,4	0,39
590,847	0,38
591,293	0,38
591,739	0,38
592,185	0,38
592,632	0,38
593,078	0,38
593,524	0,38
593,97	0,38
594,416	0,38
594,862	0,38
595,308	0,38
595,754	0,38
596,2	0,38
596,646	0,37
597,092	0,37
597,538	0,37
597,984	0,37
598,43	0,37
598,876	0,37
599,321	0,37
599,767	0,37
600,213	0,37
600,659	0,37
601,104	0,37
601,55	0,37
601,995	0,36
602,441	0,36
602,887	0,36
603,332	0,36
603,778	0,36
604,223	0,36
604,668	0,36
605,114	0,36
605,559	0,36
606,005	0,36
606,45	0,36
606,895	0,36
607,341	0,36
607,786	0,36
608,231	0,36
608,676	0,36
609,121	0,35
609,566	0,35
610,012	0,35
610,457	0,34
610,902	0,34
611,347	0,34
611,792	0,34
612,237	0,34
612,682	0,34
613,127	0,34
613,571	0,34
614,016	0,34
614,461	0,34
614,906	0,34
615,351	0,34
615,795	0,34
616,24	0,34
616,685	0,34
617,129	0,34
617,574	0,34
618,019	0,34
618,463	0,34
618,908	0,34
619,352	0,34
619,797	0,34
620,241	0,34
620,686	0,34
621,13	0,34
621,574	0,34
622,019	0,34
622,463	0,34
622,907	0,34
623,352	0,34
623,796	0,34
624,24	0,34
624,684	0,34
625,128	0,34
625,572	0,34
626,016	0,34
626,461	0,34
626,905	0,34
627,349	0,34
627,793	0,34
628,236	0,34
628,68	0,34
629,124	0,34
629,568	0,34
630,012	0,34
630,456	0,34
630,9	0,34
631,343	0,34
631,787	0,34
632,231	0,34
632,674	0,34
633,118	0,34
633,562	0,34
634,005	0,34
634,449	0,34
634,892	0,34
635,336	0,34
635,779	0,34
636,223	0,33
636,666	0,33
637,109	0,33
637,553	0,33
637,996	0,33
638,439	0,33
638,883	0,33
639,326	0,33
639,769	0,33
640,212	0,33
640,655	0,33
641,099	0,33
641,542	0,33
641,985	0,33
642,428	0,33
642,871	0,33
643,314	0,33
643,757	0,33
644,2	0,33
644,643	0,33
645,085	0,33
645,528	0,33
645,971	0,33
646,414	0,33
646,857	0,33
647,299	0,33
647,742	0,33
648,185	0,32
648,627	0,32
649,07	0,32
649,513	0,32
649,955	0,32
650,398	0,32
650,84	0,32
651,283	0,32
651,725	0,32
652,168	0,32
652,61	0,32
653,052	0,32
653,495	0,32
653,937	0,25
654,379	0,2
654,821	0,21
655,264	0,21
655,706	0,21
656,148	0,21
656,59	0,21
657,032	0,21
657,474	0,21
657,916	0,21
658,358	0,2
658,8	0,25
659,242	0,32
659,684	0,32
660,126	0,32
660,568	0,32
661,01	0,32
661,452	0,32
661,894	0,32
662,335	0,32
662,777	0,32
663,219	0,32
663,661	0,32
664,102	0,32
664,544	0,32
664,985	0,32
665,427	0,32
665,869	0,32
666,31	0,32
666,752	0,32
667,193	0,32
667,634	0,32
668,076	0,32
668,517	0,32
668,959	0,32
669,4	0,32
669,841	0,32
670,282	0,32
670,724	0,32
671,165	0,32
671,606	0,32
672,047	0,32
672,488	0,32
672,929	0,32
673,37	0,32
673,811	0,32
674,252	0,32
674,693	0,32
675,134	0,32
675,575	0,32
676,016	0,32
676,457	0,32
676,898	0,32
677,339	0,32
677,78	0,32
678,22	0,31
678,661	0,31
679,102	0,32
679,542	0,32
679,983	0,32
680,424	0,32
680,864	0,32
681,305	0,32
681,745	0,32
682,186	0,32
682,626	0,32
683,067	0,32
683,507	0,31
683,948	0,31
684,388	0,31
684,828	0,31
685,269	0,31
685,709	0,31
686,149	0,31
686,589	0,31
687,029	0,31
687,47	0,31
687,91	0,31
688,35	0,31
688,79	0,31
689,23	0,31
689,67	0,31
690,11	0,3
690,55	0,3
690,99	0,3
691,43	0,3
691,87	0,3
692,31	0,3
692,749	0,3
693,189	0,3
693,629	0,3
694,069	0,3
694,508	0,3
694,948	0,3
695,388	0,3
695,827	0,3
696,267	0,3
696,706	0,3
697,146	0,31
697,586	0,31
698,025	0,31
698,464	0,31
698,904	0,31
699,343	0,31
699,783	0,31
700,222	0,31
700,661	0,31
701,101	0,31
701,54	0,31
701,979	0,31
702,418	0,31
702,857	0,31
703,297	0,31
703,736	0,31
704,175	0,3
704,614	0,3
705,053	0,3
705,492	0,3
705,931	0,3
706,37	0,3
706,809	0,3
707,248	0,3
707,687	0,3
708,125	0,3
708,564	0,3
709,003	0,3
709,442	0,3
709,88	0,3
710,319	0,3
710,758	0,3
711,196	0,3
711,635	0,3
712,074	0,3
712,512	0,3
712,951	0,3
713,389	0,29
713,828	0,29
714,266	0,29
714,705	0,29
715,143	0,29
715,581	0,29
716,02	0,29
716,458	0,29
716,896	0,29
717,334	0,29
717,773	0,29
718,211	0,29
718,649	0,29
719,087	0,29
719,525	0,29
719,963	0,29
720,401	0,29
720,839	0,29
721,277	0,29
721,715	0,29
722,153	0,29
722,591	0,29
723,029	0,29
723,467	0,29
723,905	0,29
724,342	0,29
724,78	0,29
725,218	0,29
725,656	0,29
726,093	0,29
726,531	0,29
726,969	0,29
727,406	0,29
727,844	0,29
728,281	0,29
728,719	0,29
729,156	0,29
729,594	0,29
730,031	0,29
730,469	0,29
730,906	0,29
731,343	0,29
731,781	0,29
732,218	0,29
732,655	0,29
733,092	0,29
733,53	0,29
733,967	0,29
734,404	0,28
734,841	0,28
735,278	0,28
735,715	0,28
736,152	0,28
736,589	0,28
737,026	0,28
737,463	0,28
737,9	0,28
738,337	0,28
738,774	0,28
739,211	0,28
739,647	0,28
740,084	0,28
740,521	0,28
740,958	0,28
741,394	0,28
741,831	0,28
742,268	0,27
742,704	0,27
743,141	0,27
743,577	0,27
744,014	0,27
744,45	0,27
744,887	0,27
745,323	0,27
745,76	0,26
746,196	0,26
746,632	0,26
747,069	0,26
747,505	0,26
747,941	0,26
748,378	0,26
748,814	0,26
749,25	0,27
749,686	0,27
750,122	0,27
750,558	0,27
750,994	0,27
751,43	0,27
751,866	0,27
752,302	0,27
752,738	0,28
753,174	0,28
753,61	0,28
754,046	0,28
754,482	0,28
754,918	0,28
755,354	0,28
755,789	0,28
756,225	0,28
756,661	0,28
757,096	0,28
757,532	0,28
757,968	0,27
758,403	0,27
758,839	0,27
759,274	0,27
759,71	0,27
760,145	0,26
760,581	0,26
761,016	0,26
761,452	0,25
761,887	0,25
762,322	0,25
762,758	0,24
763,193	0,24
763,628	0,24
764,063	0,23
764,499	0,23
764,934	0,22
765,369	0,21
765,804	0,21
766,239	0,21
766,674	0,2
767,109	0,2
767,544	0,19
767,979	0,18
768,414	0,18
768,849	0,17
769,284	0,16
769,719	0,16
770,154	0,15
770,588	0,15
771,023	0,14
771,458	0,13
771,893	0,12
772,327	0,1
772,762	0,1
773,197	0,09
773,631	0,08
774,066	0,08
774,5	0,07
774,935	0,06
775,369	0,05
775,804	0,04
776,238	0,04
776,673	0,03
777,107	0,02
777,541	0,02
777,976	0,01
778,41	0
778,844	-0,01
779,279	-0,01
779,713	-0,02
780,147	-0,03
780,581	-0,04
781,015	-0,05
781,449	-0,06
781,883	-0,07
782,317	-0,08
782,751	-0,09
783,185	-0,1
783,619	-0,1
784,053	-0,11
784,487	-0,12
784,921	-0,12
785,355	-0,12
785,789	-0,13
786,223	-0,14
786,656	-0,15
787,09	-0,16
787,524	-0,16
787,957	-0,17
788,391	-0,19
788,825	-0,21
789,258	-0,22
789,692	-0,23
790,125	-0,24
790,559	-0,26
790,992	-0,28
791,426	-0,3
791,859	-0,31
792,293	-0,35
792,726	-0,36
793,159	-0,38
793,593	-0,4
794,026	-0,42
794,459	-0,45
794,892	-0,48
795,326	-0,51
795,759	-0,55
796,192	-0,59
796,625	-0,64
797,058	-0,66
797,491	-0,7
797,924	-0,74
798,357	-0,79
798,79	-0,83
799,223	-0,88
799,656	-0,93
800,089	-0,98
800,522	-1,02
800,955	-1,07
801,387	-1,13
801,82	-1,18
802,253	-1,24
802,686	-1,32
803,118	-1,38
803,551	-1,43
803,984	-1,48
804,416	-1,51
804,849	-1,55
805,281	-1,65
805,714	-2
806,146	-2,45
806,579	-2,71
807,011	-2,87
807,444	-2,97
807,876	-3,05
808,308	-3,09
808,741	-3,12
809,173	-3,17
809,605	-3,19
810,037	-3,27
810,47	-3,19
810,902	-2,99
811,334	-2,84
811,766	-2,68
812,198	-2,45
812,63	-2,03
813,062	-1,82
813,494	-1,73
813,926	-1,64
814,358	-1,58
814,79	-1,5
815,222	-1,44
815,654	-1,39
816,086	-1,33
816,518	-1,27
816,949	-1,22
817,381	-1,18
817,813	-1,16
818,245	-1,12
818,676	-1,08
819,108	-1,04
819,54	-1,02
819,971	-1
820,403	-0,95
820,834	-0,93
821,266	-0,89
821,697	-0,87
822,129	-0,85
822,56	-0,82
822,991	-0,8
823,423	-0,78
823,854	-0,77
824,286	-0,74
824,717	-0,73
825,148	-0,71
825,579	-0,71
826,01	-0,69
826,442	-0,68
826,873	-0,66
827,304	-0,62
827,735	-0,61
828,166	-0,61
828,597	-0,61
829,028	-0,6
829,459	-0,61
829,89	-0,61
830,321	-0,56
830,752	-0,57
831,183	-0,56
831,613	-0,56
832,044	-0,56
832,475	-0,54
832,906	-0,55
833,336	-0,54
833,767	-0,55
834,198	-0,54
834,628	-0,52
835,059	-0,55
835,49	-0,55
835,92	-0,52
836,351	-0,52
836,781	-0,52
837,212	-0,54
837,642	-0,54
838,072	-0,52
838,503	-0,53
838,933	-0,51
839,364	-0,52
839,794	-0,5
840,224	-0,49
840,654	-0,53
841,085	-0,54
841,515	-0,51
841,945	-0,51
842,375	-0,46
842,805	-0,46
843,235	-0,44
843,665	-0,46
844,095	-0,45
844,525	-0,46
844,955	-0,46
845,385	-0,44
845,815	-0,43
846,245	-0,45
846,675	-0,45
847,105	-0,47
847,534	-0,48
847,964	-0,46
848,394	-0,45
848,824	-0,49
849,253	-0,49
849,683	-0,49
850,112	-0,5
850,542	-0,53
850,972	-0,53
851,401	-0,51
851,831	-0,5
852,26	-0,5
852,69	-0,54
853,119	-0,52
853,548	-0,52
853,978	-0,52
854,407	-0,51
854,836	-0,51
855,266	-0,51
855,695	-0,52
856,124	-0,54
856,553	-0,55
856,983	-0,57
857,412	-0,56
857,841	-0,57
858,27	-0,58
858,699	-0,58
859,128	-0,61
859,557	-0,62
859,986	-0,63
860,415	-0,61
860,844	-0,57
861,273	-0,58
861,702	-0,59
862,13	-0,56
862,559	-0,58
862,988	-0,55
863,417	-0,54
863,845	-0,53
864,274	-0,54
864,703	-0,54
865,131	-0,54
865,56	-0,55
865,989	-0,58
866,417	-0,55
866,846	-0,56
867,274	-0,55
867,703	-0,57
868,131	-0,58
868,559	-0,58
868,988	-0,59
869,416	-0,58
869,844	-0,6
870,273	-0,62
870,701	-0,6
871,129	-0,64
871,557	-0,66
871,986	-0,66
872,414	-0,68
872,842	-0,65
873,27	-0,63
873,698	-0,61
874,126	-0,64
874,554	-0,63
874,982	-0,62
875,41	-0,64
875,838	-0,59
876,266	-0,56
876,694	-0,57
877,122	-0,55
877,549	-0,6
877,977	-0,57
878,405	-0,59
878,833	-0,56
879,26	-0,55
879,688	-0,54
880,116	-0,52
880,543	-0,51
880,971	-0,51
881,399	-0,54
881,826	-0,55
882,254	-0,53
882,681	-0,55
883,109	-0,52
883,536	-0,52
883,963	-0,54
884,391	-0,53
884,818	-0,51
885,245	-0,55
885,673	-0,56
886,1	-0,54
886,527	-0,54
886,954	-0,51
887,381	-0,53
887,809	-0,54
888,236	-0,55
888,663	-0,56
889,09	-0,6
889,517	-0,63
889,944	-0,62
890,371	-0,61
890,798	-0,61
891,225	-0,61
891,652	-0,64
892,078	-0,61
892,505	-0,65
892,932	-0,6
893,359	-0,61
893,786	-0,61
894,212	-0,58
894,639	-0,6
895,066	-0,61
895,492	-0,55
895,919	-0,56
896,346	-0,55
896,772	-0,56
897,199	-0,52
897,625	-0,55
898,052	-0,51
898,478	-0,5
898,904	-0,51
899,331	-0,51
899,757	-0,53
900,183	-0,55
900,61	-0,53
901,036	-0,54
901,462	-0,53
901,888	-0,53
902,315	-0,52
902,741	-0,57
903,167	-0,55
903,593	-0,58
904,019	-0,56
904,445	-0,53
904,871	-0,56
905,297	-0,57
905,723	-0,57
906,149	-0,56
906,575	-0,57
907,001	-0,57
907,427	-0,54
907,852	-0,53
908,278	-0,54
908,704	-0,52
909,13	-0,51
909,555	-0,5
909,981	-0,5
910,407	-0,5
910,832	-0,5
911,258	-0,5
911,684	-0,51
912,109	-0,51
912,535	-0,52
912,96	-0,49
913,386	-0,52
913,811	-0,52
914,236	-0,54
914,662	-0,51
915,087	-0,54
915,512	-0,55
915,938	-0,57
916,363	-0,56
916,788	-0,58
917,213	-0,56
917,639	-0,6
918,064	-0,58
918,489	-0,58
918,914	-0,58
919,339	-0,6
919,764	-0,58
920,189	-0,58
920,614	-0,6
921,039	-0,61
921,464	-0,57
921,889	-0,59
922,314	-0,6
922,738	-0,63
923,163	-0,65
923,588	-0,64
924,013	-0,63
924,437	-0,62
924,862	-0,63
925,287	-0,58
925,711	-0,58
926,136	-0,6
926,561	-0,57
926,985	-0,57
927,41	-0,53
927,834	-0,52
928,259	-0,49
928,683	-0,47
929,108	-0,46
929,532	-0,48
929,956	-0,47
930,381	-0,46
930,805	-0,47
931,229	-0,46
931,653	-0,45
932,078	-0,44
932,502	-0,45
932,926	-0,46
933,35	-0,46
933,774	-0,45
934,198	-0,43
934,622	-0,42
935,046	-0,43
935,47	-0,43
935,894	-0,42
936,318	-0,42
936,742	-0,42
937,166	-0,42
937,59	-0,42
938,014	-0,45
938,437	-0,45
938,861	-0,48
939,285	-0,48
939,709	-0,47
940,132	-0,48
940,556	-0,48
940,98	-0,48
941,403	-0,46
941,827	-0,46
942,25	-0,47
942,674	-0,45
943,097	-0,44
943,521	-0,44
943,944	-0,45
944,368	-0,44
944,791	-0,43
945,214	-0,45
945,638	-0,46
946,061	-0,5
946,484	-0,5
946,907	-0,49
947,331	-0,49
947,754	-0,54
948,177	-0,52
948,6	-0,52
949,023	-0,52
949,446	-0,52
949,869	-0,5
950,292	-0,51
950,715	-0,48
951,138	-0,46
951,561	-0,45
951,984	-0,44
952,407	-0,43
952,83	-0,41
953,252	-0,36
953,675	-0,36
954,098	-0,36
954,521	-0,35
954,943	-0,34
955,366	-0,35
955,789	-0,35
956,211	-0,37
956,634	-0,38
957,056	-0,35
957,479	-0,36
957,902	-0,39
958,324	-0,39
958,746	-0,38
959,169	-0,39
959,591	-0,39
960,014	-0,4
960,436	-0,39
960,858	-0,38
961,281	-0,38
961,703	-0,38
962,125	-0,38
962,547	-0,36
962,969	-0,37
963,391	-0,37
963,814	-0,38
964,236	-0,36
964,658	-0,34
965,08	-0,35
965,502	-0,35
965,924	-0,33
966,346	-0,34
966,768	-0,34
967,189	-0,36
967,611	-0,35
968,033	-0,35
968,455	-0,33
968,877	-0,34
969,298	-0,36
969,72	-0,36
970,142	-0,35
970,563	-0,35
970,985	-0,33
971,407	-0,32
971,828	-0,31
972,25	-0,3
972,671	-0,29
973,093	-0,29
973,514	-0,27
973,936	-0,25
974,357	-0,23
974,778	-0,23
975,2	-0,23
975,621	-0,23
976,042	-0,21
976,464	-0,2
976,885	-0,2
977,306	-0,19
977,727	-0,18
978,148	-0,18
978,57	-0,17
978,991	-0,16
979,412	-0,14
979,833	-0,13
980,254	-0,13
980,675	-0,14
981,096	-0,13
981,517	-0,11
981,937	-0,11
982,358	-0,1
982,779	-0,09
983,2	-0,09
983,621	-0,08
984,042	-0,08
984,462	-0,07
984,883	-0,05
985,304	-0,03
985,724	-0,03
986,145	-0,02
986,565	-0
986,986	0
987,407	0,02
987,827	0,03
988,248	0,04
988,668	0,05
989,088	0,05
989,509	0,06
989,929	0,07
990,35	0,08
990,77	0,09
991,19	0,09
991,61	0,1
992,031	0,11
992,451	0,12
992,871	0,12
993,291	0,13
993,711	0,14
994,131	0,14
994,551	0,15
994,971	0,15
995,391	0,16
995,811	0,16
996,231	0,17
996,651	0,17
997,071	0,17
997,491	0,18
997,911	0,18
998,331	0,19
998,75	0,19
999,17	0,19
999,59	0,2
1000,009	0,2
1000,429	0,2
1000,849	0,21
1001,268	0,21
1001,688	0,21
1002,107	0,21
1002,527	0,21
1002,946	0,21
1003,366	0,22
1003,785	0,22
1004,205	0,22
1004,624	0,22
1005,044	0,22
1005,463	0,23
1005,882	0,23
1006,301	0,23
1006,721	0,23
1007,14	0,23
1007,559	0,23
1007,978	0,23
1008,397	0,23
1008,816	0,23
1009,235	0,23
1009,655	0,23
1010,074	0,23
1010,492	0,23
1010,911	0,23
1011,33	0,22
1011,749	0,22
1012,168	0,22
1012,587	0,22
1013,006	0,22
1013,425	0,22
1013,843	0,22
1014,262	0,22
1014,681	0,22
1015,099	0,22
1015,518	0,22
1015,937	0,22
1016,355	0,22
1016,774	0,22
1017,192	0,22
1017,611	0,22
1018,029	0,22
1018,448	0,22
1018,866	0,22
1019,285	0,22
1019,703	0,22
1020,121	0,22
1020,54	0,22
1020,958	0,22
1021,376	0,23
1021,794	0,23
1022,213	0,23
1022,631	0,23
1023,049	0,22
1023,467	0,22
1023,885	0,22
1024,303	0,22
1024,721	0,22
1025,139	0,22
1025,557	0,22
1025,975	0,22
1026,393	0,22
1026,811	0,22
1027,229	0,22
1027,647	0,22
1028,065	0,22
1028,482	0,22
1028,9	0,22
1029,318	0,22
1029,735	0,22
1030,153	0,22
1030,571	0,22
1030,988	0,22
1031,406	0,22
1031,823	0,22
1032,241	0,22
1032,659	0,22
1033,076	0,22
1033,493	0,22
1033,911	0,22
1034,328	0,22
1034,746	0,22
1035,163	0,22
1035,58	0,21
1035,997	0,21
1036,415	0,21
1036,832	0,21
1037,249	0,21
1037,666	0,21
1038,083	0,21
1038,501	0,21
1038,918	0,21
1039,335	0,21
1039,752	0,21
1040,169	0,21
1040,586	0,21
1041,003	0,21
1041,419	0,21
1041,836	0,21
1042,253	0,21
1042,67	0,21
1043,087	0,21
1043,504	0,21
1043,92	0,21
1044,337	0,21
1044,754	0,2
1045,17	0,2
1045,587	0,2
1046,004	0,2
1046,42	0,2
1046,837	0,2
1047,253	0,2
1047,67	0,2
1048,086	0,2
1048,503	0,2
1048,919	0,2
1049,335	0,2
1049,752	0,2
1050,168	0,2
1050,584	0,2
1051,001	0,2
1051,417	0,2
1051,833	0,2
1052,249	0,2
1052,665	0,2
1053,081	0,2
1053,497	0,2
1053,914	0,2
1054,33	0,2
1054,746	0,2
1055,162	0,21
1055,578	0,21
1055,993	0,21
1056,409	0,21
1056,825	0,21
1057,241	0,21
1057,657	0,21
1058,073	0,21
1058,488	0,21
1058,904	0,21
1059,32	0,21
1059,736	0,21
1060,151	0,21
1060,567	0,21
1060,982	0,21
1061,398	0,21
1061,813	0,21
1062,229	0,21
1062,644	0,21
1063,06	0,21
1063,475	0,21
1063,891	0,21
1064,306	0,2
1064,721	0,2
1065,137	0,2
1065,552	0,2
1065,967	0,2
1066,382	0,2
1066,798	0,2
1067,213	0,2
1067,628	0,2
1068,043	0,2
1068,458	0,2
1068,873	0,21
1069,288	0,21
1069,703	0,21
1070,118	0,21
1070,533	0,21
1070,948	0,21
1071,363	0,21
1071,778	0,21
1072,193	0,21
1072,607	0,21
1073,022	0,21
1073,437	0,21
1073,852	0,21
1074,266	0,22
1074,681	0,22
1075,096	0,22
1075,51	0,21
1075,925	0,21
1076,339	0,21
1076,754	0,21
1077,168	0,21
1077,583	0,21
1077,997	0,21
1078,412	0,21
1078,826	0,21
1079,24	0,21
1079,655	0,21
1080,069	0,21
1080,483	0,21
1080,897	0,21
1081,312	0,2
1081,726	0,2
1082,14	0,2
1082,554	0,2
1082,968	0,2
1083,382	0,2
1083,796	0,2
1084,21	0,2
1084,624	0,2
1085,038	0,2
1085,452	0,2
1085,866	0,2
1086,28	0,2
1086,694	0,2
1087,108	0,2
1087,521	0,19
1087,935	0,19
1088,349	0,19
1088,763	0,19
1089,176	0,19
1089,59	0,19
1090,004	0,18
1090,417	0,18
1090,831	0,18
1091,244	0,18
1091,658	0,18
1092,071	0,17
1092,485	0,17
1092,898	0,17
1093,312	0,17
1093,725	0,17
1094,138	0,17
1094,552	0,17
1094,965	0,17
1095,378	0,17
1095,791	0,17
1096,205	0,17
1096,618	0,17
1097,031	0,16
1097,444	0,16
1097,857	0,16
1098,27	0,16
1098,683	0,16
1099,096	0,16
1099,509	0,15
1099,922	0,15
1100,335	0,15
1100,748	0,14
1101,161	0,14
1101,574	0,14
1101,986	0,14
1102,399	0,14
1102,812	0,13
1103,225	0,13
1103,637	0,13
1104,05	0,13
1104,463	0,13
1104,875	0,12
1105,288	0,12
1105,7	0,12
1106,113	0,11
1106,525	0,11
1106,938	0,1
1107,35	0,1
1107,763	0,09
1108,175	0,09
1108,588	0,09
1109	0,08
1109,412	0,08
1109,824	0,08
1110,237	0,07
1110,649	0,07
1111,061	0,07
