Data from 18C-808nm-8A_Absorbance__1104__01104.txt Node

Date: Mon Jul 17 17:02:23 CEST 2023
User: Laser008
Spectrometer: MAYP115816
Trigger mode: 0
Integration Time (sec): 2,500000E-1
Scans to average: 10
Electric dark correction enabled: true
Nonlinearity correction enabled: true
Boxcar width: 5
XAxis mode: Wavelengths
Number of Pixels in Spectrum: 2068
>>>>>Begin Spectral Data<<<<<
198,914	-0,67
199,384	-0,45
199,855	-0,32
200,325	-0,26
200,796	-0,24
201,266	-0,2
201,737	-0,19
202,207	-0,17
202,677	-0,17
203,147	-0,16
203,618	-0,14
204,088	-0,12
204,558	-0,12
205,028	-0,12
205,498	-0,12
205,968	-0,12
206,439	-0,13
206,909	-0,12
207,379	-0,13
207,849	-0,12
208,319	-0,13
208,789	-0,14
209,258	-0,13
209,728	-0,14
210,198	-0,14
210,668	-0,14
211,138	-0,13
211,608	-0,14
212,077	-0,14
212,547	-0,13
213,017	-0,13
213,486	-0,13
213,956	-0,14
214,426	-0,16
214,895	-0,16
215,365	-0,17
215,834	-0,17
216,304	-0,19
216,773	-0,19
217,243	-0,2
217,712	-0,22
218,181	-0,22
218,651	-0,22
219,12	-0,21
219,589	-0,2
220,058	-0,19
220,528	-0,2
220,997	-0,2
221,466	-0,21
221,935	-0,21
222,404	-0,21
222,873	-0,2
223,342	-0,2
223,812	-0,2
224,281	-0,2
224,749	-0,2
225,218	-0,21
225,687	-0,21
226,156	-0,2
226,625	-0,18
227,094	-0,17
227,563	-0,17
228,031	-0,19
228,5	-0,18
228,969	-0,19
229,438	-0,18
229,906	-0,17
230,375	-0,16
230,844	-0,16
231,312	-0,16
231,781	-0,17
232,249	-0,16
232,718	-0,16
233,186	-0,14
233,655	-0,15
234,123	-0,15
234,591	-0,15
235,06	-0,16
235,528	-0,17
235,996	-0,17
236,465	-0,16
236,933	-0,16
237,401	-0,16
237,869	-0,15
238,337	-0,15
238,805	-0,14
239,274	-0,14
239,742	-0,14
240,21	-0,13
240,678	-0,13
241,146	-0,12
241,614	-0,12
242,081	-0,12
242,549	-0,12
243,017	-0,13
243,485	-0,13
243,953	-0,13
244,421	-0,13
244,888	-0,13
245,356	-0,13
245,824	-0,13
246,291	-0,12
246,759	-0,13
247,227	-0,14
247,694	-0,14
248,162	-0,13
248,629	-0,12
249,097	-0,14
249,564	-0,14
250,032	-0,15
250,499	-0,15
250,967	-0,15
251,434	-0,16
251,901	-0,15
252,369	-0,15
252,836	-0,16
253,303	-0,17
253,77	-0,18
254,237	-0,16
254,705	-0,16
255,172	-0,16
255,639	-0,16
256,106	-0,18
256,573	-0,18
257,04	-0,18
257,507	-0,18
257,974	-0,19
258,441	-0,17
258,908	-0,19
259,375	-0,2
259,841	-0,2
260,308	-0,2
260,775	-0,2
261,242	-0,19
261,709	-0,19
262,175	-0,2
262,642	-0,2
263,109	-0,19
263,575	-0,21
264,042	-0,19
264,508	-0,19
264,975	-0,21
265,441	-0,22
265,908	-0,23
266,374	-0,22
266,841	-0,22
267,307	-0,22
267,773	-0,21
268,24	-0,21
268,706	-0,21
269,172	-0,22
269,639	-0,23
270,105	-0,21
270,571	-0,21
271,037	-0,21
271,503	-0,22
271,969	-0,22
272,435	-0,22
272,902	-0,24
273,368	-0,25
273,834	-0,24
274,3	-0,25
274,765	-0,24
275,231	-0,25
275,697	-0,24
276,163	-0,24
276,629	-0,24
277,095	-0,25
277,56	-0,24
278,026	-0,24
278,492	-0,22
278,958	-0,22
279,423	-0,22
279,889	-0,21
280,354	-0,2
280,82	-0,2
281,286	-0,21
281,751	-0,21
282,217	-0,19
282,682	-0,19
283,147	-0,2
283,613	-0,21
284,078	-0,21
284,544	-0,22
285,009	-0,24
285,474	-0,23
285,939	-0,24
286,405	-0,23
286,87	-0,22
287,335	-0,23
287,8	-0,23
288,265	-0,21
288,73	-0,22
289,195	-0,24
289,66	-0,23
290,125	-0,22
290,59	-0,22
291,055	-0,22
291,52	-0,23
291,985	-0,24
292,45	-0,25
292,915	-0,24
293,38	-0,25
293,844	-0,23
294,309	-0,23
294,774	-0,21
295,239	-0,23
295,703	-0,24
296,168	-0,22
296,632	-0,21
297,097	-0,2
297,562	-0,18
298,026	-0,19
298,491	-0,19
298,955	-0,18
299,419	-0,17
299,884	-0,17
300,348	-0,16
300,813	-0,14
301,277	-0,16
301,741	-0,16
302,205	-0,16
302,67	-0,15
303,134	-0,15
303,598	-0,14
304,062	-0,14
304,526	-0,13
304,99	-0,15
305,454	-0,15
305,919	-0,16
306,383	-0,15
306,847	-0,16
307,31	-0,16
307,774	-0,17
308,238	-0,17
308,702	-0,17
309,166	-0,19
309,63	-0,19
310,094	-0,16
310,557	-0,16
311,021	-0,16
311,485	-0,15
311,948	-0,13
312,412	-0,13
312,876	-0,13
313,339	-0,13
313,803	-0,14
314,266	-0,13
314,73	-0,13
315,193	-0,14
315,657	-0,13
316,12	-0,12
316,584	-0,12
317,047	-0,12
317,51	-0,11
317,973	-0,1
318,437	-0,1
318,9	-0,08
319,363	-0,07
319,826	-0,07
320,29	-0,07
320,753	-0,07
321,216	-0,07
321,679	-0,07
322,142	-0,06
322,605	-0,08
323,068	-0,08
323,531	-0,08
323,994	-0,07
324,457	-0,07
324,92	-0,06
325,382	-0,05
325,845	-0,05
326,308	-0,05
326,771	-0,05
327,233	-0,04
327,696	-0,03
328,159	-0,03
328,622	-0,02
329,084	-0,03
329,547	-0,02
330,009	-0,02
330,472	-0,01
330,934	-0,01
331,397	-0,01
331,859	0
332,322	-0,01
332,784	0
333,246	0
333,709	0,01
334,171	0,01
334,633	0,01
335,096	0,01
335,558	0,01
336,02	0,01
336,482	0
336,944	0,02
337,406	0,02
337,868	0,02
338,331	0,02
338,793	0,03
339,255	0,03
339,717	0,03
340,178	0,04
340,64	0,05
341,102	0,05
341,564	0,06
342,026	0,07
342,488	0,07
342,949	0,08
343,411	0,1
343,873	0,12
344,335	0,14
344,796	0,17
345,258	0,2
345,719	0,22
346,181	0,25
346,643	0,27
347,104	0,29
347,566	0,31
348,027	0,33
348,488	0,34
348,95	0,35
349,411	0,36
349,873	0,37
350,334	0,38
350,795	0,39
351,256	0,4
351,718	0,4
352,179	0,4
352,64	0,41
353,101	0,41
353,562	0,41
354,023	0,41
354,484	0,41
354,945	0,41
355,406	0,41
355,867	0,41
356,328	0,41
356,789	0,41
357,25	0,42
357,711	0,42
358,172	0,42
358,633	0,42
359,093	0,42
359,554	0,42
360,015	0,42
360,476	0,42
360,936	0,42
361,397	0,42
361,858	0,42
362,318	0,42
362,779	0,42
363,239	0,42
363,7	0,42
364,16	0,42
364,621	0,42
365,081	0,42
365,541	0,42
366,002	0,42
366,462	0,42
366,922	0,42
367,383	0,42
367,843	0,42
368,303	0,42
368,763	0,42
369,223	0,42
369,684	0,42
370,144	0,42
370,604	0,42
371,064	0,42
371,524	0,42
371,984	0,42
372,444	0,42
372,904	0,42
373,363	0,42
373,823	0,42
374,283	0,42
374,743	0,42
375,203	0,42
375,663	0,42
376,122	0,42
376,582	0,42
377,042	0,42
377,501	0,42
377,961	0,42
378,42	0,42
378,88	0,42
379,34	0,42
379,799	0,42
380,259	0,42
380,718	0,42
381,177	0,42
381,637	0,42
382,096	0,41
382,555	0,41
383,015	0,41
383,474	0,41
383,933	0,41
384,393	0,41
384,852	0,41
385,311	0,41
385,77	0,41
386,229	0,41
386,688	0,41
387,147	0,41
387,606	0,41
388,065	0,41
388,524	0,41
388,983	0,41
389,442	0,41
389,901	0,41
390,36	0,41
390,819	0,41
391,277	0,41
391,736	0,41
392,195	0,41
392,654	0,41
393,112	0,41
393,571	0,41
394,03	0,41
394,488	0,41
394,947	0,41
395,405	0,41
395,864	0,41
396,322	0,41
396,781	0,41
397,239	0,41
397,698	0,41
398,156	0,41
398,614	0,41
399,073	0,41
399,531	0,41
399,989	0,41
400,447	0,41
400,905	0,41
401,364	0,41
401,822	0,41
402,28	0,4
402,738	0,4
403,196	0,4
403,654	0,4
404,112	0,4
404,57	0,4
405,028	0,4
405,486	0,4
405,944	0,4
406,402	0,4
406,859	0,4
407,317	0,4
407,775	0,4
408,233	0,4
408,691	0,4
409,148	0,4
409,606	0,4
410,064	0,4
410,521	0,4
410,979	0,4
411,436	0,4
411,894	0,4
412,351	0,4
412,809	0,4
413,266	0,4
413,724	0,4
414,181	0,4
414,638	0,4
415,096	0,4
415,553	0,4
416,01	0,4
416,467	0,4
416,925	0,4
417,382	0,4
417,839	0,4
418,296	0,4
418,753	0,4
419,21	0,4
419,667	0,4
420,124	0,4
420,581	0,4
421,038	0,4
421,495	0,4
421,952	0,4
422,409	0,4
422,866	0,4
423,322	0,4
423,779	0,4
424,236	0,4
424,693	0,4
425,149	0,4
425,606	0,4
426,063	0,4
426,519	0,4
426,976	0,4
427,433	0,4
427,889	0,4
428,346	0,4
428,802	0,4
429,258	0,4
429,715	0,4
430,171	0,39
430,628	0,39
431,084	0,39
431,54	0,39
431,997	0,39
432,453	0,39
432,909	0,39
433,365	0,39
433,821	0,39
434,277	0,39
434,734	0,39
435,19	0,39
435,646	0,39
436,102	0,39
436,558	0,39
437,014	0,39
437,47	0,39
437,925	0,39
438,381	0,39
438,837	0,39
439,293	0,39
439,749	0,39
440,205	0,39
440,66	0,39
441,116	0,39
441,572	0,39
442,027	0,39
442,483	0,39
442,939	0,39
443,394	0,39
443,85	0,39
444,305	0,39
444,761	0,39
445,216	0,39
445,672	0,39
446,127	0,39
446,582	0,39
447,038	0,39
447,493	0,39
447,948	0,39
448,403	0,39
448,859	0,39
449,314	0,39
449,769	0,39
450,224	0,39
450,679	0,39
451,134	0,39
451,589	0,39
452,044	0,39
452,499	0,39
452,954	0,39
453,409	0,39
453,864	0,39
454,319	0,39
454,774	0,39
455,229	0,39
455,684	0,39
456,138	0,39
456,593	0,39
457,048	0,39
457,503	0,39
457,957	0,39
458,412	0,39
458,866	0,39
459,321	0,39
459,776	0,39
460,23	0,39
460,685	0,39
461,139	0,39
461,593	0,4
462,048	0,4
462,502	0,4
462,957	0,4
463,411	0,4
463,865	0,4
464,319	0,4
464,774	0,4
465,228	0,4
465,682	0,4
466,136	0,4
466,59	0,4
467,044	0,4
467,499	0,4
467,953	0,4
468,407	0,4
468,861	0,4
469,315	0,4
469,768	0,4
470,222	0,4
470,676	0,4
471,13	0,4
471,584	0,4
472,038	0,4
472,491	0,4
472,945	0,4
473,399	0,4
473,852	0,41
474,306	0,41
474,76	0,41
475,213	0,41
475,667	0,41
476,12	0,41
476,574	0,41
477,027	0,41
477,481	0,41
477,934	0,41
478,388	0,41
478,841	0,41
479,294	0,41
479,748	0,41
480,201	0,42
480,654	0,42
481,107	0,42
481,561	0,42
482,014	0,42
482,467	0,42
482,92	0,42
483,373	0,42
483,826	0,42
484,279	0,42
484,732	0,42
485,185	0,43
485,638	0,43
486,091	0,43
486,544	0,43
486,997	0,43
487,449	0,43
487,902	0,43
488,355	0,43
488,808	0,43
489,26	0,44
489,713	0,44
490,166	0,44
490,618	0,44
491,071	0,44
491,523	0,44
491,976	0,45
492,429	0,45
492,881	0,45
493,333	0,45
493,786	0,45
494,238	0,45
494,691	0,46
495,143	0,46
495,595	0,46
496,048	0,46
496,5	0,46
496,952	0,47
497,404	0,47
497,856	0,47
498,309	0,47
498,761	0,47
499,213	0,48
499,665	0,48
500,117	0,48
500,569	0,48
501,021	0,49
501,473	0,49
501,925	0,49
502,377	0,49
502,828	0,5
503,28	0,5
503,732	0,5
504,184	0,5
504,636	0,5
505,087	0,51
505,539	0,51
505,991	0,51
506,442	0,51
506,894	0,52
507,345	0,52
507,797	0,52
508,249	0,52
508,7	0,52
509,151	0,53
509,603	0,53
510,054	0,53
510,506	0,53
510,957	0,54
511,408	0,54
511,86	0,54
512,311	0,54
512,762	0,54
513,213	0,55
513,665	0,55
514,116	0,55
514,567	0,55
515,018	0,55
515,469	0,56
515,92	0,56
516,371	0,56
516,822	0,56
517,273	0,56
517,724	0,57
518,175	0,57
518,626	0,57
519,076	0,57
519,527	0,57
519,978	0,57
520,429	0,57
520,88	0,58
521,33	0,58
521,781	0,58
522,232	0,58
522,682	0,58
523,133	0,58
523,583	0,58
524,034	0,58
524,484	0,59
524,935	0,59
525,385	0,59
525,836	0,59
526,286	0,59
526,736	0,59
527,187	0,59
527,637	0,59
528,087	0,59
528,538	0,59
528,988	0,59
529,438	0,59
529,888	0,59
530,338	0,59
530,788	0,59
531,238	0,59
531,688	0,58
532,139	0,58
532,589	0,58
533,038	0,58
533,488	0,58
533,938	0,58
534,388	0,58
534,838	0,58
535,288	0,58
535,738	0,58
536,187	0,58
536,637	0,57
537,087	0,57
537,537	0,57
537,986	0,57
538,436	0,57
538,885	0,56
539,335	0,56
539,785	0,56
540,234	0,56
540,684	0,55
541,133	0,55
541,582	0,55
542,032	0,55
542,481	0,55
542,931	0,54
543,38	0,54
543,829	0,54
544,278	0,54
544,728	0,53
545,177	0,53
545,626	0,53
546,075	0,53
546,524	0,52
546,973	0,52
547,422	0,52
547,871	0,52
548,32	0,52
548,769	0,52
549,218	0,52
549,667	0,52
550,116	0,52
550,565	0,51
551,014	0,51
551,463	0,51
551,911	0,51
552,36	0,51
552,809	0,5
553,258	0,5
553,706	0,5
554,155	0,5
554,603	0,5
555,052	0,49
555,501	0,49
555,949	0,49
556,398	0,49
556,846	0,49
557,294	0,48
557,743	0,48
558,191	0,48
558,64	0,48
559,088	0,47
559,536	0,47
559,985	0,47
560,433	0,47
560,881	0,47
561,329	0,46
561,777	0,46
562,225	0,46
562,674	0,46
563,122	0,46
563,57	0,45
564,018	0,45
564,466	0,45
564,914	0,45
565,362	0,45
565,809	0,44
566,257	0,44
566,705	0,44
567,153	0,44
567,601	0,44
568,048	0,43
568,496	0,43
568,944	0,43
569,392	0,43
569,839	0,43
570,287	0,43
570,734	0,42
571,182	0,42
571,63	0,42
572,077	0,42
572,525	0,42
572,972	0,41
573,419	0,41
573,867	0,41
574,314	0,41
574,761	0,41
575,209	0,41
575,656	0,4
576,103	0,4
576,551	0,4
576,998	0,4
577,445	0,4
577,892	0,4
578,339	0,4
578,786	0,4
579,233	0,4
579,68	0,39
580,127	0,39
580,574	0,39
581,021	0,39
581,468	0,39
581,915	0,39
582,362	0,39
582,809	0,39
583,255	0,38
583,702	0,38
584,149	0,38
584,596	0,38
585,042	0,38
585,489	0,38
585,936	0,38
586,382	0,38
586,829	0,37
587,275	0,37
587,722	0,37
588,168	0,37
588,615	0,37
589,061	0,37
589,508	0,37
589,954	0,37
590,4	0,37
590,847	0,37
591,293	0,37
591,739	0,37
592,185	0,37
592,632	0,36
593,078	0,36
593,524	0,36
593,97	0,36
594,416	0,36
594,862	0,36
595,308	0,36
595,754	0,36
596,2	0,36
596,646	0,36
597,092	0,36
597,538	0,36
597,984	0,35
598,43	0,35
598,876	0,35
599,321	0,35
599,767	0,35
600,213	0,35
600,659	0,35
601,104	0,35
601,55	0,35
601,995	0,35
602,441	0,35
602,887	0,35
603,332	0,35
603,778	0,35
604,223	0,35
604,668	0,35
605,114	0,35
605,559	0,34
606,005	0,35
606,45	0,35
606,895	0,34
607,341	0,34
607,786	0,34
608,231	0,34
608,676	0,34
609,121	0,34
609,566	0,33
610,012	0,33
610,457	0,33
610,902	0,33
611,347	0,32
611,792	0,32
612,237	0,32
612,682	0,32
613,127	0,32
613,571	0,32
614,016	0,32
614,461	0,33
614,906	0,33
615,351	0,33
615,795	0,33
616,24	0,33
616,685	0,33
617,129	0,33
617,574	0,33
618,019	0,33
618,463	0,33
618,908	0,33
619,352	0,33
619,797	0,33
620,241	0,33
620,686	0,33
621,13	0,33
621,574	0,33
622,019	0,33
622,463	0,33
622,907	0,33
623,352	0,32
623,796	0,32
624,24	0,32
624,684	0,32
625,128	0,32
625,572	0,32
626,016	0,32
626,461	0,32
626,905	0,32
627,349	0,32
627,793	0,32
628,236	0,32
628,68	0,32
629,124	0,32
629,568	0,32
630,012	0,32
630,456	0,32
630,9	0,32
631,343	0,32
631,787	0,32
632,231	0,32
632,674	0,32
633,118	0,32
633,562	0,32
634,005	0,32
634,449	0,32
634,892	0,32
635,336	0,32
635,779	0,32
636,223	0,32
636,666	0,32
637,109	0,32
637,553	0,32
637,996	0,32
638,439	0,32
638,883	0,32
639,326	0,32
639,769	0,32
640,212	0,31
640,655	0,31
641,099	0,31
641,542	0,31
641,985	0,31
642,428	0,31
642,871	0,31
643,314	0,31
643,757	0,31
644,2	0,31
644,643	0,31
645,085	0,31
645,528	0,31
645,971	0,31
646,414	0,31
646,857	0,31
647,299	0,31
647,742	0,31
648,185	0,31
648,627	0,31
649,07	0,31
649,513	0,31
649,955	0,31
650,398	0,31
650,84	0,31
651,283	0,31
651,725	0,31
652,168	0,31
652,61	0,31
653,052	0,31
653,495	0,3
653,937	0,24
654,379	0,19
654,821	0,2
655,264	0,2
655,706	0,2
656,148	0,2
656,59	0,2
657,032	0,2
657,474	0,2
657,916	0,2
658,358	0,19
658,8	0,24
659,242	0,31
659,684	0,31
660,126	0,31
660,568	0,31
661,01	0,31
661,452	0,31
661,894	0,31
662,335	0,31
662,777	0,31
663,219	0,31
663,661	0,3
664,102	0,3
664,544	0,3
664,985	0,3
665,427	0,3
665,869	0,3
666,31	0,3
666,752	0,3
667,193	0,3
667,634	0,3
668,076	0,3
668,517	0,3
668,959	0,3
669,4	0,3
669,841	0,3
670,282	0,3
670,724	0,3
671,165	0,3
671,606	0,3
672,047	0,3
672,488	0,3
672,929	0,3
673,37	0,3
673,811	0,3
674,252	0,3
674,693	0,3
675,134	0,3
675,575	0,3
676,016	0,3
676,457	0,3
676,898	0,3
677,339	0,3
677,78	0,3
678,22	0,3
678,661	0,3
679,102	0,3
679,542	0,3
679,983	0,3
680,424	0,3
680,864	0,3
681,305	0,3
681,745	0,3
682,186	0,3
682,626	0,3
683,067	0,3
683,507	0,3
683,948	0,3
684,388	0,3
684,828	0,3
685,269	0,3
685,709	0,3
686,149	0,3
686,589	0,29
687,029	0,29
687,47	0,29
687,91	0,29
688,35	0,29
688,79	0,29
689,23	0,29
689,67	0,29
690,11	0,29
690,55	0,29
690,99	0,29
691,43	0,29
691,87	0,29
692,31	0,29
692,749	0,29
693,189	0,29
693,629	0,29
694,069	0,29
694,508	0,28
694,948	0,29
695,388	0,29
695,827	0,29
696,267	0,29
696,706	0,29
697,146	0,29
697,586	0,29
698,025	0,29
698,464	0,29
698,904	0,29
699,343	0,29
699,783	0,29
700,222	0,29
700,661	0,29
701,101	0,29
701,54	0,29
701,979	0,29
702,418	0,29
702,857	0,29
703,297	0,29
703,736	0,29
704,175	0,29
704,614	0,29
705,053	0,29
705,492	0,29
705,931	0,29
706,37	0,28
706,809	0,28
707,248	0,28
707,687	0,28
708,125	0,28
708,564	0,28
709,003	0,28
709,442	0,28
709,88	0,28
710,319	0,28
710,758	0,28
711,196	0,28
711,635	0,28
712,074	0,28
712,512	0,28
712,951	0,28
713,389	0,28
713,828	0,28
714,266	0,28
714,705	0,28
715,143	0,28
715,581	0,28
716,02	0,28
716,458	0,27
716,896	0,27
717,334	0,27
717,773	0,27
718,211	0,27
718,649	0,27
719,087	0,27
719,525	0,27
719,963	0,27
720,401	0,27
720,839	0,27
721,277	0,27
721,715	0,27
722,153	0,27
722,591	0,28
723,029	0,28
723,467	0,28
723,905	0,27
724,342	0,27
724,78	0,27
725,218	0,27
725,656	0,27
726,093	0,27
726,531	0,27
726,969	0,27
727,406	0,27
727,844	0,27
728,281	0,27
728,719	0,27
729,156	0,27
729,594	0,27
730,031	0,27
730,469	0,27
730,906	0,27
731,343	0,27
731,781	0,27
732,218	0,27
732,655	0,27
733,092	0,27
733,53	0,27
733,967	0,27
734,404	0,27
734,841	0,27
735,278	0,27
735,715	0,27
736,152	0,27
736,589	0,27
737,026	0,27
737,463	0,27
737,9	0,26
738,337	0,26
738,774	0,26
739,211	0,26
739,647	0,26
740,084	0,26
740,521	0,26
740,958	0,26
741,394	0,26
741,831	0,26
742,268	0,26
742,704	0,26
743,141	0,26
743,577	0,26
744,014	0,25
744,45	0,25
744,887	0,25
745,323	0,25
745,76	0,25
746,196	0,25
746,632	0,25
747,069	0,25
747,505	0,25
747,941	0,25
748,378	0,25
748,814	0,25
749,25	0,25
749,686	0,25
750,122	0,25
750,558	0,25
750,994	0,26
751,43	0,26
751,866	0,26
752,302	0,26
752,738	0,26
753,174	0,26
753,61	0,26
754,046	0,26
754,482	0,26
754,918	0,26
755,354	0,26
755,789	0,26
756,225	0,26
756,661	0,26
757,096	0,26
757,532	0,26
757,968	0,26
758,403	0,26
758,839	0,26
759,274	0,26
759,71	0,25
760,145	0,25
760,581	0,24
761,016	0,24
761,452	0,24
761,887	0,24
762,322	0,23
762,758	0,23
763,193	0,23
763,628	0,22
764,063	0,22
764,499	0,21
764,934	0,21
765,369	0,21
765,804	0,2
766,239	0,2
766,674	0,19
767,109	0,18
767,544	0,18
767,979	0,17
768,414	0,16
768,849	0,16
769,284	0,15
769,719	0,14
770,154	0,14
770,588	0,13
771,023	0,13
771,458	0,12
771,893	0,11
772,327	0,1
772,762	0,09
773,197	0,09
773,631	0,08
774,066	0,07
774,5	0,06
774,935	0,06
775,369	0,05
775,804	0,04
776,238	0,04
776,673	0,03
777,107	0,02
777,541	0,01
777,976	0
778,41	-0
778,844	-0,01
779,279	-0,01
779,713	-0,02
780,147	-0,03
780,581	-0,04
781,015	-0,05
781,449	-0,05
781,883	-0,06
782,317	-0,08
782,751	-0,08
783,185	-0,09
783,619	-0,09
784,053	-0,1
784,487	-0,11
784,921	-0,12
785,355	-0,12
785,789	-0,13
786,223	-0,13
786,656	-0,14
787,09	-0,15
787,524	-0,16
787,957	-0,17
788,391	-0,19
788,825	-0,21
789,258	-0,22
789,692	-0,23
790,125	-0,25
790,559	-0,27
790,992	-0,29
791,426	-0,32
791,859	-0,33
792,293	-0,36
792,726	-0,37
793,159	-0,39
793,593	-0,41
794,026	-0,43
794,459	-0,46
794,892	-0,49
795,326	-0,51
795,759	-0,55
796,192	-0,59
796,625	-0,64
797,058	-0,66
797,491	-0,71
797,924	-0,75
798,357	-0,8
798,79	-0,84
799,223	-0,88
799,656	-0,94
800,089	-0,99
800,522	-1,03
800,955	-1,07
801,387	-1,13
801,82	-1,18
802,253	-1,25
802,686	-1,33
803,118	-1,38
803,551	-1,43
803,984	-1,48
804,416	-1,52
804,849	-1,56
805,281	-1,7
805,714	-2,07
806,146	-2,49
806,579	-2,73
807,011	-2,89
807,444	-2,98
807,876	-3,06
808,308	-3,1
808,741	-3,12
809,173	-3,18
809,605	-3,2
810,037	-3,27
810,47	-3,19
810,902	-2,99
811,334	-2,84
811,766	-2,68
812,198	-2,44
812,63	-2,03
813,062	-1,82
813,494	-1,72
813,926	-1,63
814,358	-1,58
814,79	-1,5
815,222	-1,44
815,654	-1,39
816,086	-1,32
816,518	-1,27
816,949	-1,22
817,381	-1,17
817,813	-1,15
818,245	-1,11
818,676	-1,07
819,108	-1,04
819,54	-1,02
819,971	-1
820,403	-0,95
820,834	-0,93
821,266	-0,89
821,697	-0,86
822,129	-0,85
822,56	-0,82
822,991	-0,8
823,423	-0,77
823,854	-0,76
824,286	-0,73
824,717	-0,72
825,148	-0,7
825,579	-0,7
826,01	-0,68
826,442	-0,67
826,873	-0,65
827,304	-0,62
827,735	-0,61
828,166	-0,62
828,597	-0,62
829,028	-0,61
829,459	-0,61
829,89	-0,61
830,321	-0,57
830,752	-0,58
831,183	-0,57
831,613	-0,57
832,044	-0,56
832,475	-0,55
832,906	-0,56
833,336	-0,56
833,767	-0,56
834,198	-0,55
834,628	-0,53
835,059	-0,55
835,49	-0,55
835,92	-0,52
836,351	-0,52
836,781	-0,52
837,212	-0,53
837,642	-0,54
838,072	-0,52
838,503	-0,53
838,933	-0,51
839,364	-0,52
839,794	-0,51
840,224	-0,5
840,654	-0,55
841,085	-0,55
841,515	-0,53
841,945	-0,53
842,375	-0,49
842,805	-0,47
843,235	-0,46
843,665	-0,48
844,095	-0,46
844,525	-0,47
844,955	-0,48
845,385	-0,45
845,815	-0,44
846,245	-0,46
846,675	-0,46
847,105	-0,47
847,534	-0,48
847,964	-0,46
848,394	-0,45
848,824	-0,49
849,253	-0,48
849,683	-0,47
850,112	-0,49
850,542	-0,52
850,972	-0,52
851,401	-0,5
851,831	-0,49
852,26	-0,49
852,69	-0,53
853,119	-0,52
853,548	-0,52
853,978	-0,53
854,407	-0,51
854,836	-0,51
855,266	-0,5
855,695	-0,51
856,124	-0,52
856,553	-0,54
856,983	-0,56
857,412	-0,55
857,841	-0,57
858,27	-0,57
858,699	-0,57
859,128	-0,6
859,557	-0,61
859,986	-0,62
860,415	-0,61
860,844	-0,57
861,273	-0,57
861,702	-0,58
862,13	-0,56
862,559	-0,58
862,988	-0,56
863,417	-0,55
863,845	-0,54
864,274	-0,56
864,703	-0,56
865,131	-0,56
865,56	-0,57
865,989	-0,6
866,417	-0,57
866,846	-0,57
867,274	-0,56
867,703	-0,58
868,131	-0,59
868,559	-0,59
868,988	-0,61
869,416	-0,6
869,844	-0,61
870,273	-0,63
870,701	-0,6
871,129	-0,64
871,557	-0,66
871,986	-0,66
872,414	-0,66
872,842	-0,63
873,27	-0,62
873,698	-0,58
874,126	-0,62
874,554	-0,59
874,982	-0,59
875,41	-0,62
875,838	-0,57
876,266	-0,55
876,694	-0,55
877,122	-0,55
877,549	-0,6
877,977	-0,57
878,405	-0,6
878,833	-0,57
879,26	-0,56
879,688	-0,56
880,116	-0,54
880,543	-0,52
880,971	-0,52
881,399	-0,54
881,826	-0,55
882,254	-0,53
882,681	-0,58
883,109	-0,53
883,536	-0,54
883,963	-0,56
884,391	-0,55
884,818	-0,53
885,245	-0,58
885,673	-0,59
886,1	-0,56
886,527	-0,56
886,954	-0,52
887,381	-0,53
887,809	-0,55
888,236	-0,56
888,663	-0,57
889,09	-0,6
889,517	-0,63
889,944	-0,63
890,371	-0,61
890,798	-0,62
891,225	-0,63
891,652	-0,65
892,078	-0,64
892,505	-0,67
892,932	-0,62
893,359	-0,63
893,786	-0,63
894,212	-0,59
894,639	-0,6
895,066	-0,62
895,492	-0,57
895,919	-0,56
896,346	-0,56
896,772	-0,56
897,199	-0,53
897,625	-0,55
898,052	-0,52
898,478	-0,5
898,904	-0,52
899,331	-0,51
899,757	-0,53
900,183	-0,55
900,61	-0,53
901,036	-0,53
901,462	-0,53
901,888	-0,51
902,315	-0,49
902,741	-0,55
903,167	-0,53
903,593	-0,56
904,019	-0,56
904,445	-0,53
904,871	-0,55
905,297	-0,57
905,723	-0,57
906,149	-0,57
906,575	-0,58
907,001	-0,59
907,427	-0,56
907,852	-0,55
908,278	-0,56
908,704	-0,53
909,13	-0,53
909,555	-0,52
909,981	-0,51
910,407	-0,51
910,832	-0,49
911,258	-0,5
911,684	-0,5
912,109	-0,49
912,535	-0,51
912,96	-0,47
913,386	-0,51
913,811	-0,5
914,236	-0,52
914,662	-0,5
915,087	-0,54
915,512	-0,55
915,938	-0,56
916,363	-0,55
916,788	-0,57
917,213	-0,55
917,639	-0,6
918,064	-0,58
918,489	-0,58
918,914	-0,59
919,339	-0,59
919,764	-0,57
920,189	-0,57
920,614	-0,59
921,039	-0,6
921,464	-0,56
921,889	-0,59
922,314	-0,61
922,738	-0,63
923,163	-0,65
923,588	-0,64
924,013	-0,64
924,437	-0,64
924,862	-0,64
925,287	-0,6
925,711	-0,61
926,136	-0,62
926,561	-0,6
926,985	-0,59
927,41	-0,56
927,834	-0,54
928,259	-0,5
928,683	-0,5
929,108	-0,47
929,532	-0,48
929,956	-0,48
930,381	-0,47
930,805	-0,47
931,229	-0,46
931,653	-0,45
932,078	-0,45
932,502	-0,46
932,926	-0,47
933,35	-0,47
933,774	-0,46
934,198	-0,44
934,622	-0,43
935,046	-0,44
935,47	-0,44
935,894	-0,44
936,318	-0,43
936,742	-0,44
937,166	-0,44
937,59	-0,44
938,014	-0,46
938,437	-0,47
938,861	-0,49
939,285	-0,49
939,709	-0,49
940,132	-0,48
940,556	-0,48
940,98	-0,48
941,403	-0,47
941,827	-0,47
942,25	-0,49
942,674	-0,47
943,097	-0,46
943,521	-0,45
943,944	-0,47
944,368	-0,46
944,791	-0,45
945,214	-0,47
945,638	-0,48
946,061	-0,52
946,484	-0,52
946,907	-0,5
947,331	-0,5
947,754	-0,54
948,177	-0,53
948,6	-0,52
949,023	-0,52
949,446	-0,53
949,869	-0,5
950,292	-0,5
950,715	-0,46
951,138	-0,45
951,561	-0,43
951,984	-0,43
952,407	-0,41
952,83	-0,39
953,252	-0,36
953,675	-0,36
954,098	-0,36
954,521	-0,35
954,943	-0,34
955,366	-0,35
955,789	-0,33
956,211	-0,35
956,634	-0,36
957,056	-0,33
957,479	-0,35
957,902	-0,36
958,324	-0,35
958,746	-0,34
959,169	-0,36
959,591	-0,36
960,014	-0,37
960,436	-0,37
960,858	-0,37
961,281	-0,36
961,703	-0,38
962,125	-0,38
962,547	-0,37
962,969	-0,38
963,391	-0,39
963,814	-0,4
964,236	-0,39
964,658	-0,36
965,08	-0,37
965,502	-0,36
965,924	-0,34
966,346	-0,33
966,768	-0,33
967,189	-0,35
967,611	-0,34
968,033	-0,34
968,455	-0,33
968,877	-0,34
969,298	-0,35
969,72	-0,36
970,142	-0,35
970,563	-0,36
970,985	-0,34
971,407	-0,33
971,828	-0,3
972,25	-0,3
972,671	-0,28
973,093	-0,28
973,514	-0,27
973,936	-0,25
974,357	-0,23
974,778	-0,24
975,2	-0,23
975,621	-0,23
976,042	-0,22
976,464	-0,21
976,885	-0,2
977,306	-0,2
977,727	-0,2
978,148	-0,19
978,57	-0,18
978,991	-0,17
979,412	-0,16
979,833	-0,15
980,254	-0,14
980,675	-0,14
981,096	-0,13
981,517	-0,12
981,937	-0,12
982,358	-0,11
982,779	-0,09
983,2	-0,09
983,621	-0,08
984,042	-0,07
984,462	-0,06
984,883	-0,05
985,304	-0,03
985,724	-0,03
986,145	-0,02
986,565	-0
986,986	-0
987,407	0,01
987,827	0,02
988,248	0,03
988,668	0,04
989,088	0,04
989,509	0,05
989,929	0,06
990,35	0,07
990,77	0,08
991,19	0,09
991,61	0,1
992,031	0,1
992,451	0,11
992,871	0,11
993,291	0,12
993,711	0,13
994,131	0,13
994,551	0,13
994,971	0,14
995,391	0,14
995,811	0,14
996,231	0,15
996,651	0,15
997,071	0,16
997,491	0,16
997,911	0,17
998,331	0,17
998,75	0,18
999,17	0,18
999,59	0,18
1000,009	0,18
1000,429	0,19
1000,849	0,19
1001,268	0,19
1001,688	0,19
1002,107	0,2
1002,527	0,2
1002,946	0,2
1003,366	0,2
1003,785	0,2
1004,205	0,21
1004,624	0,21
1005,044	0,21
1005,463	0,21
1005,882	0,21
1006,301	0,21
1006,721	0,21
1007,14	0,21
1007,559	0,21
1007,978	0,21
1008,397	0,21
1008,816	0,21
1009,235	0,21
1009,655	0,21
1010,074	0,21
1010,492	0,21
1010,911	0,21
1011,33	0,21
1011,749	0,21
1012,168	0,21
1012,587	0,2
1013,006	0,2
1013,425	0,2
1013,843	0,2
1014,262	0,2
1014,681	0,2
1015,099	0,2
1015,518	0,2
1015,937	0,2
1016,355	0,2
1016,774	0,2
1017,192	0,2
1017,611	0,2
1018,029	0,2
1018,448	0,21
1018,866	0,21
1019,285	0,21
1019,703	0,21
1020,121	0,21
1020,54	0,21
1020,958	0,21
1021,376	0,21
1021,794	0,21
1022,213	0,21
1022,631	0,21
1023,049	0,21
1023,467	0,21
1023,885	0,21
1024,303	0,21
1024,721	0,21
1025,139	0,2
1025,557	0,2
1025,975	0,2
1026,393	0,2
1026,811	0,2
1027,229	0,2
1027,647	0,2
1028,065	0,2
1028,482	0,2
1028,9	0,2
1029,318	0,2
1029,735	0,2
1030,153	0,2
1030,571	0,2
1030,988	0,2
1031,406	0,2
1031,823	0,2
1032,241	0,2
1032,659	0,2
1033,076	0,2
1033,493	0,2
1033,911	0,2
1034,328	0,2
1034,746	0,2
1035,163	0,2
1035,58	0,2
1035,997	0,2
1036,415	0,2
1036,832	0,2
1037,249	0,2
1037,666	0,2
1038,083	0,2
1038,501	0,2
1038,918	0,19
1039,335	0,19
1039,752	0,19
1040,169	0,19
1040,586	0,19
1041,003	0,19
1041,419	0,19
1041,836	0,19
1042,253	0,19
1042,67	0,19
1043,087	0,19
1043,504	0,19
1043,92	0,19
1044,337	0,19
1044,754	0,19
1045,17	0,19
1045,587	0,19
1046,004	0,19
1046,42	0,19
1046,837	0,18
1047,253	0,18
1047,67	0,18
1048,086	0,18
1048,503	0,18
1048,919	0,18
1049,335	0,18
1049,752	0,18
1050,168	0,18
1050,584	0,18
1051,001	0,18
1051,417	0,18
1051,833	0,18
1052,249	0,18
1052,665	0,19
1053,081	0,19
1053,497	0,19
1053,914	0,19
1054,33	0,19
1054,746	0,19
1055,162	0,19
1055,578	0,19
1055,993	0,19
1056,409	0,19
1056,825	0,19
1057,241	0,19
1057,657	0,19
1058,073	0,19
1058,488	0,19
1058,904	0,19
1059,32	0,19
1059,736	0,19
1060,151	0,19
1060,567	0,19
1060,982	0,19
1061,398	0,19
1061,813	0,19
1062,229	0,19
1062,644	0,19
1063,06	0,19
1063,475	0,19
1063,891	0,19
1064,306	0,19
1064,721	0,19
1065,137	0,19
1065,552	0,19
1065,967	0,19
1066,382	0,19
1066,798	0,19
1067,213	0,19
1067,628	0,19
1068,043	0,19
1068,458	0,19
1068,873	0,19
1069,288	0,19
1069,703	0,19
1070,118	0,19
1070,533	0,19
1070,948	0,19
1071,363	0,19
1071,778	0,19
1072,193	0,19
1072,607	0,19
1073,022	0,19
1073,437	0,19
1073,852	0,2
1074,266	0,2
1074,681	0,2
1075,096	0,2
1075,51	0,2
1075,925	0,2
1076,339	0,2
1076,754	0,2
1077,168	0,2
1077,583	0,2
1077,997	0,2
1078,412	0,19
1078,826	0,19
1079,24	0,19
1079,655	0,19
1080,069	0,19
1080,483	0,19
1080,897	0,19
1081,312	0,19
1081,726	0,19
1082,14	0,19
1082,554	0,19
1082,968	0,19
1083,382	0,19
1083,796	0,19
1084,21	0,19
1084,624	0,18
1085,038	0,18
1085,452	0,18
1085,866	0,18
1086,28	0,18
1086,694	0,18
1087,108	0,18
1087,521	0,18
1087,935	0,18
1088,349	0,18
1088,763	0,17
1089,176	0,17
1089,59	0,17
1090,004	0,17
1090,417	0,17
1090,831	0,16
1091,244	0,16
1091,658	0,16
1092,071	0,16
1092,485	0,16
1092,898	0,16
1093,312	0,16
1093,725	0,16
1094,138	0,15
1094,552	0,15
1094,965	0,15
1095,378	0,15
1095,791	0,15
1096,205	0,15
1096,618	0,15
1097,031	0,15
1097,444	0,15
1097,857	0,15
1098,27	0,15
1098,683	0,15
1099,096	0,15
1099,509	0,14
1099,922	0,14
1100,335	0,14
1100,748	0,14
1101,161	0,13
1101,574	0,13
1101,986	0,13
1102,399	0,12
1102,812	0,12
1103,225	0,12
1103,637	0,12
1104,05	0,11
1104,463	0,12
1104,875	0,11
1105,288	0,11
1105,7	0,11
1106,113	0,1
1106,525	0,1
1106,938	0,1
1107,35	0,09
1107,763	0,09
1108,175	0,09
1108,588	0,08
1109	0,08
1109,412	0,07
1109,824	0,08
1110,237	0,07
1110,649	0,07
1111,061	0,06
