Data from 18C-808nm-8A_Absorbance__1191__01191.txt Node

Date: Mon Jul 17 17:06:01 CEST 2023
User: Laser008
Spectrometer: MAYP115816
Trigger mode: 0
Integration Time (sec): 2,500000E-1
Scans to average: 10
Electric dark correction enabled: true
Nonlinearity correction enabled: true
Boxcar width: 5
XAxis mode: Wavelengths
Number of Pixels in Spectrum: 2068
>>>>>Begin Spectral Data<<<<<
198,914	-0,66
199,384	-0,44
199,855	-0,35
200,325	-0,29
200,796	-0,26
201,266	-0,22
201,737	-0,21
202,207	-0,2
202,677	-0,19
203,147	-0,18
203,618	-0,16
204,088	-0,14
204,558	-0,14
205,028	-0,13
205,498	-0,13
205,968	-0,13
206,439	-0,14
206,909	-0,13
207,379	-0,13
207,849	-0,12
208,319	-0,13
208,789	-0,14
209,258	-0,14
209,728	-0,15
210,198	-0,14
210,668	-0,14
211,138	-0,14
211,608	-0,13
212,077	-0,14
212,547	-0,13
213,017	-0,14
213,486	-0,14
213,956	-0,14
214,426	-0,15
214,895	-0,15
215,365	-0,16
215,834	-0,16
216,304	-0,17
216,773	-0,17
217,243	-0,19
217,712	-0,21
218,181	-0,2
218,651	-0,21
219,12	-0,2
219,589	-0,2
220,058	-0,19
220,528	-0,2
220,997	-0,2
221,466	-0,21
221,935	-0,22
222,404	-0,21
222,873	-0,2
223,342	-0,2
223,812	-0,2
224,281	-0,19
224,749	-0,2
225,218	-0,21
225,687	-0,21
226,156	-0,2
226,625	-0,18
227,094	-0,19
227,563	-0,18
228,031	-0,2
228,5	-0,2
228,969	-0,21
229,438	-0,21
229,906	-0,19
230,375	-0,18
230,844	-0,18
231,312	-0,18
231,781	-0,19
232,249	-0,17
232,718	-0,18
233,186	-0,16
233,655	-0,16
234,123	-0,16
234,591	-0,16
235,06	-0,17
235,528	-0,17
235,996	-0,16
236,465	-0,16
236,933	-0,16
237,401	-0,16
237,869	-0,15
238,337	-0,16
238,805	-0,15
239,274	-0,14
239,742	-0,14
240,21	-0,14
240,678	-0,14
241,146	-0,13
241,614	-0,14
242,081	-0,14
242,549	-0,14
243,017	-0,14
243,485	-0,14
243,953	-0,14
244,421	-0,14
244,888	-0,14
245,356	-0,14
245,824	-0,14
246,291	-0,14
246,759	-0,14
247,227	-0,14
247,694	-0,13
248,162	-0,12
248,629	-0,12
249,097	-0,13
249,564	-0,13
250,032	-0,14
250,499	-0,14
250,967	-0,14
251,434	-0,14
251,901	-0,14
252,369	-0,14
252,836	-0,15
253,303	-0,17
253,77	-0,19
254,237	-0,17
254,705	-0,18
255,172	-0,17
255,639	-0,17
256,106	-0,19
256,573	-0,19
257,04	-0,19
257,507	-0,19
257,974	-0,19
258,441	-0,17
258,908	-0,17
259,375	-0,19
259,841	-0,19
260,308	-0,19
260,775	-0,19
261,242	-0,18
261,709	-0,18
262,175	-0,19
262,642	-0,19
263,109	-0,19
263,575	-0,21
264,042	-0,2
264,508	-0,19
264,975	-0,21
265,441	-0,21
265,908	-0,22
266,374	-0,22
266,841	-0,23
267,307	-0,22
267,773	-0,21
268,24	-0,21
268,706	-0,2
269,172	-0,21
269,639	-0,22
270,105	-0,2
270,571	-0,2
271,037	-0,19
271,503	-0,2
271,969	-0,2
272,435	-0,21
272,902	-0,22
273,368	-0,24
273,834	-0,24
274,3	-0,25
274,765	-0,25
275,231	-0,25
275,697	-0,25
276,163	-0,25
276,629	-0,25
277,095	-0,25
277,56	-0,24
278,026	-0,24
278,492	-0,22
278,958	-0,22
279,423	-0,22
279,889	-0,21
280,354	-0,22
280,82	-0,21
281,286	-0,22
281,751	-0,23
282,217	-0,22
282,682	-0,21
283,147	-0,22
283,613	-0,22
284,078	-0,22
284,544	-0,23
285,009	-0,24
285,474	-0,23
285,939	-0,25
286,405	-0,25
286,87	-0,23
287,335	-0,23
287,8	-0,23
288,265	-0,22
288,73	-0,23
289,195	-0,25
289,66	-0,25
290,125	-0,23
290,59	-0,23
291,055	-0,22
291,52	-0,22
291,985	-0,23
292,45	-0,25
292,915	-0,24
293,38	-0,25
293,844	-0,24
294,309	-0,22
294,774	-0,21
295,239	-0,23
295,703	-0,24
296,168	-0,22
296,632	-0,2
297,097	-0,19
297,562	-0,17
298,026	-0,18
298,491	-0,18
298,955	-0,18
299,419	-0,17
299,884	-0,17
300,348	-0,15
300,813	-0,15
301,277	-0,16
301,741	-0,16
302,205	-0,16
302,67	-0,17
303,134	-0,16
303,598	-0,15
304,062	-0,14
304,526	-0,14
304,99	-0,16
305,454	-0,17
305,919	-0,17
306,383	-0,16
306,847	-0,16
307,31	-0,17
307,774	-0,17
308,238	-0,18
308,702	-0,17
309,166	-0,18
309,63	-0,18
310,094	-0,14
310,557	-0,13
311,021	-0,12
311,485	-0,13
311,948	-0,13
312,412	-0,12
312,876	-0,11
313,339	-0,1
313,803	-0,11
314,266	-0,11
314,73	-0,12
315,193	-0,13
315,657	-0,13
316,12	-0,13
316,584	-0,11
317,047	-0,12
317,51	-0,11
317,973	-0,11
318,437	-0,11
318,9	-0,1
319,363	-0,09
319,826	-0,08
320,29	-0,08
320,753	-0,08
321,216	-0,08
321,679	-0,09
322,142	-0,08
322,605	-0,09
323,068	-0,09
323,531	-0,09
323,994	-0,08
324,457	-0,09
324,92	-0,09
325,382	-0,09
325,845	-0,09
326,308	-0,08
326,771	-0,07
327,233	-0,06
327,696	-0,05
328,159	-0,04
328,622	-0,03
329,084	-0,03
329,547	-0,02
330,009	-0,01
330,472	-0
330,934	-0
331,397	0
331,859	0
332,322	-0
332,784	-0
333,246	0
333,709	0
334,171	0,01
334,633	0,01
335,096	0,01
335,558	0,01
336,02	0,01
336,482	0,01
336,944	0,02
337,406	0,02
337,868	0,03
338,331	0,02
338,793	0,03
339,255	0,04
339,717	0,04
340,178	0,04
340,64	0,05
341,102	0,06
341,564	0,07
342,026	0,08
342,488	0,09
342,949	0,1
343,411	0,12
343,873	0,14
344,335	0,16
344,796	0,19
345,258	0,22
345,719	0,25
346,181	0,28
346,643	0,3
347,104	0,32
347,566	0,34
348,027	0,36
348,488	0,37
348,95	0,39
349,411	0,4
349,873	0,41
350,334	0,42
350,795	0,43
351,256	0,44
351,718	0,44
352,179	0,44
352,64	0,45
353,101	0,45
353,562	0,45
354,023	0,45
354,484	0,45
354,945	0,45
355,406	0,45
355,867	0,45
356,328	0,45
356,789	0,45
357,25	0,46
357,711	0,46
358,172	0,46
358,633	0,46
359,093	0,46
359,554	0,46
360,015	0,46
360,476	0,46
360,936	0,46
361,397	0,46
361,858	0,46
362,318	0,46
362,779	0,47
363,239	0,47
363,7	0,47
364,16	0,47
364,621	0,47
365,081	0,47
365,541	0,47
366,002	0,47
366,462	0,47
366,922	0,46
367,383	0,46
367,843	0,46
368,303	0,46
368,763	0,46
369,223	0,46
369,684	0,46
370,144	0,46
370,604	0,46
371,064	0,46
371,524	0,46
371,984	0,46
372,444	0,46
372,904	0,46
373,363	0,46
373,823	0,46
374,283	0,46
374,743	0,46
375,203	0,46
375,663	0,46
376,122	0,46
376,582	0,46
377,042	0,46
377,501	0,46
377,961	0,46
378,42	0,46
378,88	0,46
379,34	0,46
379,799	0,46
380,259	0,46
380,718	0,46
381,177	0,46
381,637	0,46
382,096	0,46
382,555	0,46
383,015	0,46
383,474	0,46
383,933	0,46
384,393	0,46
384,852	0,45
385,311	0,45
385,77	0,45
386,229	0,45
386,688	0,45
387,147	0,45
387,606	0,45
388,065	0,45
388,524	0,45
388,983	0,45
389,442	0,45
389,901	0,45
390,36	0,45
390,819	0,45
391,277	0,45
391,736	0,45
392,195	0,45
392,654	0,45
393,112	0,45
393,571	0,45
394,03	0,45
394,488	0,45
394,947	0,45
395,405	0,45
395,864	0,45
396,322	0,45
396,781	0,45
397,239	0,45
397,698	0,45
398,156	0,45
398,614	0,45
399,073	0,45
399,531	0,45
399,989	0,45
400,447	0,45
400,905	0,45
401,364	0,45
401,822	0,45
402,28	0,45
402,738	0,45
403,196	0,44
403,654	0,44
404,112	0,44
404,57	0,44
405,028	0,44
405,486	0,44
405,944	0,44
406,402	0,44
406,859	0,44
407,317	0,44
407,775	0,44
408,233	0,44
408,691	0,44
409,148	0,44
409,606	0,44
410,064	0,44
410,521	0,44
410,979	0,44
411,436	0,44
411,894	0,44
412,351	0,44
412,809	0,44
413,266	0,44
413,724	0,44
414,181	0,44
414,638	0,44
415,096	0,44
415,553	0,44
416,01	0,44
416,467	0,44
416,925	0,44
417,382	0,44
417,839	0,44
418,296	0,44
418,753	0,44
419,21	0,44
419,667	0,44
420,124	0,44
420,581	0,44
421,038	0,44
421,495	0,44
421,952	0,44
422,409	0,44
422,866	0,44
423,322	0,44
423,779	0,44
424,236	0,44
424,693	0,44
425,149	0,44
425,606	0,44
426,063	0,44
426,519	0,44
426,976	0,44
427,433	0,44
427,889	0,44
428,346	0,44
428,802	0,44
429,258	0,44
429,715	0,44
430,171	0,44
430,628	0,44
431,084	0,44
431,54	0,44
431,997	0,44
432,453	0,44
432,909	0,43
433,365	0,43
433,821	0,43
434,277	0,43
434,734	0,43
435,19	0,43
435,646	0,43
436,102	0,43
436,558	0,43
437,014	0,43
437,47	0,43
437,925	0,43
438,381	0,43
438,837	0,43
439,293	0,43
439,749	0,43
440,205	0,43
440,66	0,43
441,116	0,43
441,572	0,43
442,027	0,43
442,483	0,43
442,939	0,43
443,394	0,43
443,85	0,43
444,305	0,43
444,761	0,43
445,216	0,43
445,672	0,43
446,127	0,43
446,582	0,43
447,038	0,43
447,493	0,43
447,948	0,43
448,403	0,43
448,859	0,43
449,314	0,43
449,769	0,43
450,224	0,43
450,679	0,43
451,134	0,43
451,589	0,43
452,044	0,43
452,499	0,43
452,954	0,43
453,409	0,43
453,864	0,43
454,319	0,43
454,774	0,43
455,229	0,44
455,684	0,43
456,138	0,43
456,593	0,43
457,048	0,43
457,503	0,43
457,957	0,43
458,412	0,43
458,866	0,44
459,321	0,44
459,776	0,44
460,23	0,44
460,685	0,44
461,139	0,44
461,593	0,44
462,048	0,44
462,502	0,44
462,957	0,44
463,411	0,44
463,865	0,44
464,319	0,44
464,774	0,44
465,228	0,44
465,682	0,44
466,136	0,44
466,59	0,44
467,044	0,44
467,499	0,44
467,953	0,44
468,407	0,44
468,861	0,44
469,315	0,44
469,768	0,45
470,222	0,45
470,676	0,45
471,13	0,45
471,584	0,45
472,038	0,45
472,491	0,45
472,945	0,45
473,399	0,45
473,852	0,45
474,306	0,45
474,76	0,45
475,213	0,45
475,667	0,45
476,12	0,45
476,574	0,45
477,027	0,45
477,481	0,45
477,934	0,45
478,388	0,46
478,841	0,46
479,294	0,46
479,748	0,46
480,201	0,46
480,654	0,46
481,107	0,46
481,561	0,46
482,014	0,46
482,467	0,47
482,92	0,47
483,373	0,47
483,826	0,47
484,279	0,47
484,732	0,47
485,185	0,47
485,638	0,47
486,091	0,47
486,544	0,47
486,997	0,48
487,449	0,48
487,902	0,48
488,355	0,48
488,808	0,48
489,26	0,48
489,713	0,48
490,166	0,49
490,618	0,49
491,071	0,49
491,523	0,49
491,976	0,49
492,429	0,5
492,881	0,5
493,333	0,5
493,786	0,5
494,238	0,5
494,691	0,5
495,143	0,51
495,595	0,51
496,048	0,51
496,5	0,51
496,952	0,51
497,404	0,52
497,856	0,52
498,309	0,52
498,761	0,52
499,213	0,53
499,665	0,53
500,117	0,53
500,569	0,53
501,021	0,54
501,473	0,54
501,925	0,54
502,377	0,54
502,828	0,55
503,28	0,55
503,732	0,55
504,184	0,55
504,636	0,56
505,087	0,56
505,539	0,56
505,991	0,56
506,442	0,57
506,894	0,57
507,345	0,57
507,797	0,57
508,249	0,58
508,7	0,58
509,151	0,58
509,603	0,58
510,054	0,59
510,506	0,59
510,957	0,59
511,408	0,59
511,86	0,6
512,311	0,6
512,762	0,6
513,213	0,6
513,665	0,6
514,116	0,61
514,567	0,61
515,018	0,61
515,469	0,61
515,92	0,62
516,371	0,62
516,822	0,62
517,273	0,62
517,724	0,62
518,175	0,63
518,626	0,63
519,076	0,63
519,527	0,63
519,978	0,63
520,429	0,63
520,88	0,63
521,33	0,64
521,781	0,64
522,232	0,64
522,682	0,64
523,133	0,64
523,583	0,64
524,034	0,64
524,484	0,64
524,935	0,65
525,385	0,65
525,836	0,65
526,286	0,65
526,736	0,65
527,187	0,65
527,637	0,65
528,087	0,65
528,538	0,65
528,988	0,65
529,438	0,65
529,888	0,64
530,338	0,64
530,788	0,64
531,238	0,64
531,688	0,64
532,139	0,64
532,589	0,64
533,038	0,64
533,488	0,64
533,938	0,64
534,388	0,64
534,838	0,64
535,288	0,64
535,738	0,63
536,187	0,63
536,637	0,63
537,087	0,63
537,537	0,63
537,986	0,63
538,436	0,62
538,885	0,62
539,335	0,62
539,785	0,61
540,234	0,61
540,684	0,61
541,133	0,61
541,582	0,6
542,032	0,6
542,481	0,6
542,931	0,6
543,38	0,59
543,829	0,59
544,278	0,59
544,728	0,58
545,177	0,58
545,626	0,58
546,075	0,58
546,524	0,57
546,973	0,57
547,422	0,57
547,871	0,57
548,32	0,57
548,769	0,57
549,218	0,57
549,667	0,57
550,116	0,56
550,565	0,56
551,014	0,56
551,463	0,56
551,911	0,56
552,36	0,55
552,809	0,55
553,258	0,55
553,706	0,55
554,155	0,54
554,603	0,54
555,052	0,54
555,501	0,54
555,949	0,54
556,398	0,53
556,846	0,53
557,294	0,53
557,743	0,53
558,191	0,52
558,64	0,52
559,088	0,52
559,536	0,51
559,985	0,51
560,433	0,51
560,881	0,51
561,329	0,5
561,777	0,5
562,225	0,5
562,674	0,5
563,122	0,5
563,57	0,5
564,018	0,49
564,466	0,49
564,914	0,49
565,362	0,49
565,809	0,48
566,257	0,48
566,705	0,48
567,153	0,48
567,601	0,47
568,048	0,47
568,496	0,47
568,944	0,47
569,392	0,47
569,839	0,46
570,287	0,46
570,734	0,46
571,182	0,46
571,63	0,46
572,077	0,45
572,525	0,45
572,972	0,45
573,419	0,45
573,867	0,45
574,314	0,44
574,761	0,44
575,209	0,44
575,656	0,44
576,103	0,44
576,551	0,44
576,998	0,44
577,445	0,43
577,892	0,43
578,339	0,43
578,786	0,43
579,233	0,43
579,68	0,43
580,127	0,43
580,574	0,43
581,021	0,42
581,468	0,42
581,915	0,42
582,362	0,42
582,809	0,42
583,255	0,42
583,702	0,41
584,149	0,41
584,596	0,41
585,042	0,41
585,489	0,41
585,936	0,41
586,382	0,41
586,829	0,41
587,275	0,4
587,722	0,4
588,168	0,4
588,615	0,4
589,061	0,4
589,508	0,4
589,954	0,4
590,4	0,4
590,847	0,4
591,293	0,4
591,739	0,39
592,185	0,39
592,632	0,39
593,078	0,39
593,524	0,39
593,97	0,39
594,416	0,39
594,862	0,39
595,308	0,39
595,754	0,39
596,2	0,39
596,646	0,39
597,092	0,38
597,538	0,38
597,984	0,38
598,43	0,38
598,876	0,38
599,321	0,38
599,767	0,38
600,213	0,38
600,659	0,38
601,104	0,38
601,55	0,38
601,995	0,38
602,441	0,37
602,887	0,37
603,332	0,37
603,778	0,37
604,223	0,37
604,668	0,37
605,114	0,37
605,559	0,37
606,005	0,37
606,45	0,37
606,895	0,37
607,341	0,37
607,786	0,37
608,231	0,37
608,676	0,37
609,121	0,36
609,566	0,36
610,012	0,35
610,457	0,35
610,902	0,35
611,347	0,35
611,792	0,35
612,237	0,35
612,682	0,34
613,127	0,34
613,571	0,35
614,016	0,35
614,461	0,35
614,906	0,35
615,351	0,35
615,795	0,35
616,24	0,35
616,685	0,35
617,129	0,35
617,574	0,35
618,019	0,35
618,463	0,35
618,908	0,35
619,352	0,35
619,797	0,35
620,241	0,35
620,686	0,35
621,13	0,35
621,574	0,35
622,019	0,35
622,463	0,35
622,907	0,35
623,352	0,35
623,796	0,35
624,24	0,35
624,684	0,35
625,128	0,35
625,572	0,35
626,016	0,35
626,461	0,35
626,905	0,35
627,349	0,35
627,793	0,35
628,236	0,35
628,68	0,35
629,124	0,34
629,568	0,34
630,012	0,34
630,456	0,34
630,9	0,34
631,343	0,34
631,787	0,34
632,231	0,34
632,674	0,34
633,118	0,34
633,562	0,34
634,005	0,34
634,449	0,34
634,892	0,34
635,336	0,34
635,779	0,34
636,223	0,34
636,666	0,34
637,109	0,34
637,553	0,34
637,996	0,34
638,439	0,34
638,883	0,34
639,326	0,34
639,769	0,34
640,212	0,34
640,655	0,34
641,099	0,34
641,542	0,34
641,985	0,34
642,428	0,34
642,871	0,34
643,314	0,34
643,757	0,34
644,2	0,34
644,643	0,34
645,085	0,34
645,528	0,34
645,971	0,34
646,414	0,33
646,857	0,33
647,299	0,33
647,742	0,33
648,185	0,33
648,627	0,33
649,07	0,33
649,513	0,33
649,955	0,33
650,398	0,33
650,84	0,33
651,283	0,33
651,725	0,33
652,168	0,33
652,61	0,33
653,052	0,33
653,495	0,33
653,937	0,26
654,379	0,2
654,821	0,21
655,264	0,21
655,706	0,21
656,148	0,21
656,59	0,21
657,032	0,21
657,474	0,21
657,916	0,21
658,358	0,21
658,8	0,26
659,242	0,33
659,684	0,33
660,126	0,33
660,568	0,33
661,01	0,33
661,452	0,33
661,894	0,33
662,335	0,33
662,777	0,33
663,219	0,33
663,661	0,33
664,102	0,33
664,544	0,33
664,985	0,33
665,427	0,33
665,869	0,33
666,31	0,33
666,752	0,33
667,193	0,33
667,634	0,33
668,076	0,33
668,517	0,33
668,959	0,33
669,4	0,33
669,841	0,33
670,282	0,33
670,724	0,33
671,165	0,32
671,606	0,32
672,047	0,32
672,488	0,32
672,929	0,32
673,37	0,32
673,811	0,32
674,252	0,32
674,693	0,32
675,134	0,32
675,575	0,32
676,016	0,32
676,457	0,32
676,898	0,32
677,339	0,32
677,78	0,32
678,22	0,32
678,661	0,32
679,102	0,32
679,542	0,32
679,983	0,32
680,424	0,32
680,864	0,32
681,305	0,32
681,745	0,32
682,186	0,32
682,626	0,32
683,067	0,32
683,507	0,32
683,948	0,32
684,388	0,32
684,828	0,32
685,269	0,32
685,709	0,32
686,149	0,32
686,589	0,32
687,029	0,31
687,47	0,31
687,91	0,31
688,35	0,31
688,79	0,31
689,23	0,31
689,67	0,31
690,11	0,31
690,55	0,31
690,99	0,31
691,43	0,31
691,87	0,31
692,31	0,31
692,749	0,31
693,189	0,31
693,629	0,31
694,069	0,31
694,508	0,31
694,948	0,31
695,388	0,31
695,827	0,31
696,267	0,31
696,706	0,31
697,146	0,31
697,586	0,31
698,025	0,31
698,464	0,31
698,904	0,31
699,343	0,31
699,783	0,31
700,222	0,31
700,661	0,31
701,101	0,31
701,54	0,31
701,979	0,31
702,418	0,31
702,857	0,31
703,297	0,31
703,736	0,31
704,175	0,31
704,614	0,31
705,053	0,31
705,492	0,31
705,931	0,31
706,37	0,31
706,809	0,3
707,248	0,3
707,687	0,3
708,125	0,3
708,564	0,3
709,003	0,3
709,442	0,3
709,88	0,3
710,319	0,3
710,758	0,3
711,196	0,3
711,635	0,3
712,074	0,3
712,512	0,3
712,951	0,3
713,389	0,3
713,828	0,3
714,266	0,3
714,705	0,3
715,143	0,3
715,581	0,3
716,02	0,3
716,458	0,3
716,896	0,29
717,334	0,29
717,773	0,29
718,211	0,29
718,649	0,29
719,087	0,29
719,525	0,29
719,963	0,29
720,401	0,29
720,839	0,29
721,277	0,29
721,715	0,3
722,153	0,3
722,591	0,3
723,029	0,3
723,467	0,29
723,905	0,29
724,342	0,29
724,78	0,29
725,218	0,29
725,656	0,29
726,093	0,29
726,531	0,29
726,969	0,29
727,406	0,29
727,844	0,29
728,281	0,29
728,719	0,29
729,156	0,29
729,594	0,29
730,031	0,29
730,469	0,29
730,906	0,29
731,343	0,29
731,781	0,29
732,218	0,29
732,655	0,29
733,092	0,29
733,53	0,29
733,967	0,29
734,404	0,29
734,841	0,29
735,278	0,29
735,715	0,29
736,152	0,29
736,589	0,29
737,026	0,29
737,463	0,29
737,9	0,29
738,337	0,29
738,774	0,28
739,211	0,28
739,647	0,28
740,084	0,28
740,521	0,28
740,958	0,28
741,394	0,28
741,831	0,28
742,268	0,28
742,704	0,28
743,141	0,28
743,577	0,28
744,014	0,28
744,45	0,27
744,887	0,27
745,323	0,27
745,76	0,27
746,196	0,27
746,632	0,27
747,069	0,27
747,505	0,27
747,941	0,27
748,378	0,27
748,814	0,27
749,25	0,27
749,686	0,27
750,122	0,27
750,558	0,28
750,994	0,28
751,43	0,28
751,866	0,28
752,302	0,28
752,738	0,28
753,174	0,28
753,61	0,28
754,046	0,28
754,482	0,29
754,918	0,29
755,354	0,29
755,789	0,29
756,225	0,29
756,661	0,28
757,096	0,28
757,532	0,28
757,968	0,28
758,403	0,28
758,839	0,28
759,274	0,28
759,71	0,27
760,145	0,27
760,581	0,26
761,016	0,26
761,452	0,26
761,887	0,26
762,322	0,25
762,758	0,25
763,193	0,25
763,628	0,24
764,063	0,23
764,499	0,23
764,934	0,22
765,369	0,22
765,804	0,21
766,239	0,21
766,674	0,2
767,109	0,19
767,544	0,19
767,979	0,18
768,414	0,17
768,849	0,17
769,284	0,16
769,719	0,16
770,154	0,15
770,588	0,15
771,023	0,14
771,458	0,13
771,893	0,12
772,327	0,11
772,762	0,1
773,197	0,1
773,631	0,09
774,066	0,08
774,5	0,07
774,935	0,06
775,369	0,05
775,804	0,05
776,238	0,04
776,673	0,03
777,107	0,02
777,541	0,02
777,976	0,01
778,41	0
778,844	-0,01
779,279	-0,01
779,713	-0,02
780,147	-0,03
780,581	-0,03
781,015	-0,04
781,449	-0,05
781,883	-0,05
782,317	-0,07
782,751	-0,08
783,185	-0,08
783,619	-0,09
784,053	-0,1
784,487	-0,1
784,921	-0,11
785,355	-0,12
785,789	-0,13
786,223	-0,14
786,656	-0,15
787,09	-0,16
787,524	-0,16
787,957	-0,17
788,391	-0,19
788,825	-0,21
789,258	-0,22
789,692	-0,23
790,125	-0,25
790,559	-0,26
790,992	-0,28
791,426	-0,31
791,859	-0,32
792,293	-0,35
792,726	-0,36
793,159	-0,38
793,593	-0,4
794,026	-0,42
794,459	-0,45
794,892	-0,47
795,326	-0,5
795,759	-0,54
796,192	-0,58
796,625	-0,63
797,058	-0,65
797,491	-0,69
797,924	-0,73
798,357	-0,78
798,79	-0,82
799,223	-0,87
799,656	-0,92
800,089	-0,97
800,522	-1,01
800,955	-1,06
801,387	-1,12
801,82	-1,17
802,253	-1,23
802,686	-1,31
803,118	-1,37
803,551	-1,42
803,984	-1,46
804,416	-1,5
804,849	-1,54
805,281	-1,65
805,714	-1,99
806,146	-2,45
806,579	-2,71
807,011	-2,87
807,444	-2,97
807,876	-3,06
808,308	-3,09
808,741	-3,12
809,173	-3,17
809,605	-3,19
810,037	-3,27
810,47	-3,19
810,902	-2,99
811,334	-2,85
811,766	-2,69
812,198	-2,46
812,63	-2,04
813,062	-1,82
813,494	-1,72
813,926	-1,63
814,358	-1,58
814,79	-1,5
815,222	-1,44
815,654	-1,39
816,086	-1,32
816,518	-1,26
816,949	-1,21
817,381	-1,17
817,813	-1,15
818,245	-1,11
818,676	-1,07
819,108	-1,03
819,54	-1,02
819,971	-0,99
820,403	-0,94
820,834	-0,92
821,266	-0,88
821,697	-0,85
822,129	-0,83
822,56	-0,81
822,991	-0,79
823,423	-0,76
823,854	-0,75
824,286	-0,73
824,717	-0,72
825,148	-0,7
825,579	-0,69
826,01	-0,67
826,442	-0,66
826,873	-0,64
827,304	-0,61
827,735	-0,61
828,166	-0,61
828,597	-0,61
829,028	-0,6
829,459	-0,61
829,89	-0,62
830,321	-0,58
830,752	-0,59
831,183	-0,57
831,613	-0,57
832,044	-0,56
832,475	-0,56
832,906	-0,57
833,336	-0,56
833,767	-0,56
834,198	-0,55
834,628	-0,53
835,059	-0,55
835,49	-0,56
835,92	-0,53
836,351	-0,53
836,781	-0,53
837,212	-0,54
837,642	-0,53
838,072	-0,52
838,503	-0,53
838,933	-0,5
839,364	-0,51
839,794	-0,49
840,224	-0,49
840,654	-0,54
841,085	-0,54
841,515	-0,51
841,945	-0,52
842,375	-0,47
842,805	-0,46
843,235	-0,45
843,665	-0,47
844,095	-0,45
844,525	-0,47
844,955	-0,47
845,385	-0,45
845,815	-0,44
846,245	-0,46
846,675	-0,47
847,105	-0,49
847,534	-0,49
847,964	-0,48
848,394	-0,46
848,824	-0,5
849,253	-0,49
849,683	-0,49
850,112	-0,5
850,542	-0,53
850,972	-0,53
851,401	-0,51
851,831	-0,49
852,26	-0,49
852,69	-0,52
853,119	-0,51
853,548	-0,51
853,978	-0,51
854,407	-0,5
854,836	-0,5
855,266	-0,5
855,695	-0,52
856,124	-0,54
856,553	-0,55
856,983	-0,57
857,412	-0,57
857,841	-0,58
858,27	-0,58
858,699	-0,58
859,128	-0,62
859,557	-0,62
859,986	-0,62
860,415	-0,6
860,844	-0,57
861,273	-0,57
861,702	-0,58
862,13	-0,56
862,559	-0,59
862,988	-0,56
863,417	-0,56
863,845	-0,54
864,274	-0,55
864,703	-0,55
865,131	-0,55
865,56	-0,56
865,989	-0,6
866,417	-0,57
866,846	-0,57
867,274	-0,57
867,703	-0,59
868,131	-0,6
868,559	-0,6
868,988	-0,62
869,416	-0,6
869,844	-0,61
870,273	-0,64
870,701	-0,61
871,129	-0,65
871,557	-0,67
871,986	-0,68
872,414	-0,69
872,842	-0,66
873,27	-0,64
873,698	-0,61
874,126	-0,65
874,554	-0,63
874,982	-0,63
875,41	-0,65
875,838	-0,59
876,266	-0,57
876,694	-0,57
877,122	-0,56
877,549	-0,62
877,977	-0,59
878,405	-0,61
878,833	-0,58
879,26	-0,57
879,688	-0,57
880,116	-0,55
880,543	-0,53
880,971	-0,52
881,399	-0,54
881,826	-0,54
882,254	-0,52
882,681	-0,57
883,109	-0,53
883,536	-0,54
883,963	-0,56
884,391	-0,54
884,818	-0,53
885,245	-0,57
885,673	-0,59
886,1	-0,57
886,527	-0,56
886,954	-0,53
887,381	-0,54
887,809	-0,54
888,236	-0,55
888,663	-0,56
889,09	-0,6
889,517	-0,63
889,944	-0,63
890,371	-0,61
890,798	-0,62
891,225	-0,62
891,652	-0,65
892,078	-0,63
892,505	-0,65
892,932	-0,61
893,359	-0,62
893,786	-0,62
894,212	-0,58
894,639	-0,59
895,066	-0,61
895,492	-0,56
895,919	-0,56
896,346	-0,55
896,772	-0,56
897,199	-0,53
897,625	-0,56
898,052	-0,52
898,478	-0,5
898,904	-0,51
899,331	-0,5
899,757	-0,52
900,183	-0,54
900,61	-0,52
901,036	-0,53
901,462	-0,53
901,888	-0,53
902,315	-0,52
902,741	-0,58
903,167	-0,58
903,593	-0,6
904,019	-0,59
904,445	-0,55
904,871	-0,57
905,297	-0,59
905,723	-0,58
906,149	-0,58
906,575	-0,58
907,001	-0,59
907,427	-0,55
907,852	-0,54
908,278	-0,55
908,704	-0,52
909,13	-0,52
909,555	-0,51
909,981	-0,5
910,407	-0,5
910,832	-0,49
911,258	-0,49
911,684	-0,49
912,109	-0,49
912,535	-0,51
912,96	-0,47
913,386	-0,51
913,811	-0,51
914,236	-0,52
914,662	-0,51
915,087	-0,55
915,512	-0,55
915,938	-0,57
916,363	-0,56
916,788	-0,58
917,213	-0,56
917,639	-0,61
918,064	-0,59
918,489	-0,6
918,914	-0,6
919,339	-0,62
919,764	-0,59
920,189	-0,59
920,614	-0,6
921,039	-0,61
921,464	-0,57
921,889	-0,6
922,314	-0,61
922,738	-0,63
923,163	-0,65
923,588	-0,65
924,013	-0,63
924,437	-0,63
924,862	-0,64
925,287	-0,6
925,711	-0,61
926,136	-0,61
926,561	-0,59
926,985	-0,58
927,41	-0,55
927,834	-0,53
928,259	-0,52
928,683	-0,5
929,108	-0,48
929,532	-0,49
929,956	-0,48
930,381	-0,47
930,805	-0,47
931,229	-0,47
931,653	-0,45
932,078	-0,45
932,502	-0,46
932,926	-0,46
933,35	-0,46
933,774	-0,45
934,198	-0,44
934,622	-0,43
935,046	-0,43
935,47	-0,44
935,894	-0,43
936,318	-0,43
936,742	-0,43
937,166	-0,43
937,59	-0,43
938,014	-0,45
938,437	-0,46
938,861	-0,48
939,285	-0,49
939,709	-0,49
940,132	-0,5
940,556	-0,5
940,98	-0,5
941,403	-0,49
941,827	-0,5
942,25	-0,51
942,674	-0,5
943,097	-0,49
943,521	-0,49
943,944	-0,5
944,368	-0,48
944,791	-0,47
945,214	-0,49
945,638	-0,49
946,061	-0,52
946,484	-0,52
946,907	-0,51
947,331	-0,51
947,754	-0,55
948,177	-0,52
948,6	-0,52
949,023	-0,52
949,446	-0,52
949,869	-0,49
950,292	-0,49
950,715	-0,46
951,138	-0,44
951,561	-0,42
951,984	-0,42
952,407	-0,4
952,83	-0,38
953,252	-0,35
953,675	-0,35
954,098	-0,36
954,521	-0,35
954,943	-0,33
955,366	-0,34
955,789	-0,33
956,211	-0,35
956,634	-0,36
957,056	-0,34
957,479	-0,36
957,902	-0,38
958,324	-0,37
958,746	-0,36
959,169	-0,37
959,591	-0,38
960,014	-0,39
960,436	-0,39
960,858	-0,39
961,281	-0,39
961,703	-0,4
962,125	-0,4
962,547	-0,38
962,969	-0,39
963,391	-0,4
963,814	-0,41
964,236	-0,4
964,658	-0,37
965,08	-0,37
965,502	-0,36
965,924	-0,33
966,346	-0,34
966,768	-0,33
967,189	-0,34
967,611	-0,33
968,033	-0,32
968,455	-0,3
968,877	-0,32
969,298	-0,33
969,72	-0,35
970,142	-0,34
970,563	-0,35
970,985	-0,33
971,407	-0,32
971,828	-0,3
972,25	-0,31
972,671	-0,29
973,093	-0,3
973,514	-0,28
973,936	-0,26
974,357	-0,24
974,778	-0,24
975,2	-0,23
975,621	-0,23
976,042	-0,21
976,464	-0,2
976,885	-0,19
977,306	-0,18
977,727	-0,17
978,148	-0,17
978,57	-0,15
978,991	-0,14
979,412	-0,13
979,833	-0,13
980,254	-0,12
980,675	-0,13
981,096	-0,12
981,517	-0,11
981,937	-0,1
982,358	-0,09
982,779	-0,07
983,2	-0,08
983,621	-0,07
984,042	-0,06
984,462	-0,05
984,883	-0,04
985,304	-0,03
985,724	-0,02
986,145	-0,01
986,565	0,01
986,986	0,02
987,407	0,02
987,827	0,04
988,248	0,04
988,668	0,05
989,088	0,06
989,509	0,07
989,929	0,08
990,35	0,08
990,77	0,09
991,19	0,1
991,61	0,11
992,031	0,11
992,451	0,12
992,871	0,13
993,291	0,14
993,711	0,14
994,131	0,15
994,551	0,15
994,971	0,16
995,391	0,16
995,811	0,17
996,231	0,17
996,651	0,17
997,071	0,18
997,491	0,18
997,911	0,19
998,331	0,19
998,75	0,2
999,17	0,2
999,59	0,2
1000,009	0,21
1000,429	0,21
1000,849	0,21
1001,268	0,22
1001,688	0,22
1002,107	0,22
1002,527	0,22
1002,946	0,22
1003,366	0,22
1003,785	0,23
1004,205	0,23
1004,624	0,23
1005,044	0,23
1005,463	0,23
1005,882	0,23
1006,301	0,24
1006,721	0,24
1007,14	0,24
1007,559	0,24
1007,978	0,24
1008,397	0,24
1008,816	0,24
1009,235	0,24
1009,655	0,24
1010,074	0,24
1010,492	0,24
1010,911	0,23
1011,33	0,23
1011,749	0,23
1012,168	0,23
1012,587	0,23
1013,006	0,23
1013,425	0,23
1013,843	0,23
1014,262	0,23
1014,681	0,23
1015,099	0,23
1015,518	0,23
1015,937	0,23
1016,355	0,23
1016,774	0,23
1017,192	0,23
1017,611	0,23
1018,029	0,23
1018,448	0,23
1018,866	0,23
1019,285	0,23
1019,703	0,23
1020,121	0,23
1020,54	0,23
1020,958	0,23
1021,376	0,23
1021,794	0,23
1022,213	0,23
1022,631	0,23
1023,049	0,23
1023,467	0,23
1023,885	0,23
1024,303	0,23
1024,721	0,23
1025,139	0,23
1025,557	0,23
1025,975	0,23
1026,393	0,23
1026,811	0,23
1027,229	0,23
1027,647	0,23
1028,065	0,23
1028,482	0,23
1028,9	0,22
1029,318	0,22
1029,735	0,22
1030,153	0,22
1030,571	0,22
1030,988	0,22
1031,406	0,22
1031,823	0,22
1032,241	0,22
1032,659	0,22
1033,076	0,22
1033,493	0,22
1033,911	0,22
1034,328	0,22
1034,746	0,22
1035,163	0,22
1035,58	0,22
1035,997	0,22
1036,415	0,22
1036,832	0,22
1037,249	0,22
1037,666	0,22
1038,083	0,22
1038,501	0,22
1038,918	0,22
1039,335	0,22
1039,752	0,22
1040,169	0,22
1040,586	0,22
1041,003	0,22
1041,419	0,22
1041,836	0,22
1042,253	0,22
1042,67	0,22
1043,087	0,21
1043,504	0,21
1043,92	0,21
1044,337	0,21
1044,754	0,21
1045,17	0,21
1045,587	0,21
1046,004	0,21
1046,42	0,21
1046,837	0,21
1047,253	0,21
1047,67	0,21
1048,086	0,21
1048,503	0,21
1048,919	0,21
1049,335	0,21
1049,752	0,21
1050,168	0,21
1050,584	0,21
1051,001	0,21
1051,417	0,21
1051,833	0,21
1052,249	0,21
1052,665	0,21
1053,081	0,21
1053,497	0,21
1053,914	0,21
1054,33	0,21
1054,746	0,21
1055,162	0,22
1055,578	0,22
1055,993	0,22
1056,409	0,22
1056,825	0,22
1057,241	0,22
1057,657	0,22
1058,073	0,22
1058,488	0,22
1058,904	0,22
1059,32	0,22
1059,736	0,22
1060,151	0,22
1060,567	0,22
1060,982	0,22
1061,398	0,22
1061,813	0,22
1062,229	0,22
1062,644	0,22
1063,06	0,22
1063,475	0,21
1063,891	0,21
1064,306	0,21
1064,721	0,21
1065,137	0,21
1065,552	0,21
1065,967	0,21
1066,382	0,21
1066,798	0,21
1067,213	0,21
1067,628	0,21
1068,043	0,21
1068,458	0,21
1068,873	0,21
1069,288	0,21
1069,703	0,21
1070,118	0,22
1070,533	0,22
1070,948	0,22
1071,363	0,22
1071,778	0,22
1072,193	0,22
1072,607	0,22
1073,022	0,22
1073,437	0,22
1073,852	0,22
1074,266	0,22
1074,681	0,22
1075,096	0,22
1075,51	0,22
1075,925	0,22
1076,339	0,22
1076,754	0,22
1077,168	0,22
1077,583	0,22
1077,997	0,22
1078,412	0,22
1078,826	0,22
1079,24	0,22
1079,655	0,22
1080,069	0,22
1080,483	0,21
1080,897	0,21
1081,312	0,21
1081,726	0,21
1082,14	0,21
1082,554	0,21
1082,968	0,21
1083,382	0,21
1083,796	0,21
1084,21	0,21
1084,624	0,21
1085,038	0,2
1085,452	0,2
1085,866	0,2
1086,28	0,2
1086,694	0,2
1087,108	0,2
1087,521	0,2
1087,935	0,2
1088,349	0,2
1088,763	0,2
1089,176	0,2
1089,59	0,19
1090,004	0,19
1090,417	0,19
1090,831	0,19
1091,244	0,19
1091,658	0,18
1092,071	0,18
1092,485	0,18
1092,898	0,18
1093,312	0,18
1093,725	0,18
1094,138	0,18
1094,552	0,18
1094,965	0,18
1095,378	0,18
1095,791	0,17
1096,205	0,17
1096,618	0,17
1097,031	0,17
1097,444	0,17
1097,857	0,17
1098,27	0,17
1098,683	0,17
1099,096	0,16
1099,509	0,16
1099,922	0,15
1100,335	0,15
1100,748	0,15
1101,161	0,14
1101,574	0,14
1101,986	0,14
1102,399	0,14
1102,812	0,13
1103,225	0,13
1103,637	0,13
1104,05	0,13
1104,463	0,13
1104,875	0,13
1105,288	0,12
1105,7	0,12
1106,113	0,12
1106,525	0,11
1106,938	0,11
1107,35	0,11
1107,763	0,11
1108,175	0,1
1108,588	0,1
1109	0,09
1109,412	0,09
1109,824	0,09
1110,237	0,09
1110,649	0,08
1111,061	0,09
