Data from 18C-808nm-8A_Absorbance__1172__01172.txt Node

Date: Mon Jul 17 17:05:13 CEST 2023
User: Laser008
Spectrometer: MAYP115816
Trigger mode: 0
Integration Time (sec): 2,500000E-1
Scans to average: 10
Electric dark correction enabled: true
Nonlinearity correction enabled: true
Boxcar width: 5
XAxis mode: Wavelengths
Number of Pixels in Spectrum: 2068
>>>>>Begin Spectral Data<<<<<
198,914	-0,68
199,384	-0,45
199,855	-0,34
200,325	-0,28
200,796	-0,26
201,266	-0,21
201,737	-0,19
202,207	-0,18
202,677	-0,17
203,147	-0,16
203,618	-0,12
204,088	-0,11
204,558	-0,11
205,028	-0,1
205,498	-0,1
205,968	-0,1
206,439	-0,11
206,909	-0,11
207,379	-0,11
207,849	-0,12
208,319	-0,13
208,789	-0,14
209,258	-0,13
209,728	-0,15
210,198	-0,15
210,668	-0,15
211,138	-0,14
211,608	-0,14
212,077	-0,14
212,547	-0,13
213,017	-0,14
213,486	-0,13
213,956	-0,14
214,426	-0,15
214,895	-0,14
215,365	-0,14
215,834	-0,15
216,304	-0,16
216,773	-0,16
217,243	-0,17
217,712	-0,18
218,181	-0,18
218,651	-0,18
219,12	-0,18
219,589	-0,18
220,058	-0,17
220,528	-0,18
220,997	-0,18
221,466	-0,2
221,935	-0,2
222,404	-0,2
222,873	-0,19
223,342	-0,19
223,812	-0,19
224,281	-0,19
224,749	-0,2
225,218	-0,21
225,687	-0,22
226,156	-0,21
226,625	-0,18
227,094	-0,18
227,563	-0,18
228,031	-0,2
228,5	-0,2
228,969	-0,21
229,438	-0,2
229,906	-0,18
230,375	-0,18
230,844	-0,18
231,312	-0,18
231,781	-0,19
232,249	-0,19
232,718	-0,19
233,186	-0,16
233,655	-0,17
234,123	-0,17
234,591	-0,17
235,06	-0,17
235,528	-0,17
235,996	-0,16
236,465	-0,16
236,933	-0,16
237,401	-0,17
237,869	-0,15
238,337	-0,17
238,805	-0,16
239,274	-0,15
239,742	-0,15
240,21	-0,14
240,678	-0,13
241,146	-0,13
241,614	-0,12
242,081	-0,12
242,549	-0,12
243,017	-0,13
243,485	-0,12
243,953	-0,12
244,421	-0,12
244,888	-0,11
245,356	-0,12
245,824	-0,11
246,291	-0,12
246,759	-0,13
247,227	-0,13
247,694	-0,12
248,162	-0,11
248,629	-0,1
249,097	-0,11
249,564	-0,11
250,032	-0,13
250,499	-0,13
250,967	-0,14
251,434	-0,14
251,901	-0,14
252,369	-0,14
252,836	-0,16
253,303	-0,17
253,77	-0,19
254,237	-0,18
254,705	-0,19
255,172	-0,17
255,639	-0,17
256,106	-0,18
256,573	-0,18
257,04	-0,19
257,507	-0,19
257,974	-0,19
258,441	-0,17
258,908	-0,18
259,375	-0,2
259,841	-0,19
260,308	-0,2
260,775	-0,21
261,242	-0,19
261,709	-0,2
262,175	-0,21
262,642	-0,21
263,109	-0,21
263,575	-0,22
264,042	-0,21
264,508	-0,2
264,975	-0,22
265,441	-0,23
265,908	-0,24
266,374	-0,24
266,841	-0,24
267,307	-0,23
267,773	-0,22
268,24	-0,22
268,706	-0,22
269,172	-0,23
269,639	-0,24
270,105	-0,22
270,571	-0,22
271,037	-0,22
271,503	-0,22
271,969	-0,22
272,435	-0,22
272,902	-0,24
273,368	-0,25
273,834	-0,24
274,3	-0,25
274,765	-0,24
275,231	-0,24
275,697	-0,23
276,163	-0,23
276,629	-0,22
277,095	-0,23
277,56	-0,23
278,026	-0,23
278,492	-0,21
278,958	-0,21
279,423	-0,21
279,889	-0,21
280,354	-0,21
280,82	-0,22
281,286	-0,23
281,751	-0,23
282,217	-0,22
282,682	-0,22
283,147	-0,23
283,613	-0,24
284,078	-0,24
284,544	-0,26
285,009	-0,26
285,474	-0,25
285,939	-0,26
286,405	-0,25
286,87	-0,24
287,335	-0,23
287,8	-0,23
288,265	-0,21
288,73	-0,22
289,195	-0,24
289,66	-0,24
290,125	-0,22
290,59	-0,22
291,055	-0,21
291,52	-0,21
291,985	-0,22
292,45	-0,23
292,915	-0,23
293,38	-0,24
293,844	-0,22
294,309	-0,21
294,774	-0,2
295,239	-0,21
295,703	-0,22
296,168	-0,21
296,632	-0,21
297,097	-0,2
297,562	-0,18
298,026	-0,19
298,491	-0,19
298,955	-0,19
299,419	-0,18
299,884	-0,18
300,348	-0,16
300,813	-0,16
301,277	-0,17
301,741	-0,17
302,205	-0,17
302,67	-0,17
303,134	-0,16
303,598	-0,16
304,062	-0,16
304,526	-0,16
304,99	-0,17
305,454	-0,17
305,919	-0,17
306,383	-0,17
306,847	-0,16
307,31	-0,17
307,774	-0,18
308,238	-0,19
308,702	-0,18
309,166	-0,19
309,63	-0,19
310,094	-0,16
310,557	-0,16
311,021	-0,16
311,485	-0,16
311,948	-0,15
312,412	-0,14
312,876	-0,14
313,339	-0,14
313,803	-0,14
314,266	-0,13
314,73	-0,13
315,193	-0,13
315,657	-0,12
316,12	-0,12
316,584	-0,11
317,047	-0,11
317,51	-0,1
317,973	-0,1
318,437	-0,08
318,9	-0,08
319,363	-0,07
319,826	-0,06
320,29	-0,07
320,753	-0,07
321,216	-0,07
321,679	-0,08
322,142	-0,07
322,605	-0,08
323,068	-0,08
323,531	-0,08
323,994	-0,08
324,457	-0,08
324,92	-0,08
325,382	-0,07
325,845	-0,07
326,308	-0,06
326,771	-0,05
327,233	-0,05
327,696	-0,05
328,159	-0,04
328,622	-0,03
329,084	-0,03
329,547	-0,03
330,009	-0,02
330,472	-0,02
330,934	-0,01
331,397	-0,01
331,859	-0,01
332,322	-0,01
332,784	-0,01
333,246	-0,01
333,709	-0
334,171	0
334,633	0
335,096	0
335,558	0,01
336,02	0,01
336,482	0
336,944	0,02
337,406	0,03
337,868	0,03
338,331	0,03
338,793	0,04
339,255	0,04
339,717	0,04
340,178	0,05
340,64	0,06
341,102	0,06
341,564	0,07
342,026	0,08
342,488	0,09
342,949	0,09
343,411	0,12
343,873	0,13
344,335	0,16
344,796	0,18
345,258	0,21
345,719	0,24
346,181	0,27
346,643	0,3
347,104	0,32
347,566	0,34
348,027	0,35
348,488	0,36
348,95	0,38
349,411	0,39
349,873	0,4
350,334	0,41
350,795	0,42
351,256	0,42
351,718	0,43
352,179	0,43
352,64	0,43
353,101	0,43
353,562	0,43
354,023	0,44
354,484	0,44
354,945	0,44
355,406	0,44
355,867	0,44
356,328	0,44
356,789	0,44
357,25	0,44
357,711	0,44
358,172	0,45
358,633	0,45
359,093	0,45
359,554	0,45
360,015	0,45
360,476	0,45
360,936	0,45
361,397	0,45
361,858	0,45
362,318	0,45
362,779	0,45
363,239	0,45
363,7	0,45
364,16	0,45
364,621	0,45
365,081	0,45
365,541	0,45
366,002	0,45
366,462	0,45
366,922	0,45
367,383	0,45
367,843	0,45
368,303	0,45
368,763	0,45
369,223	0,45
369,684	0,45
370,144	0,45
370,604	0,45
371,064	0,45
371,524	0,45
371,984	0,45
372,444	0,45
372,904	0,45
373,363	0,45
373,823	0,45
374,283	0,45
374,743	0,45
375,203	0,45
375,663	0,45
376,122	0,45
376,582	0,45
377,042	0,45
377,501	0,45
377,961	0,45
378,42	0,45
378,88	0,45
379,34	0,45
379,799	0,45
380,259	0,45
380,718	0,44
381,177	0,44
381,637	0,44
382,096	0,44
382,555	0,44
383,015	0,44
383,474	0,44
383,933	0,44
384,393	0,44
384,852	0,44
385,311	0,44
385,77	0,44
386,229	0,44
386,688	0,44
387,147	0,44
387,606	0,44
388,065	0,44
388,524	0,44
388,983	0,44
389,442	0,44
389,901	0,44
390,36	0,44
390,819	0,44
391,277	0,44
391,736	0,44
392,195	0,44
392,654	0,44
393,112	0,44
393,571	0,44
394,03	0,44
394,488	0,44
394,947	0,44
395,405	0,44
395,864	0,44
396,322	0,44
396,781	0,44
397,239	0,44
397,698	0,44
398,156	0,44
398,614	0,44
399,073	0,43
399,531	0,43
399,989	0,43
400,447	0,43
400,905	0,43
401,364	0,43
401,822	0,43
402,28	0,43
402,738	0,43
403,196	0,43
403,654	0,43
404,112	0,43
404,57	0,43
405,028	0,43
405,486	0,43
405,944	0,43
406,402	0,43
406,859	0,43
407,317	0,43
407,775	0,43
408,233	0,43
408,691	0,43
409,148	0,43
409,606	0,43
410,064	0,43
410,521	0,43
410,979	0,43
411,436	0,43
411,894	0,43
412,351	0,43
412,809	0,43
413,266	0,43
413,724	0,43
414,181	0,43
414,638	0,43
415,096	0,43
415,553	0,43
416,01	0,43
416,467	0,43
416,925	0,43
417,382	0,43
417,839	0,43
418,296	0,43
418,753	0,42
419,21	0,42
419,667	0,42
420,124	0,42
420,581	0,42
421,038	0,42
421,495	0,42
421,952	0,42
422,409	0,42
422,866	0,42
423,322	0,42
423,779	0,42
424,236	0,42
424,693	0,42
425,149	0,42
425,606	0,42
426,063	0,42
426,519	0,42
426,976	0,42
427,433	0,42
427,889	0,42
428,346	0,42
428,802	0,42
429,258	0,42
429,715	0,42
430,171	0,42
430,628	0,42
431,084	0,42
431,54	0,42
431,997	0,42
432,453	0,42
432,909	0,42
433,365	0,42
433,821	0,42
434,277	0,42
434,734	0,42
435,19	0,42
435,646	0,42
436,102	0,42
436,558	0,42
437,014	0,42
437,47	0,42
437,925	0,42
438,381	0,42
438,837	0,42
439,293	0,42
439,749	0,42
440,205	0,42
440,66	0,42
441,116	0,42
441,572	0,42
442,027	0,42
442,483	0,42
442,939	0,42
443,394	0,42
443,85	0,42
444,305	0,42
444,761	0,42
445,216	0,42
445,672	0,42
446,127	0,42
446,582	0,42
447,038	0,42
447,493	0,42
447,948	0,42
448,403	0,42
448,859	0,42
449,314	0,42
449,769	0,42
450,224	0,42
450,679	0,42
451,134	0,42
451,589	0,42
452,044	0,42
452,499	0,42
452,954	0,42
453,409	0,42
453,864	0,42
454,319	0,42
454,774	0,42
455,229	0,42
455,684	0,42
456,138	0,42
456,593	0,42
457,048	0,42
457,503	0,42
457,957	0,42
458,412	0,42
458,866	0,42
459,321	0,42
459,776	0,42
460,23	0,42
460,685	0,42
461,139	0,42
461,593	0,42
462,048	0,42
462,502	0,42
462,957	0,43
463,411	0,43
463,865	0,43
464,319	0,43
464,774	0,43
465,228	0,43
465,682	0,43
466,136	0,43
466,59	0,43
467,044	0,43
467,499	0,43
467,953	0,43
468,407	0,43
468,861	0,43
469,315	0,43
469,768	0,43
470,222	0,43
470,676	0,43
471,13	0,43
471,584	0,43
472,038	0,43
472,491	0,43
472,945	0,43
473,399	0,43
473,852	0,43
474,306	0,44
474,76	0,44
475,213	0,44
475,667	0,44
476,12	0,44
476,574	0,44
477,027	0,44
477,481	0,44
477,934	0,44
478,388	0,44
478,841	0,44
479,294	0,44
479,748	0,45
480,201	0,45
480,654	0,45
481,107	0,45
481,561	0,45
482,014	0,45
482,467	0,45
482,92	0,45
483,373	0,45
483,826	0,45
484,279	0,45
484,732	0,46
485,185	0,46
485,638	0,46
486,091	0,46
486,544	0,46
486,997	0,46
487,449	0,46
487,902	0,46
488,355	0,47
488,808	0,47
489,26	0,47
489,713	0,47
490,166	0,47
490,618	0,47
491,071	0,48
491,523	0,48
491,976	0,48
492,429	0,48
492,881	0,48
493,333	0,48
493,786	0,49
494,238	0,49
494,691	0,49
495,143	0,49
495,595	0,49
496,048	0,5
496,5	0,5
496,952	0,5
497,404	0,5
497,856	0,5
498,309	0,51
498,761	0,51
499,213	0,51
499,665	0,51
500,117	0,52
500,569	0,52
501,021	0,52
501,473	0,52
501,925	0,53
502,377	0,53
502,828	0,53
503,28	0,53
503,732	0,54
504,184	0,54
504,636	0,54
505,087	0,54
505,539	0,55
505,991	0,55
506,442	0,55
506,894	0,55
507,345	0,56
507,797	0,56
508,249	0,56
508,7	0,56
509,151	0,57
509,603	0,57
510,054	0,57
510,506	0,57
510,957	0,57
511,408	0,58
511,86	0,58
512,311	0,58
512,762	0,58
513,213	0,59
513,665	0,59
514,116	0,59
514,567	0,59
515,018	0,59
515,469	0,6
515,92	0,6
516,371	0,6
516,822	0,6
517,273	0,61
517,724	0,61
518,175	0,61
518,626	0,61
519,076	0,61
519,527	0,61
519,978	0,61
520,429	0,62
520,88	0,62
521,33	0,62
521,781	0,62
522,232	0,62
522,682	0,62
523,133	0,62
523,583	0,63
524,034	0,63
524,484	0,63
524,935	0,63
525,385	0,63
525,836	0,63
526,286	0,63
526,736	0,63
527,187	0,63
527,637	0,63
528,087	0,63
528,538	0,63
528,988	0,63
529,438	0,63
529,888	0,63
530,338	0,63
530,788	0,63
531,238	0,63
531,688	0,63
532,139	0,63
532,589	0,63
533,038	0,62
533,488	0,62
533,938	0,62
534,388	0,62
534,838	0,62
535,288	0,62
535,738	0,62
536,187	0,62
536,637	0,61
537,087	0,61
537,537	0,61
537,986	0,61
538,436	0,61
538,885	0,6
539,335	0,6
539,785	0,6
540,234	0,6
540,684	0,59
541,133	0,59
541,582	0,59
542,032	0,59
542,481	0,58
542,931	0,58
543,38	0,58
543,829	0,57
544,278	0,57
544,728	0,57
545,177	0,57
545,626	0,56
546,075	0,56
546,524	0,56
546,973	0,56
547,422	0,56
547,871	0,55
548,32	0,55
548,769	0,55
549,218	0,55
549,667	0,55
550,116	0,55
550,565	0,55
551,014	0,55
551,463	0,54
551,911	0,54
552,36	0,54
552,809	0,54
553,258	0,53
553,706	0,53
554,155	0,53
554,603	0,53
555,052	0,53
555,501	0,52
555,949	0,52
556,398	0,52
556,846	0,52
557,294	0,51
557,743	0,51
558,191	0,51
558,64	0,51
559,088	0,5
559,536	0,5
559,985	0,5
560,433	0,5
560,881	0,5
561,329	0,49
561,777	0,49
562,225	0,49
562,674	0,49
563,122	0,48
563,57	0,48
564,018	0,48
564,466	0,48
564,914	0,48
565,362	0,47
565,809	0,47
566,257	0,47
566,705	0,47
567,153	0,46
567,601	0,46
568,048	0,46
568,496	0,46
568,944	0,46
569,392	0,45
569,839	0,45
570,287	0,45
570,734	0,45
571,182	0,45
571,63	0,45
572,077	0,44
572,525	0,44
572,972	0,44
573,419	0,44
573,867	0,44
574,314	0,43
574,761	0,43
575,209	0,43
575,656	0,43
576,103	0,43
576,551	0,43
576,998	0,42
577,445	0,42
577,892	0,42
578,339	0,42
578,786	0,42
579,233	0,42
579,68	0,42
580,127	0,42
580,574	0,41
581,021	0,41
581,468	0,41
581,915	0,41
582,362	0,41
582,809	0,41
583,255	0,41
583,702	0,4
584,149	0,4
584,596	0,4
585,042	0,4
585,489	0,4
585,936	0,4
586,382	0,4
586,829	0,4
587,275	0,39
587,722	0,39
588,168	0,39
588,615	0,39
589,061	0,39
589,508	0,39
589,954	0,39
590,4	0,39
590,847	0,39
591,293	0,39
591,739	0,38
592,185	0,38
592,632	0,38
593,078	0,38
593,524	0,38
593,97	0,38
594,416	0,38
594,862	0,38
595,308	0,38
595,754	0,38
596,2	0,38
596,646	0,38
597,092	0,37
597,538	0,37
597,984	0,37
598,43	0,37
598,876	0,37
599,321	0,37
599,767	0,37
600,213	0,37
600,659	0,37
601,104	0,37
601,55	0,37
601,995	0,37
602,441	0,37
602,887	0,36
603,332	0,36
603,778	0,36
604,223	0,36
604,668	0,36
605,114	0,36
605,559	0,36
606,005	0,36
606,45	0,36
606,895	0,36
607,341	0,36
607,786	0,36
608,231	0,36
608,676	0,36
609,121	0,35
609,566	0,35
610,012	0,35
610,457	0,34
610,902	0,34
611,347	0,34
611,792	0,34
612,237	0,34
612,682	0,34
613,127	0,34
613,571	0,34
614,016	0,34
614,461	0,34
614,906	0,34
615,351	0,34
615,795	0,34
616,24	0,34
616,685	0,34
617,129	0,34
617,574	0,34
618,019	0,34
618,463	0,34
618,908	0,34
619,352	0,34
619,797	0,34
620,241	0,34
620,686	0,34
621,13	0,34
621,574	0,34
622,019	0,34
622,463	0,34
622,907	0,34
623,352	0,34
623,796	0,34
624,24	0,34
624,684	0,34
625,128	0,34
625,572	0,34
626,016	0,34
626,461	0,34
626,905	0,34
627,349	0,34
627,793	0,34
628,236	0,34
628,68	0,34
629,124	0,34
629,568	0,34
630,012	0,34
630,456	0,34
630,9	0,34
631,343	0,34
631,787	0,34
632,231	0,34
632,674	0,34
633,118	0,33
633,562	0,33
634,005	0,33
634,449	0,33
634,892	0,33
635,336	0,33
635,779	0,33
636,223	0,33
636,666	0,33
637,109	0,33
637,553	0,33
637,996	0,33
638,439	0,33
638,883	0,33
639,326	0,33
639,769	0,33
640,212	0,33
640,655	0,33
641,099	0,33
641,542	0,33
641,985	0,33
642,428	0,33
642,871	0,33
643,314	0,33
643,757	0,33
644,2	0,33
644,643	0,33
645,085	0,33
645,528	0,33
645,971	0,33
646,414	0,33
646,857	0,33
647,299	0,33
647,742	0,32
648,185	0,32
648,627	0,32
649,07	0,32
649,513	0,32
649,955	0,32
650,398	0,32
650,84	0,32
651,283	0,32
651,725	0,32
652,168	0,32
652,61	0,32
653,052	0,32
653,495	0,32
653,937	0,25
654,379	0,2
654,821	0,21
655,264	0,21
655,706	0,21
656,148	0,21
656,59	0,21
657,032	0,21
657,474	0,21
657,916	0,21
658,358	0,2
658,8	0,25
659,242	0,32
659,684	0,32
660,126	0,32
660,568	0,32
661,01	0,32
661,452	0,32
661,894	0,32
662,335	0,32
662,777	0,32
663,219	0,32
663,661	0,32
664,102	0,32
664,544	0,32
664,985	0,32
665,427	0,32
665,869	0,32
666,31	0,32
666,752	0,32
667,193	0,32
667,634	0,32
668,076	0,32
668,517	0,32
668,959	0,32
669,4	0,32
669,841	0,32
670,282	0,32
670,724	0,32
671,165	0,32
671,606	0,32
672,047	0,32
672,488	0,32
672,929	0,32
673,37	0,32
673,811	0,31
674,252	0,31
674,693	0,31
675,134	0,31
675,575	0,31
676,016	0,31
676,457	0,31
676,898	0,31
677,339	0,31
677,78	0,31
678,22	0,31
678,661	0,31
679,102	0,31
679,542	0,31
679,983	0,31
680,424	0,31
680,864	0,31
681,305	0,31
681,745	0,31
682,186	0,31
682,626	0,31
683,067	0,31
683,507	0,31
683,948	0,31
684,388	0,31
684,828	0,31
685,269	0,31
685,709	0,31
686,149	0,31
686,589	0,31
687,029	0,31
687,47	0,31
687,91	0,3
688,35	0,3
688,79	0,3
689,23	0,3
689,67	0,3
690,11	0,3
690,55	0,3
690,99	0,3
691,43	0,3
691,87	0,3
692,31	0,3
692,749	0,3
693,189	0,3
693,629	0,3
694,069	0,3
694,508	0,3
694,948	0,3
695,388	0,3
695,827	0,3
696,267	0,3
696,706	0,3
697,146	0,3
697,586	0,3
698,025	0,3
698,464	0,31
698,904	0,31
699,343	0,31
699,783	0,31
700,222	0,31
700,661	0,31
701,101	0,3
701,54	0,3
701,979	0,3
702,418	0,3
702,857	0,3
703,297	0,3
703,736	0,3
704,175	0,3
704,614	0,3
705,053	0,3
705,492	0,3
705,931	0,3
706,37	0,3
706,809	0,3
707,248	0,3
707,687	0,29
708,125	0,29
708,564	0,29
709,003	0,29
709,442	0,29
709,88	0,29
710,319	0,29
710,758	0,29
711,196	0,29
711,635	0,29
712,074	0,29
712,512	0,29
712,951	0,29
713,389	0,29
713,828	0,29
714,266	0,29
714,705	0,29
715,143	0,29
715,581	0,29
716,02	0,29
716,458	0,29
716,896	0,29
717,334	0,29
717,773	0,28
718,211	0,28
718,649	0,28
719,087	0,28
719,525	0,29
719,963	0,29
720,401	0,29
720,839	0,29
721,277	0,29
721,715	0,29
722,153	0,29
722,591	0,29
723,029	0,29
723,467	0,29
723,905	0,29
724,342	0,29
724,78	0,29
725,218	0,29
725,656	0,29
726,093	0,29
726,531	0,29
726,969	0,29
727,406	0,29
727,844	0,29
728,281	0,29
728,719	0,29
729,156	0,29
729,594	0,29
730,031	0,28
730,469	0,28
730,906	0,28
731,343	0,28
731,781	0,28
732,218	0,28
732,655	0,28
733,092	0,28
733,53	0,28
733,967	0,28
734,404	0,28
734,841	0,28
735,278	0,28
735,715	0,28
736,152	0,28
736,589	0,28
737,026	0,28
737,463	0,28
737,9	0,28
738,337	0,28
738,774	0,28
739,211	0,28
739,647	0,27
740,084	0,27
740,521	0,27
740,958	0,27
741,394	0,27
741,831	0,27
742,268	0,27
742,704	0,27
743,141	0,27
743,577	0,27
744,014	0,27
744,45	0,27
744,887	0,26
745,323	0,26
745,76	0,26
746,196	0,26
746,632	0,26
747,069	0,26
747,505	0,26
747,941	0,26
748,378	0,26
748,814	0,26
749,25	0,26
749,686	0,26
750,122	0,27
750,558	0,27
750,994	0,27
751,43	0,27
751,866	0,27
752,302	0,27
752,738	0,27
753,174	0,27
753,61	0,28
754,046	0,28
754,482	0,28
754,918	0,28
755,354	0,28
755,789	0,28
756,225	0,28
756,661	0,28
757,096	0,27
757,532	0,27
757,968	0,27
758,403	0,27
758,839	0,27
759,274	0,27
759,71	0,26
760,145	0,26
760,581	0,26
761,016	0,25
761,452	0,25
761,887	0,25
762,322	0,25
762,758	0,24
763,193	0,24
763,628	0,23
764,063	0,23
764,499	0,22
764,934	0,22
765,369	0,21
765,804	0,21
766,239	0,2
766,674	0,2
767,109	0,19
767,544	0,19
767,979	0,18
768,414	0,17
768,849	0,16
769,284	0,16
769,719	0,15
770,154	0,14
770,588	0,14
771,023	0,13
771,458	0,12
771,893	0,11
772,327	0,1
772,762	0,09
773,197	0,09
773,631	0,08
774,066	0,08
774,5	0,07
774,935	0,06
775,369	0,05
775,804	0,04
776,238	0,03
776,673	0,03
777,107	0,02
777,541	0,01
777,976	0
778,41	-0,01
778,844	-0,02
779,279	-0,02
779,713	-0,03
780,147	-0,04
780,581	-0,04
781,015	-0,05
781,449	-0,05
781,883	-0,05
782,317	-0,06
782,751	-0,07
783,185	-0,07
783,619	-0,08
784,053	-0,09
784,487	-0,09
784,921	-0,1
785,355	-0,1
785,789	-0,12
786,223	-0,13
786,656	-0,14
787,09	-0,15
787,524	-0,15
787,957	-0,17
788,391	-0,19
788,825	-0,21
789,258	-0,22
789,692	-0,24
790,125	-0,26
790,559	-0,27
790,992	-0,29
791,426	-0,31
791,859	-0,33
792,293	-0,36
792,726	-0,37
793,159	-0,39
793,593	-0,4
794,026	-0,42
794,459	-0,46
794,892	-0,48
795,326	-0,51
795,759	-0,55
796,192	-0,59
796,625	-0,64
797,058	-0,66
797,491	-0,71
797,924	-0,75
798,357	-0,8
798,79	-0,84
799,223	-0,88
799,656	-0,94
800,089	-0,98
800,522	-1,03
800,955	-1,07
801,387	-1,13
801,82	-1,18
802,253	-1,24
802,686	-1,32
803,118	-1,38
803,551	-1,43
803,984	-1,48
804,416	-1,52
804,849	-1,56
805,281	-1,7
805,714	-2,08
806,146	-2,49
806,579	-2,74
807,011	-2,89
807,444	-2,98
807,876	-3,06
808,308	-3,1
808,741	-3,12
809,173	-3,18
809,605	-3,2
810,037	-3,27
810,47	-3,18
810,902	-2,98
811,334	-2,83
811,766	-2,68
812,198	-2,43
812,63	-2,02
813,062	-1,81
813,494	-1,72
813,926	-1,63
814,358	-1,58
814,79	-1,49
815,222	-1,43
815,654	-1,38
816,086	-1,32
816,518	-1,26
816,949	-1,21
817,381	-1,17
817,813	-1,15
818,245	-1,11
818,676	-1,07
819,108	-1,04
819,54	-1,02
819,971	-1
820,403	-0,95
820,834	-0,94
821,266	-0,89
821,697	-0,87
822,129	-0,86
822,56	-0,83
822,991	-0,81
823,423	-0,78
823,854	-0,77
824,286	-0,74
824,717	-0,72
825,148	-0,7
825,579	-0,7
826,01	-0,68
826,442	-0,67
826,873	-0,65
827,304	-0,62
827,735	-0,61
828,166	-0,61
828,597	-0,61
829,028	-0,6
829,459	-0,61
829,89	-0,61
830,321	-0,56
830,752	-0,57
831,183	-0,56
831,613	-0,55
832,044	-0,55
832,475	-0,54
832,906	-0,55
833,336	-0,56
833,767	-0,57
834,198	-0,56
834,628	-0,54
835,059	-0,57
835,49	-0,58
835,92	-0,55
836,351	-0,55
836,781	-0,55
837,212	-0,56
837,642	-0,56
838,072	-0,53
838,503	-0,53
838,933	-0,5
839,364	-0,51
839,794	-0,48
840,224	-0,48
840,654	-0,52
841,085	-0,53
841,515	-0,51
841,945	-0,51
842,375	-0,46
842,805	-0,45
843,235	-0,44
843,665	-0,45
844,095	-0,44
844,525	-0,47
844,955	-0,47
845,385	-0,45
845,815	-0,43
846,245	-0,46
846,675	-0,46
847,105	-0,49
847,534	-0,49
847,964	-0,48
848,394	-0,47
848,824	-0,5
849,253	-0,48
849,683	-0,47
850,112	-0,49
850,542	-0,52
850,972	-0,52
851,401	-0,49
851,831	-0,48
852,26	-0,48
852,69	-0,51
853,119	-0,51
853,548	-0,51
853,978	-0,52
854,407	-0,51
854,836	-0,5
855,266	-0,49
855,695	-0,5
856,124	-0,52
856,553	-0,53
856,983	-0,55
857,412	-0,54
857,841	-0,55
858,27	-0,55
858,699	-0,56
859,128	-0,59
859,557	-0,6
859,986	-0,62
860,415	-0,59
860,844	-0,56
861,273	-0,56
861,702	-0,57
862,13	-0,55
862,559	-0,57
862,988	-0,54
863,417	-0,53
863,845	-0,52
864,274	-0,53
864,703	-0,53
865,131	-0,54
865,56	-0,55
865,989	-0,58
866,417	-0,55
866,846	-0,56
867,274	-0,55
867,703	-0,57
868,131	-0,58
868,559	-0,58
868,988	-0,6
869,416	-0,59
869,844	-0,6
870,273	-0,62
870,701	-0,6
871,129	-0,64
871,557	-0,67
871,986	-0,68
872,414	-0,69
872,842	-0,66
873,27	-0,64
873,698	-0,62
874,126	-0,65
874,554	-0,63
874,982	-0,63
875,41	-0,66
875,838	-0,6
876,266	-0,57
876,694	-0,57
877,122	-0,56
877,549	-0,61
877,977	-0,57
878,405	-0,6
878,833	-0,57
879,26	-0,56
879,688	-0,56
880,116	-0,54
880,543	-0,52
880,971	-0,52
881,399	-0,54
881,826	-0,53
882,254	-0,53
882,681	-0,56
883,109	-0,53
883,536	-0,54
883,963	-0,55
884,391	-0,53
884,818	-0,52
885,245	-0,56
885,673	-0,57
886,1	-0,55
886,527	-0,55
886,954	-0,52
887,381	-0,54
887,809	-0,55
888,236	-0,56
888,663	-0,57
889,09	-0,61
889,517	-0,63
889,944	-0,62
890,371	-0,62
890,798	-0,63
891,225	-0,63
891,652	-0,65
892,078	-0,62
892,505	-0,66
892,932	-0,61
893,359	-0,62
893,786	-0,62
894,212	-0,59
894,639	-0,61
895,066	-0,63
895,492	-0,56
895,919	-0,57
896,346	-0,57
896,772	-0,57
897,199	-0,52
897,625	-0,56
898,052	-0,51
898,478	-0,49
898,904	-0,51
899,331	-0,5
899,757	-0,52
900,183	-0,54
900,61	-0,52
901,036	-0,53
901,462	-0,53
901,888	-0,53
902,315	-0,51
902,741	-0,57
903,167	-0,55
903,593	-0,58
904,019	-0,56
904,445	-0,53
904,871	-0,56
905,297	-0,58
905,723	-0,57
906,149	-0,56
906,575	-0,57
907,001	-0,56
907,427	-0,53
907,852	-0,52
908,278	-0,53
908,704	-0,51
909,13	-0,5
909,555	-0,49
909,981	-0,48
910,407	-0,48
910,832	-0,48
911,258	-0,48
911,684	-0,49
912,109	-0,49
912,535	-0,52
912,96	-0,48
913,386	-0,52
913,811	-0,52
914,236	-0,53
914,662	-0,51
915,087	-0,55
915,512	-0,55
915,938	-0,56
916,363	-0,56
916,788	-0,58
917,213	-0,56
917,639	-0,6
918,064	-0,57
918,489	-0,57
918,914	-0,57
919,339	-0,58
919,764	-0,56
920,189	-0,57
920,614	-0,59
921,039	-0,59
921,464	-0,55
921,889	-0,58
922,314	-0,59
922,738	-0,63
923,163	-0,65
923,588	-0,66
924,013	-0,65
924,437	-0,64
924,862	-0,65
925,287	-0,6
925,711	-0,62
926,136	-0,63
926,561	-0,62
926,985	-0,6
927,41	-0,57
927,834	-0,55
928,259	-0,52
928,683	-0,5
929,108	-0,48
929,532	-0,49
929,956	-0,49
930,381	-0,48
930,805	-0,48
931,229	-0,48
931,653	-0,46
932,078	-0,46
932,502	-0,47
932,926	-0,48
933,35	-0,48
933,774	-0,48
934,198	-0,45
934,622	-0,44
935,046	-0,43
935,47	-0,44
935,894	-0,43
936,318	-0,43
936,742	-0,43
937,166	-0,43
937,59	-0,43
938,014	-0,46
938,437	-0,46
938,861	-0,48
939,285	-0,49
939,709	-0,49
940,132	-0,49
940,556	-0,49
940,98	-0,48
941,403	-0,47
941,827	-0,47
942,25	-0,49
942,674	-0,47
943,097	-0,47
943,521	-0,47
943,944	-0,48
944,368	-0,47
944,791	-0,47
945,214	-0,49
945,638	-0,5
946,061	-0,53
946,484	-0,54
946,907	-0,52
947,331	-0,51
947,754	-0,55
948,177	-0,52
948,6	-0,52
949,023	-0,52
949,446	-0,52
949,869	-0,49
950,292	-0,49
950,715	-0,46
951,138	-0,45
951,561	-0,43
951,984	-0,43
952,407	-0,42
952,83	-0,41
953,252	-0,38
953,675	-0,38
954,098	-0,38
954,521	-0,37
954,943	-0,36
955,366	-0,36
955,789	-0,34
956,211	-0,36
956,634	-0,36
957,056	-0,34
957,479	-0,34
957,902	-0,36
958,324	-0,36
958,746	-0,35
959,169	-0,37
959,591	-0,37
960,014	-0,39
960,436	-0,39
960,858	-0,39
961,281	-0,39
961,703	-0,4
962,125	-0,4
962,547	-0,38
962,969	-0,39
963,391	-0,4
963,814	-0,41
964,236	-0,4
964,658	-0,37
965,08	-0,38
965,502	-0,37
965,924	-0,34
966,346	-0,33
966,768	-0,32
967,189	-0,34
967,611	-0,33
968,033	-0,32
968,455	-0,3
968,877	-0,32
969,298	-0,32
969,72	-0,33
970,142	-0,32
970,563	-0,33
970,985	-0,32
971,407	-0,32
971,828	-0,29
972,25	-0,29
972,671	-0,27
973,093	-0,28
973,514	-0,26
973,936	-0,25
974,357	-0,24
974,778	-0,23
975,2	-0,23
975,621	-0,23
976,042	-0,21
976,464	-0,21
976,885	-0,2
977,306	-0,2
977,727	-0,19
978,148	-0,18
978,57	-0,17
978,991	-0,15
979,412	-0,15
979,833	-0,14
980,254	-0,14
980,675	-0,15
981,096	-0,14
981,517	-0,12
981,937	-0,11
982,358	-0,1
982,779	-0,08
983,2	-0,08
983,621	-0,08
984,042	-0,07
984,462	-0,06
984,883	-0,04
985,304	-0,03
985,724	-0,02
986,145	-0,02
986,565	0
986,986	0
987,407	0,01
987,827	0,03
988,248	0,04
988,668	0,05
989,088	0,06
989,509	0,07
989,929	0,08
990,35	0,09
990,77	0,1
991,19	0,1
991,61	0,11
992,031	0,11
992,451	0,12
992,871	0,12
993,291	0,12
993,711	0,13
994,131	0,14
994,551	0,14
994,971	0,14
995,391	0,15
995,811	0,15
996,231	0,15
996,651	0,16
997,071	0,17
997,491	0,17
997,911	0,18
998,331	0,18
998,75	0,19
999,17	0,19
999,59	0,19
1000,009	0,2
1000,429	0,2
1000,849	0,2
1001,268	0,21
1001,688	0,21
1002,107	0,21
1002,527	0,21
1002,946	0,22
1003,366	0,22
1003,785	0,22
1004,205	0,22
1004,624	0,22
1005,044	0,22
1005,463	0,23
1005,882	0,23
1006,301	0,23
1006,721	0,23
1007,14	0,23
1007,559	0,23
1007,978	0,23
1008,397	0,23
1008,816	0,23
1009,235	0,23
1009,655	0,23
1010,074	0,23
1010,492	0,23
1010,911	0,22
1011,33	0,22
1011,749	0,22
1012,168	0,22
1012,587	0,22
1013,006	0,22
1013,425	0,22
1013,843	0,22
1014,262	0,22
1014,681	0,22
1015,099	0,22
1015,518	0,22
1015,937	0,22
1016,355	0,22
1016,774	0,22
1017,192	0,22
1017,611	0,22
1018,029	0,22
1018,448	0,22
1018,866	0,22
1019,285	0,22
1019,703	0,22
1020,121	0,22
1020,54	0,22
1020,958	0,22
1021,376	0,22
1021,794	0,22
1022,213	0,22
1022,631	0,22
1023,049	0,22
1023,467	0,22
1023,885	0,22
1024,303	0,22
1024,721	0,22
1025,139	0,22
1025,557	0,22
1025,975	0,22
1026,393	0,22
1026,811	0,21
1027,229	0,21
1027,647	0,21
1028,065	0,21
1028,482	0,21
1028,9	0,21
1029,318	0,21
1029,735	0,21
1030,153	0,21
1030,571	0,21
1030,988	0,21
1031,406	0,21
1031,823	0,21
1032,241	0,21
1032,659	0,21
1033,076	0,21
1033,493	0,21
1033,911	0,21
1034,328	0,21
1034,746	0,21
1035,163	0,21
1035,58	0,21
1035,997	0,21
1036,415	0,21
1036,832	0,21
1037,249	0,21
1037,666	0,21
1038,083	0,21
1038,501	0,21
1038,918	0,21
1039,335	0,21
1039,752	0,21
1040,169	0,21
1040,586	0,21
1041,003	0,21
1041,419	0,21
1041,836	0,21
1042,253	0,21
1042,67	0,21
1043,087	0,21
1043,504	0,21
1043,92	0,2
1044,337	0,2
1044,754	0,2
1045,17	0,2
1045,587	0,2
1046,004	0,2
1046,42	0,2
1046,837	0,2
1047,253	0,2
1047,67	0,2
1048,086	0,2
1048,503	0,2
1048,919	0,2
1049,335	0,2
1049,752	0,2
1050,168	0,2
1050,584	0,2
1051,001	0,2
1051,417	0,2
1051,833	0,2
1052,249	0,2
1052,665	0,2
1053,081	0,2
1053,497	0,2
1053,914	0,2
1054,33	0,2
1054,746	0,2
1055,162	0,21
1055,578	0,21
1055,993	0,21
1056,409	0,21
1056,825	0,21
1057,241	0,21
1057,657	0,21
1058,073	0,21
1058,488	0,21
1058,904	0,21
1059,32	0,21
1059,736	0,21
1060,151	0,21
1060,567	0,21
1060,982	0,21
1061,398	0,21
1061,813	0,21
1062,229	0,21
1062,644	0,21
1063,06	0,21
1063,475	0,21
1063,891	0,2
1064,306	0,2
1064,721	0,2
1065,137	0,2
1065,552	0,2
1065,967	0,2
1066,382	0,2
1066,798	0,2
1067,213	0,2
1067,628	0,2
1068,043	0,2
1068,458	0,2
1068,873	0,2
1069,288	0,2
1069,703	0,2
1070,118	0,21
1070,533	0,21
1070,948	0,21
1071,363	0,21
1071,778	0,21
1072,193	0,21
1072,607	0,21
1073,022	0,21
1073,437	0,21
1073,852	0,21
1074,266	0,21
1074,681	0,21
1075,096	0,21
1075,51	0,21
1075,925	0,21
1076,339	0,21
1076,754	0,21
1077,168	0,21
1077,583	0,21
1077,997	0,21
1078,412	0,21
1078,826	0,21
1079,24	0,21
1079,655	0,21
1080,069	0,21
1080,483	0,2
1080,897	0,2
1081,312	0,2
1081,726	0,2
1082,14	0,2
1082,554	0,2
1082,968	0,2
1083,382	0,2
1083,796	0,2
1084,21	0,2
1084,624	0,2
1085,038	0,2
1085,452	0,2
1085,866	0,19
1086,28	0,19
1086,694	0,19
1087,108	0,19
1087,521	0,19
1087,935	0,19
1088,349	0,19
1088,763	0,19
1089,176	0,19
1089,59	0,18
1090,004	0,18
1090,417	0,18
1090,831	0,18
1091,244	0,18
1091,658	0,18
1092,071	0,18
1092,485	0,17
1092,898	0,17
1093,312	0,17
1093,725	0,17
1094,138	0,17
1094,552	0,17
1094,965	0,17
1095,378	0,17
1095,791	0,17
1096,205	0,17
1096,618	0,16
1097,031	0,16
1097,444	0,16
1097,857	0,16
1098,27	0,16
1098,683	0,16
1099,096	0,16
1099,509	0,15
1099,922	0,15
1100,335	0,15
1100,748	0,14
1101,161	0,14
1101,574	0,14
1101,986	0,13
1102,399	0,13
1102,812	0,13
1103,225	0,12
1103,637	0,12
1104,05	0,12
1104,463	0,12
1104,875	0,12
1105,288	0,12
1105,7	0,11
1106,113	0,11
1106,525	0,11
1106,938	0,11
1107,35	0,11
1107,763	0,1
1108,175	0,1
1108,588	0,1
1109	0,09
1109,412	0,09
1109,824	0,09
1110,237	0,1
1110,649	0,1
1111,061	0,09
