Data from 18C-808nm-8A_Absorbance__1296__01296.txt Node

Date: Mon Jul 17 17:10:23 CEST 2023
User: Laser008
Spectrometer: MAYP115816
Trigger mode: 0
Integration Time (sec): 2,500000E-1
Scans to average: 10
Electric dark correction enabled: true
Nonlinearity correction enabled: true
Boxcar width: 5
XAxis mode: Wavelengths
Number of Pixels in Spectrum: 2068
>>>>>Begin Spectral Data<<<<<
198,914	-0,59
199,384	-0,42
199,855	-0,31
200,325	-0,23
200,796	-0,22
201,266	-0,17
201,737	-0,18
202,207	-0,16
202,677	-0,16
203,147	-0,15
203,618	-0,12
204,088	-0,11
204,558	-0,1
205,028	-0,09
205,498	-0,1
205,968	-0,1
206,439	-0,12
206,909	-0,1
207,379	-0,11
207,849	-0,11
208,319	-0,11
208,789	-0,12
209,258	-0,12
209,728	-0,13
210,198	-0,13
210,668	-0,12
211,138	-0,11
211,608	-0,1
212,077	-0,1
212,547	-0,09
213,017	-0,1
213,486	-0,1
213,956	-0,1
214,426	-0,11
214,895	-0,11
215,365	-0,12
215,834	-0,13
216,304	-0,15
216,773	-0,15
217,243	-0,17
217,712	-0,18
218,181	-0,17
218,651	-0,17
219,12	-0,16
219,589	-0,16
220,058	-0,15
220,528	-0,16
220,997	-0,16
221,466	-0,16
221,935	-0,16
222,404	-0,16
222,873	-0,15
223,342	-0,15
223,812	-0,16
224,281	-0,16
224,749	-0,17
225,218	-0,18
225,687	-0,18
226,156	-0,17
226,625	-0,15
227,094	-0,16
227,563	-0,15
228,031	-0,17
228,5	-0,17
228,969	-0,17
229,438	-0,16
229,906	-0,15
230,375	-0,13
230,844	-0,14
231,312	-0,14
231,781	-0,16
232,249	-0,16
232,718	-0,16
233,186	-0,15
233,655	-0,15
234,123	-0,15
234,591	-0,15
235,06	-0,15
235,528	-0,16
235,996	-0,15
236,465	-0,15
236,933	-0,14
237,401	-0,13
237,869	-0,13
238,337	-0,13
238,805	-0,12
239,274	-0,11
239,742	-0,11
240,21	-0,11
240,678	-0,1
241,146	-0,1
241,614	-0,1
242,081	-0,09
242,549	-0,09
243,017	-0,09
243,485	-0,09
243,953	-0,1
244,421	-0,1
244,888	-0,11
245,356	-0,11
245,824	-0,11
246,291	-0,11
246,759	-0,12
247,227	-0,13
247,694	-0,12
248,162	-0,12
248,629	-0,1
249,097	-0,11
249,564	-0,11
250,032	-0,12
250,499	-0,12
250,967	-0,11
251,434	-0,11
251,901	-0,11
252,369	-0,11
252,836	-0,12
253,303	-0,13
253,77	-0,15
254,237	-0,15
254,705	-0,14
255,172	-0,14
255,639	-0,14
256,106	-0,15
256,573	-0,16
257,04	-0,17
257,507	-0,17
257,974	-0,17
258,441	-0,16
258,908	-0,16
259,375	-0,17
259,841	-0,17
260,308	-0,18
260,775	-0,18
261,242	-0,17
261,709	-0,17
262,175	-0,18
262,642	-0,17
263,109	-0,16
263,575	-0,18
264,042	-0,16
264,508	-0,16
264,975	-0,17
265,441	-0,18
265,908	-0,19
266,374	-0,18
266,841	-0,18
267,307	-0,18
267,773	-0,19
268,24	-0,19
268,706	-0,19
269,172	-0,2
269,639	-0,22
270,105	-0,2
270,571	-0,21
271,037	-0,2
271,503	-0,21
271,969	-0,2
272,435	-0,2
272,902	-0,21
273,368	-0,22
273,834	-0,21
274,3	-0,22
274,765	-0,22
275,231	-0,22
275,697	-0,21
276,163	-0,21
276,629	-0,21
277,095	-0,22
277,56	-0,22
278,026	-0,23
278,492	-0,21
278,958	-0,21
279,423	-0,21
279,889	-0,2
280,354	-0,21
280,82	-0,2
281,286	-0,22
281,751	-0,21
282,217	-0,2
282,682	-0,2
283,147	-0,2
283,613	-0,21
284,078	-0,21
284,544	-0,22
285,009	-0,23
285,474	-0,22
285,939	-0,24
286,405	-0,23
286,87	-0,23
287,335	-0,23
287,8	-0,22
288,265	-0,21
288,73	-0,22
289,195	-0,24
289,66	-0,24
290,125	-0,22
290,59	-0,23
291,055	-0,22
291,52	-0,22
291,985	-0,21
292,45	-0,23
292,915	-0,22
293,38	-0,22
293,844	-0,2
294,309	-0,18
294,774	-0,17
295,239	-0,19
295,703	-0,19
296,168	-0,18
296,632	-0,18
297,097	-0,17
297,562	-0,16
298,026	-0,16
298,491	-0,16
298,955	-0,16
299,419	-0,15
299,884	-0,15
300,348	-0,14
300,813	-0,14
301,277	-0,14
301,741	-0,14
302,205	-0,15
302,67	-0,13
303,134	-0,13
303,598	-0,14
304,062	-0,14
304,526	-0,13
304,99	-0,14
305,454	-0,14
305,919	-0,14
306,383	-0,14
306,847	-0,14
307,31	-0,14
307,774	-0,16
308,238	-0,15
308,702	-0,14
309,166	-0,16
309,63	-0,15
310,094	-0,14
310,557	-0,12
311,021	-0,12
311,485	-0,12
311,948	-0,11
312,412	-0,1
312,876	-0,1
313,339	-0,1
313,803	-0,11
314,266	-0,1
314,73	-0,11
315,193	-0,11
315,657	-0,1
316,12	-0,1
316,584	-0,09
317,047	-0,09
317,51	-0,08
317,973	-0,08
318,437	-0,07
318,9	-0,06
319,363	-0,05
319,826	-0,05
320,29	-0,05
320,753	-0,06
321,216	-0,05
321,679	-0,06
322,142	-0,05
322,605	-0,07
323,068	-0,07
323,531	-0,07
323,994	-0,06
324,457	-0,07
324,92	-0,05
325,382	-0,05
325,845	-0,04
326,308	-0,04
326,771	-0,04
327,233	-0,03
327,696	-0,02
328,159	-0,01
328,622	0
329,084	-0
329,547	0
330,009	0
330,472	0,01
330,934	0,01
331,397	0,01
331,859	0,02
332,322	0,02
332,784	0,03
333,246	0,03
333,709	0,03
334,171	0,04
334,633	0,04
335,096	0,04
335,558	0,04
336,02	0,04
336,482	0,04
336,944	0,05
337,406	0,05
337,868	0,05
338,331	0,05
338,793	0,06
339,255	0,06
339,717	0,06
340,178	0,07
340,64	0,09
341,102	0,09
341,564	0,1
342,026	0,11
342,488	0,12
342,949	0,14
343,411	0,16
343,873	0,18
344,335	0,2
344,796	0,23
345,258	0,27
345,719	0,29
346,181	0,33
346,643	0,35
347,104	0,37
347,566	0,4
348,027	0,41
348,488	0,42
348,95	0,44
349,411	0,45
349,873	0,46
350,334	0,47
350,795	0,48
351,256	0,49
351,718	0,49
352,179	0,5
352,64	0,5
353,101	0,5
353,562	0,5
354,023	0,5
354,484	0,51
354,945	0,51
355,406	0,51
355,867	0,51
356,328	0,51
356,789	0,51
357,25	0,51
357,711	0,51
358,172	0,52
358,633	0,52
359,093	0,52
359,554	0,52
360,015	0,52
360,476	0,52
360,936	0,52
361,397	0,52
361,858	0,52
362,318	0,52
362,779	0,52
363,239	0,52
363,7	0,52
364,16	0,52
364,621	0,52
365,081	0,52
365,541	0,52
366,002	0,52
366,462	0,52
366,922	0,52
367,383	0,52
367,843	0,52
368,303	0,52
368,763	0,52
369,223	0,52
369,684	0,52
370,144	0,52
370,604	0,52
371,064	0,52
371,524	0,52
371,984	0,52
372,444	0,52
372,904	0,52
373,363	0,52
373,823	0,52
374,283	0,52
374,743	0,52
375,203	0,52
375,663	0,52
376,122	0,52
376,582	0,52
377,042	0,52
377,501	0,52
377,961	0,52
378,42	0,52
378,88	0,52
379,34	0,52
379,799	0,52
380,259	0,52
380,718	0,52
381,177	0,51
381,637	0,51
382,096	0,51
382,555	0,51
383,015	0,51
383,474	0,51
383,933	0,51
384,393	0,51
384,852	0,51
385,311	0,51
385,77	0,51
386,229	0,51
386,688	0,51
387,147	0,51
387,606	0,51
388,065	0,51
388,524	0,51
388,983	0,51
389,442	0,51
389,901	0,51
390,36	0,51
390,819	0,51
391,277	0,51
391,736	0,51
392,195	0,51
392,654	0,51
393,112	0,51
393,571	0,51
394,03	0,51
394,488	0,51
394,947	0,51
395,405	0,51
395,864	0,51
396,322	0,51
396,781	0,51
397,239	0,51
397,698	0,51
398,156	0,5
398,614	0,5
399,073	0,5
399,531	0,5
399,989	0,5
400,447	0,5
400,905	0,5
401,364	0,5
401,822	0,5
402,28	0,5
402,738	0,5
403,196	0,5
403,654	0,5
404,112	0,5
404,57	0,5
405,028	0,5
405,486	0,5
405,944	0,5
406,402	0,5
406,859	0,5
407,317	0,5
407,775	0,5
408,233	0,5
408,691	0,5
409,148	0,5
409,606	0,5
410,064	0,5
410,521	0,5
410,979	0,5
411,436	0,5
411,894	0,5
412,351	0,5
412,809	0,5
413,266	0,5
413,724	0,5
414,181	0,5
414,638	0,5
415,096	0,5
415,553	0,49
416,01	0,49
416,467	0,49
416,925	0,49
417,382	0,49
417,839	0,49
418,296	0,49
418,753	0,49
419,21	0,49
419,667	0,49
420,124	0,49
420,581	0,49
421,038	0,49
421,495	0,49
421,952	0,49
422,409	0,49
422,866	0,49
423,322	0,49
423,779	0,49
424,236	0,49
424,693	0,49
425,149	0,49
425,606	0,49
426,063	0,49
426,519	0,49
426,976	0,49
427,433	0,49
427,889	0,49
428,346	0,49
428,802	0,49
429,258	0,49
429,715	0,49
430,171	0,49
430,628	0,49
431,084	0,49
431,54	0,49
431,997	0,49
432,453	0,49
432,909	0,49
433,365	0,49
433,821	0,49
434,277	0,49
434,734	0,49
435,19	0,49
435,646	0,49
436,102	0,49
436,558	0,49
437,014	0,49
437,47	0,49
437,925	0,49
438,381	0,49
438,837	0,49
439,293	0,49
439,749	0,49
440,205	0,49
440,66	0,49
441,116	0,49
441,572	0,49
442,027	0,49
442,483	0,49
442,939	0,49
443,394	0,49
443,85	0,49
444,305	0,49
444,761	0,49
445,216	0,49
445,672	0,49
446,127	0,49
446,582	0,49
447,038	0,49
447,493	0,49
447,948	0,49
448,403	0,49
448,859	0,49
449,314	0,49
449,769	0,49
450,224	0,49
450,679	0,49
451,134	0,49
451,589	0,49
452,044	0,49
452,499	0,49
452,954	0,49
453,409	0,49
453,864	0,49
454,319	0,49
454,774	0,49
455,229	0,49
455,684	0,49
456,138	0,49
456,593	0,49
457,048	0,49
457,503	0,49
457,957	0,49
458,412	0,49
458,866	0,49
459,321	0,49
459,776	0,49
460,23	0,49
460,685	0,49
461,139	0,49
461,593	0,5
462,048	0,5
462,502	0,5
462,957	0,5
463,411	0,5
463,865	0,5
464,319	0,5
464,774	0,5
465,228	0,5
465,682	0,5
466,136	0,5
466,59	0,5
467,044	0,5
467,499	0,5
467,953	0,5
468,407	0,5
468,861	0,5
469,315	0,5
469,768	0,5
470,222	0,5
470,676	0,5
471,13	0,51
471,584	0,51
472,038	0,51
472,491	0,51
472,945	0,51
473,399	0,51
473,852	0,51
474,306	0,51
474,76	0,51
475,213	0,51
475,667	0,51
476,12	0,51
476,574	0,51
477,027	0,51
477,481	0,51
477,934	0,52
478,388	0,52
478,841	0,52
479,294	0,52
479,748	0,52
480,201	0,52
480,654	0,52
481,107	0,52
481,561	0,53
482,014	0,53
482,467	0,53
482,92	0,53
483,373	0,53
483,826	0,53
484,279	0,53
484,732	0,53
485,185	0,53
485,638	0,54
486,091	0,54
486,544	0,54
486,997	0,54
487,449	0,54
487,902	0,54
488,355	0,54
488,808	0,55
489,26	0,55
489,713	0,55
490,166	0,55
490,618	0,55
491,071	0,56
491,523	0,56
491,976	0,56
492,429	0,56
492,881	0,56
493,333	0,57
493,786	0,57
494,238	0,57
494,691	0,57
495,143	0,57
495,595	0,58
496,048	0,58
496,5	0,58
496,952	0,58
497,404	0,59
497,856	0,59
498,309	0,59
498,761	0,59
499,213	0,6
499,665	0,6
500,117	0,6
500,569	0,6
501,021	0,61
501,473	0,61
501,925	0,61
502,377	0,62
502,828	0,62
503,28	0,62
503,732	0,62
504,184	0,63
504,636	0,63
505,087	0,63
505,539	0,64
505,991	0,64
506,442	0,64
506,894	0,64
507,345	0,65
507,797	0,65
508,249	0,65
508,7	0,66
509,151	0,66
509,603	0,66
510,054	0,66
510,506	0,67
510,957	0,67
511,408	0,67
511,86	0,67
512,311	0,68
512,762	0,68
513,213	0,68
513,665	0,68
514,116	0,69
514,567	0,69
515,018	0,69
515,469	0,69
515,92	0,7
516,371	0,7
516,822	0,7
517,273	0,7
517,724	0,71
518,175	0,71
518,626	0,71
519,076	0,71
519,527	0,71
519,978	0,71
520,429	0,72
520,88	0,72
521,33	0,72
521,781	0,72
522,232	0,72
522,682	0,72
523,133	0,72
523,583	0,72
524,034	0,73
524,484	0,73
524,935	0,73
525,385	0,73
525,836	0,73
526,286	0,73
526,736	0,73
527,187	0,73
527,637	0,73
528,087	0,73
528,538	0,73
528,988	0,73
529,438	0,73
529,888	0,73
530,338	0,73
530,788	0,73
531,238	0,73
531,688	0,73
532,139	0,72
532,589	0,72
533,038	0,72
533,488	0,72
533,938	0,72
534,388	0,72
534,838	0,72
535,288	0,72
535,738	0,71
536,187	0,71
536,637	0,71
537,087	0,71
537,537	0,71
537,986	0,7
538,436	0,7
538,885	0,7
539,335	0,69
539,785	0,69
540,234	0,69
540,684	0,68
541,133	0,68
541,582	0,68
542,032	0,68
542,481	0,67
542,931	0,67
543,38	0,67
543,829	0,66
544,278	0,66
544,728	0,66
545,177	0,65
545,626	0,65
546,075	0,65
546,524	0,65
546,973	0,64
547,422	0,64
547,871	0,64
548,32	0,64
548,769	0,64
549,218	0,63
549,667	0,63
550,116	0,63
550,565	0,63
551,014	0,63
551,463	0,62
551,911	0,62
552,36	0,62
552,809	0,61
553,258	0,61
553,706	0,61
554,155	0,61
554,603	0,6
555,052	0,6
555,501	0,6
555,949	0,6
556,398	0,59
556,846	0,59
557,294	0,59
557,743	0,59
558,191	0,58
558,64	0,58
559,088	0,58
559,536	0,57
559,985	0,57
560,433	0,57
560,881	0,56
561,329	0,56
561,777	0,56
562,225	0,56
562,674	0,55
563,122	0,55
563,57	0,55
564,018	0,55
564,466	0,54
564,914	0,54
565,362	0,54
565,809	0,54
566,257	0,53
566,705	0,53
567,153	0,53
567,601	0,53
568,048	0,52
568,496	0,52
568,944	0,52
569,392	0,52
569,839	0,51
570,287	0,51
570,734	0,51
571,182	0,51
571,63	0,5
572,077	0,5
572,525	0,5
572,972	0,5
573,419	0,49
573,867	0,49
574,314	0,49
574,761	0,49
575,209	0,48
575,656	0,48
576,103	0,48
576,551	0,48
576,998	0,48
577,445	0,48
577,892	0,48
578,339	0,47
578,786	0,47
579,233	0,47
579,68	0,47
580,127	0,47
580,574	0,47
581,021	0,46
581,468	0,46
581,915	0,46
582,362	0,46
582,809	0,46
583,255	0,46
583,702	0,45
584,149	0,45
584,596	0,45
585,042	0,45
585,489	0,45
585,936	0,45
586,382	0,45
586,829	0,44
587,275	0,44
587,722	0,44
588,168	0,44
588,615	0,44
589,061	0,44
589,508	0,44
589,954	0,44
590,4	0,44
590,847	0,43
591,293	0,43
591,739	0,43
592,185	0,43
592,632	0,43
593,078	0,43
593,524	0,43
593,97	0,43
594,416	0,43
594,862	0,42
595,308	0,42
595,754	0,42
596,2	0,42
596,646	0,42
597,092	0,42
597,538	0,42
597,984	0,42
598,43	0,42
598,876	0,42
599,321	0,42
599,767	0,41
600,213	0,41
600,659	0,41
601,104	0,41
601,55	0,41
601,995	0,41
602,441	0,41
602,887	0,41
603,332	0,41
603,778	0,41
604,223	0,4
604,668	0,4
605,114	0,4
605,559	0,4
606,005	0,4
606,45	0,4
606,895	0,4
607,341	0,4
607,786	0,4
608,231	0,4
608,676	0,4
609,121	0,39
609,566	0,39
610,012	0,39
610,457	0,38
610,902	0,38
611,347	0,38
611,792	0,38
612,237	0,38
612,682	0,37
613,127	0,37
613,571	0,37
614,016	0,38
614,461	0,38
614,906	0,38
615,351	0,38
615,795	0,38
616,24	0,38
616,685	0,38
617,129	0,38
617,574	0,38
618,019	0,38
618,463	0,38
618,908	0,38
619,352	0,38
619,797	0,38
620,241	0,38
620,686	0,38
621,13	0,38
621,574	0,38
622,019	0,38
622,463	0,38
622,907	0,38
623,352	0,38
623,796	0,38
624,24	0,38
624,684	0,38
625,128	0,38
625,572	0,38
626,016	0,38
626,461	0,38
626,905	0,38
627,349	0,38
627,793	0,38
628,236	0,37
628,68	0,37
629,124	0,37
629,568	0,37
630,012	0,37
630,456	0,37
630,9	0,37
631,343	0,37
631,787	0,37
632,231	0,37
632,674	0,37
633,118	0,37
633,562	0,37
634,005	0,37
634,449	0,37
634,892	0,37
635,336	0,37
635,779	0,37
636,223	0,37
636,666	0,37
637,109	0,37
637,553	0,37
637,996	0,37
638,439	0,37
638,883	0,37
639,326	0,37
639,769	0,37
640,212	0,36
640,655	0,36
641,099	0,36
641,542	0,36
641,985	0,36
642,428	0,36
642,871	0,36
643,314	0,36
643,757	0,36
644,2	0,36
644,643	0,36
645,085	0,36
645,528	0,36
645,971	0,36
646,414	0,36
646,857	0,36
647,299	0,36
647,742	0,36
648,185	0,36
648,627	0,36
649,07	0,36
649,513	0,36
649,955	0,36
650,398	0,36
650,84	0,36
651,283	0,36
651,725	0,36
652,168	0,36
652,61	0,36
653,052	0,36
653,495	0,35
653,937	0,28
654,379	0,22
654,821	0,23
655,264	0,23
655,706	0,23
656,148	0,23
656,59	0,23
657,032	0,23
657,474	0,23
657,916	0,23
658,358	0,22
658,8	0,28
659,242	0,35
659,684	0,35
660,126	0,35
660,568	0,35
661,01	0,35
661,452	0,35
661,894	0,35
662,335	0,35
662,777	0,35
663,219	0,35
663,661	0,35
664,102	0,35
664,544	0,35
664,985	0,35
665,427	0,35
665,869	0,35
666,31	0,35
666,752	0,35
667,193	0,35
667,634	0,35
668,076	0,35
668,517	0,35
668,959	0,35
669,4	0,35
669,841	0,35
670,282	0,35
670,724	0,35
671,165	0,35
671,606	0,35
672,047	0,35
672,488	0,35
672,929	0,35
673,37	0,35
673,811	0,35
674,252	0,35
674,693	0,35
675,134	0,35
675,575	0,35
676,016	0,35
676,457	0,35
676,898	0,35
677,339	0,35
677,78	0,34
678,22	0,34
678,661	0,34
679,102	0,34
679,542	0,34
679,983	0,35
680,424	0,35
680,864	0,35
681,305	0,34
681,745	0,34
682,186	0,35
682,626	0,35
683,067	0,34
683,507	0,34
683,948	0,34
684,388	0,34
684,828	0,34
685,269	0,34
685,709	0,34
686,149	0,34
686,589	0,34
687,029	0,34
687,47	0,34
687,91	0,34
688,35	0,34
688,79	0,34
689,23	0,33
689,67	0,33
690,11	0,33
690,55	0,33
690,99	0,33
691,43	0,33
691,87	0,33
692,31	0,33
692,749	0,33
693,189	0,33
693,629	0,33
694,069	0,33
694,508	0,33
694,948	0,33
695,388	0,33
695,827	0,33
696,267	0,33
696,706	0,33
697,146	0,33
697,586	0,34
698,025	0,34
698,464	0,34
698,904	0,34
699,343	0,34
699,783	0,34
700,222	0,34
700,661	0,34
701,101	0,34
701,54	0,34
701,979	0,34
702,418	0,34
702,857	0,34
703,297	0,33
703,736	0,33
704,175	0,33
704,614	0,33
705,053	0,33
705,492	0,33
705,931	0,33
706,37	0,33
706,809	0,33
707,248	0,33
707,687	0,33
708,125	0,33
708,564	0,33
709,003	0,33
709,442	0,33
709,88	0,33
710,319	0,33
710,758	0,33
711,196	0,32
711,635	0,32
712,074	0,32
712,512	0,32
712,951	0,32
713,389	0,32
713,828	0,32
714,266	0,32
714,705	0,32
715,143	0,32
715,581	0,32
716,02	0,32
716,458	0,32
716,896	0,32
717,334	0,32
717,773	0,32
718,211	0,32
718,649	0,32
719,087	0,32
719,525	0,32
719,963	0,32
720,401	0,32
720,839	0,32
721,277	0,32
721,715	0,32
722,153	0,32
722,591	0,32
723,029	0,32
723,467	0,32
723,905	0,32
724,342	0,32
724,78	0,32
725,218	0,32
725,656	0,32
726,093	0,32
726,531	0,32
726,969	0,32
727,406	0,32
727,844	0,32
728,281	0,32
728,719	0,32
729,156	0,32
729,594	0,32
730,031	0,32
730,469	0,32
730,906	0,32
731,343	0,32
731,781	0,31
732,218	0,31
732,655	0,31
733,092	0,31
733,53	0,31
733,967	0,31
734,404	0,31
734,841	0,31
735,278	0,31
735,715	0,31
736,152	0,31
736,589	0,31
737,026	0,31
737,463	0,31
737,9	0,31
738,337	0,31
738,774	0,31
739,211	0,31
739,647	0,31
740,084	0,31
740,521	0,31
740,958	0,31
741,394	0,31
741,831	0,3
742,268	0,3
742,704	0,3
743,141	0,3
743,577	0,3
744,014	0,3
744,45	0,3
744,887	0,3
745,323	0,29
745,76	0,29
746,196	0,29
746,632	0,29
747,069	0,29
747,505	0,29
747,941	0,29
748,378	0,29
748,814	0,29
749,25	0,3
749,686	0,3
750,122	0,3
750,558	0,3
750,994	0,3
751,43	0,3
751,866	0,3
752,302	0,31
752,738	0,31
753,174	0,31
753,61	0,31
754,046	0,31
754,482	0,31
754,918	0,31
755,354	0,31
755,789	0,31
756,225	0,31
756,661	0,31
757,096	0,31
757,532	0,3
757,968	0,3
758,403	0,3
758,839	0,3
759,274	0,3
759,71	0,29
760,145	0,29
760,581	0,29
761,016	0,28
761,452	0,28
761,887	0,28
762,322	0,27
762,758	0,27
763,193	0,27
763,628	0,26
764,063	0,26
764,499	0,25
764,934	0,25
765,369	0,24
765,804	0,24
766,239	0,24
766,674	0,23
767,109	0,22
767,544	0,22
767,979	0,21
768,414	0,2
768,849	0,2
769,284	0,19
769,719	0,18
770,154	0,18
770,588	0,17
771,023	0,16
771,458	0,14
771,893	0,14
772,327	0,13
772,762	0,12
773,197	0,11
773,631	0,1
774,066	0,1
774,5	0,09
774,935	0,08
775,369	0,07
775,804	0,06
776,238	0,06
776,673	0,05
777,107	0,04
777,541	0,03
777,976	0,03
778,41	0,02
778,844	0,01
779,279	0,01
779,713	0
780,147	-0,01
780,581	-0,01
781,015	-0,02
781,449	-0,03
781,883	-0,04
782,317	-0,05
782,751	-0,06
783,185	-0,06
783,619	-0,07
784,053	-0,08
784,487	-0,09
784,921	-0,09
785,355	-0,1
785,789	-0,11
786,223	-0,12
786,656	-0,13
787,09	-0,14
787,524	-0,14
787,957	-0,16
788,391	-0,17
788,825	-0,19
789,258	-0,2
789,692	-0,22
790,125	-0,23
790,559	-0,25
790,992	-0,26
791,426	-0,28
791,859	-0,29
792,293	-0,33
792,726	-0,34
793,159	-0,36
793,593	-0,38
794,026	-0,4
794,459	-0,43
794,892	-0,45
795,326	-0,48
795,759	-0,52
796,192	-0,56
796,625	-0,61
797,058	-0,63
797,491	-0,68
797,924	-0,72
798,357	-0,77
798,79	-0,81
799,223	-0,86
799,656	-0,91
800,089	-0,96
800,522	-1
800,955	-1,04
801,387	-1,1
801,82	-1,16
802,253	-1,22
802,686	-1,3
803,118	-1,35
803,551	-1,4
803,984	-1,45
804,416	-1,48
804,849	-1,52
805,281	-1,65
805,714	-1,99
806,146	-2,43
806,579	-2,7
807,011	-2,86
807,444	-2,96
807,876	-3,05
808,308	-3,09
808,741	-3,12
809,173	-3,17
809,605	-3,19
810,037	-3,27
810,47	-3,19
810,902	-3
811,334	-2,86
811,766	-2,71
812,198	-2,49
812,63	-2,06
813,062	-1,82
813,494	-1,71
813,926	-1,62
814,358	-1,57
814,79	-1,49
815,222	-1,43
815,654	-1,38
816,086	-1,32
816,518	-1,26
816,949	-1,21
817,381	-1,16
817,813	-1,15
818,245	-1,1
818,676	-1,06
819,108	-1,03
819,54	-1,01
819,971	-0,99
820,403	-0,94
820,834	-0,92
821,266	-0,88
821,697	-0,85
822,129	-0,83
822,56	-0,8
822,991	-0,78
823,423	-0,75
823,854	-0,74
824,286	-0,71
824,717	-0,7
825,148	-0,68
825,579	-0,67
826,01	-0,66
826,442	-0,65
826,873	-0,63
827,304	-0,61
827,735	-0,6
828,166	-0,6
828,597	-0,6
829,028	-0,6
829,459	-0,6
829,89	-0,61
830,321	-0,56
830,752	-0,57
831,183	-0,56
831,613	-0,55
832,044	-0,54
832,475	-0,54
832,906	-0,54
833,336	-0,54
833,767	-0,54
834,198	-0,53
834,628	-0,51
835,059	-0,54
835,49	-0,55
835,92	-0,52
836,351	-0,52
836,781	-0,52
837,212	-0,54
837,642	-0,54
838,072	-0,53
838,503	-0,54
838,933	-0,51
839,364	-0,51
839,794	-0,49
840,224	-0,48
840,654	-0,52
841,085	-0,53
841,515	-0,51
841,945	-0,51
842,375	-0,47
842,805	-0,45
843,235	-0,42
843,665	-0,44
844,095	-0,43
844,525	-0,46
844,955	-0,46
845,385	-0,44
845,815	-0,42
846,245	-0,44
846,675	-0,44
847,105	-0,46
847,534	-0,47
847,964	-0,46
848,394	-0,45
848,824	-0,48
849,253	-0,47
849,683	-0,47
850,112	-0,48
850,542	-0,51
850,972	-0,51
851,401	-0,49
851,831	-0,47
852,26	-0,48
852,69	-0,51
853,119	-0,51
853,548	-0,51
853,978	-0,52
854,407	-0,5
854,836	-0,5
855,266	-0,49
855,695	-0,5
856,124	-0,52
856,553	-0,53
856,983	-0,54
857,412	-0,54
857,841	-0,55
858,27	-0,56
858,699	-0,55
859,128	-0,57
859,557	-0,58
859,986	-0,59
860,415	-0,57
860,844	-0,55
861,273	-0,55
861,702	-0,56
862,13	-0,53
862,559	-0,55
862,988	-0,53
863,417	-0,52
863,845	-0,52
864,274	-0,53
864,703	-0,54
865,131	-0,55
865,56	-0,55
865,989	-0,57
866,417	-0,54
866,846	-0,55
867,274	-0,54
867,703	-0,56
868,131	-0,57
868,559	-0,58
868,988	-0,59
869,416	-0,58
869,844	-0,58
870,273	-0,61
870,701	-0,59
871,129	-0,63
871,557	-0,66
871,986	-0,66
872,414	-0,66
872,842	-0,63
873,27	-0,61
873,698	-0,59
874,126	-0,62
874,554	-0,61
874,982	-0,61
875,41	-0,64
875,838	-0,58
876,266	-0,55
876,694	-0,55
877,122	-0,55
877,549	-0,61
877,977	-0,59
878,405	-0,6
878,833	-0,57
879,26	-0,55
879,688	-0,55
880,116	-0,53
880,543	-0,52
880,971	-0,52
881,399	-0,55
881,826	-0,55
882,254	-0,53
882,681	-0,56
883,109	-0,53
883,536	-0,54
883,963	-0,56
884,391	-0,54
884,818	-0,52
885,245	-0,56
885,673	-0,57
886,1	-0,54
886,527	-0,54
886,954	-0,51
887,381	-0,53
887,809	-0,54
888,236	-0,55
888,663	-0,56
889,09	-0,6
889,517	-0,63
889,944	-0,62
890,371	-0,61
890,798	-0,62
891,225	-0,61
891,652	-0,63
892,078	-0,6
892,505	-0,63
892,932	-0,58
893,359	-0,58
893,786	-0,58
894,212	-0,54
894,639	-0,54
895,066	-0,56
895,492	-0,52
895,919	-0,51
896,346	-0,51
896,772	-0,52
897,199	-0,49
897,625	-0,52
898,052	-0,48
898,478	-0,47
898,904	-0,49
899,331	-0,49
899,757	-0,51
900,183	-0,53
900,61	-0,52
901,036	-0,53
901,462	-0,52
901,888	-0,52
902,315	-0,51
902,741	-0,57
903,167	-0,56
903,593	-0,59
904,019	-0,57
904,445	-0,54
904,871	-0,58
905,297	-0,59
905,723	-0,58
906,149	-0,58
906,575	-0,58
907,001	-0,58
907,427	-0,54
907,852	-0,53
908,278	-0,53
908,704	-0,51
909,13	-0,51
909,555	-0,5
909,981	-0,49
910,407	-0,49
910,832	-0,49
911,258	-0,49
911,684	-0,49
912,109	-0,5
912,535	-0,52
912,96	-0,47
913,386	-0,51
913,811	-0,51
914,236	-0,52
914,662	-0,51
915,087	-0,54
915,512	-0,54
915,938	-0,56
916,363	-0,56
916,788	-0,57
917,213	-0,55
917,639	-0,59
918,064	-0,57
918,489	-0,57
918,914	-0,57
919,339	-0,58
919,764	-0,55
920,189	-0,55
920,614	-0,57
921,039	-0,58
921,464	-0,53
921,889	-0,57
922,314	-0,59
922,738	-0,62
923,163	-0,63
923,588	-0,63
924,013	-0,63
924,437	-0,62
924,862	-0,63
925,287	-0,59
925,711	-0,6
926,136	-0,61
926,561	-0,59
926,985	-0,58
927,41	-0,55
927,834	-0,54
928,259	-0,5
928,683	-0,48
929,108	-0,46
929,532	-0,47
929,956	-0,47
930,381	-0,46
930,805	-0,46
931,229	-0,46
931,653	-0,44
932,078	-0,43
932,502	-0,45
932,926	-0,46
933,35	-0,46
933,774	-0,45
934,198	-0,43
934,622	-0,42
935,046	-0,43
935,47	-0,44
935,894	-0,43
936,318	-0,43
936,742	-0,43
937,166	-0,44
937,59	-0,43
938,014	-0,45
938,437	-0,46
938,861	-0,48
939,285	-0,48
939,709	-0,47
940,132	-0,47
940,556	-0,49
940,98	-0,48
941,403	-0,46
941,827	-0,46
942,25	-0,48
942,674	-0,47
943,097	-0,46
943,521	-0,46
943,944	-0,48
944,368	-0,47
944,791	-0,45
945,214	-0,46
945,638	-0,47
946,061	-0,5
946,484	-0,51
946,907	-0,49
947,331	-0,49
947,754	-0,53
948,177	-0,49
948,6	-0,5
949,023	-0,5
949,446	-0,51
949,869	-0,48
950,292	-0,48
950,715	-0,45
951,138	-0,44
951,561	-0,42
951,984	-0,42
952,407	-0,41
952,83	-0,4
953,252	-0,36
953,675	-0,36
954,098	-0,37
954,521	-0,36
954,943	-0,35
955,366	-0,36
955,789	-0,34
956,211	-0,36
956,634	-0,36
957,056	-0,33
957,479	-0,34
957,902	-0,36
958,324	-0,36
958,746	-0,34
959,169	-0,36
959,591	-0,37
960,014	-0,38
960,436	-0,37
960,858	-0,37
961,281	-0,37
961,703	-0,38
962,125	-0,38
962,547	-0,36
962,969	-0,37
963,391	-0,37
963,814	-0,37
964,236	-0,36
964,658	-0,33
965,08	-0,35
965,502	-0,34
965,924	-0,32
966,346	-0,31
966,768	-0,31
967,189	-0,33
967,611	-0,32
968,033	-0,32
968,455	-0,31
968,877	-0,31
969,298	-0,33
969,72	-0,33
970,142	-0,33
970,563	-0,34
970,985	-0,33
971,407	-0,32
971,828	-0,3
972,25	-0,29
972,671	-0,28
973,093	-0,27
973,514	-0,26
973,936	-0,24
974,357	-0,23
974,778	-0,23
975,2	-0,21
975,621	-0,21
976,042	-0,19
976,464	-0,19
976,885	-0,18
977,306	-0,17
977,727	-0,17
978,148	-0,15
978,57	-0,14
978,991	-0,13
979,412	-0,12
979,833	-0,11
980,254	-0,1
980,675	-0,11
981,096	-0,1
981,517	-0,09
981,937	-0,08
982,358	-0,06
982,779	-0,05
983,2	-0,05
983,621	-0,05
984,042	-0,04
984,462	-0,03
984,883	-0,02
985,304	-0
985,724	0
986,145	0,01
986,565	0,02
986,986	0,03
987,407	0,04
987,827	0,05
988,248	0,06
988,668	0,07
989,088	0,08
989,509	0,09
989,929	0,1
990,35	0,11
990,77	0,12
991,19	0,13
991,61	0,14
992,031	0,15
992,451	0,16
992,871	0,17
993,291	0,17
993,711	0,18
994,131	0,18
994,551	0,19
994,971	0,19
995,391	0,19
995,811	0,2
996,231	0,2
996,651	0,2
997,071	0,21
997,491	0,21
997,911	0,21
998,331	0,22
998,75	0,23
999,17	0,23
999,59	0,23
1000,009	0,24
1000,429	0,24
1000,849	0,24
1001,268	0,25
1001,688	0,25
1002,107	0,25
1002,527	0,25
1002,946	0,26
1003,366	0,26
1003,785	0,26
1004,205	0,26
1004,624	0,26
1005,044	0,26
1005,463	0,27
1005,882	0,27
1006,301	0,27
1006,721	0,27
1007,14	0,27
1007,559	0,27
1007,978	0,27
1008,397	0,27
1008,816	0,27
1009,235	0,27
1009,655	0,27
1010,074	0,27
1010,492	0,27
1010,911	0,26
1011,33	0,26
1011,749	0,26
1012,168	0,26
1012,587	0,26
1013,006	0,26
1013,425	0,26
1013,843	0,26
1014,262	0,26
1014,681	0,26
1015,099	0,26
1015,518	0,26
1015,937	0,26
1016,355	0,26
1016,774	0,26
1017,192	0,26
1017,611	0,26
1018,029	0,26
1018,448	0,26
1018,866	0,26
1019,285	0,26
1019,703	0,26
1020,121	0,26
1020,54	0,26
1020,958	0,26
1021,376	0,26
1021,794	0,26
1022,213	0,26
1022,631	0,26
1023,049	0,26
1023,467	0,26
1023,885	0,26
1024,303	0,26
1024,721	0,26
1025,139	0,26
1025,557	0,26
1025,975	0,26
1026,393	0,26
1026,811	0,26
1027,229	0,26
1027,647	0,26
1028,065	0,25
1028,482	0,25
1028,9	0,25
1029,318	0,25
1029,735	0,25
1030,153	0,25
1030,571	0,25
1030,988	0,25
1031,406	0,25
1031,823	0,25
1032,241	0,25
1032,659	0,25
1033,076	0,25
1033,493	0,25
1033,911	0,25
1034,328	0,25
1034,746	0,25
1035,163	0,25
1035,58	0,25
1035,997	0,25
1036,415	0,25
1036,832	0,25
1037,249	0,25
1037,666	0,25
1038,083	0,25
1038,501	0,25
1038,918	0,25
1039,335	0,25
1039,752	0,25
1040,169	0,25
1040,586	0,25
1041,003	0,25
1041,419	0,25
1041,836	0,25
1042,253	0,25
1042,67	0,25
1043,087	0,25
1043,504	0,25
1043,92	0,25
1044,337	0,24
1044,754	0,24
1045,17	0,24
1045,587	0,24
1046,004	0,24
1046,42	0,24
1046,837	0,24
1047,253	0,24
1047,67	0,24
1048,086	0,24
1048,503	0,24
1048,919	0,24
1049,335	0,24
1049,752	0,24
1050,168	0,24
1050,584	0,24
1051,001	0,24
1051,417	0,24
1051,833	0,24
1052,249	0,24
1052,665	0,24
1053,081	0,24
1053,497	0,24
1053,914	0,24
1054,33	0,24
1054,746	0,25
1055,162	0,25
1055,578	0,25
1055,993	0,25
1056,409	0,25
1056,825	0,25
1057,241	0,25
1057,657	0,25
1058,073	0,25
1058,488	0,25
1058,904	0,25
1059,32	0,25
1059,736	0,25
1060,151	0,25
1060,567	0,25
1060,982	0,25
1061,398	0,25
1061,813	0,25
1062,229	0,25
1062,644	0,25
1063,06	0,25
1063,475	0,25
1063,891	0,25
1064,306	0,25
1064,721	0,25
1065,137	0,25
1065,552	0,25
1065,967	0,25
1066,382	0,25
1066,798	0,25
1067,213	0,25
1067,628	0,25
1068,043	0,25
1068,458	0,25
1068,873	0,25
1069,288	0,25
1069,703	0,25
1070,118	0,25
1070,533	0,25
1070,948	0,25
1071,363	0,25
1071,778	0,25
1072,193	0,25
1072,607	0,25
1073,022	0,25
1073,437	0,25
1073,852	0,25
1074,266	0,25
1074,681	0,25
1075,096	0,25
1075,51	0,25
1075,925	0,25
1076,339	0,25
1076,754	0,25
1077,168	0,25
1077,583	0,25
1077,997	0,25
1078,412	0,25
1078,826	0,25
1079,24	0,25
1079,655	0,25
1080,069	0,25
1080,483	0,25
1080,897	0,24
1081,312	0,24
1081,726	0,24
1082,14	0,24
1082,554	0,24
1082,968	0,24
1083,382	0,24
1083,796	0,24
1084,21	0,24
1084,624	0,24
1085,038	0,24
1085,452	0,24
1085,866	0,24
1086,28	0,23
1086,694	0,23
1087,108	0,23
1087,521	0,23
1087,935	0,23
1088,349	0,23
1088,763	0,23
1089,176	0,23
1089,59	0,22
1090,004	0,22
1090,417	0,22
1090,831	0,22
1091,244	0,22
1091,658	0,21
1092,071	0,21
1092,485	0,21
1092,898	0,21
1093,312	0,21
1093,725	0,21
1094,138	0,21
1094,552	0,21
1094,965	0,21
1095,378	0,21
1095,791	0,2
1096,205	0,2
1096,618	0,2
1097,031	0,2
1097,444	0,2
1097,857	0,2
1098,27	0,19
1098,683	0,19
1099,096	0,19
1099,509	0,19
1099,922	0,18
1100,335	0,18
1100,748	0,17
1101,161	0,17
1101,574	0,17
1101,986	0,16
1102,399	0,16
1102,812	0,16
1103,225	0,16
1103,637	0,15
1104,05	0,15
1104,463	0,15
1104,875	0,15
1105,288	0,15
1105,7	0,15
1106,113	0,15
1106,525	0,15
1106,938	0,14
1107,35	0,13
1107,763	0,14
1108,175	0,13
1108,588	0,13
1109	0,12
1109,412	0,12
1109,824	0,12
1110,237	0,12
1110,649	0,11
1111,061	0,1
