Data from 18C-808nm-8A_Absorbance__1415__01415.txt Node

Date: Mon Jul 17 17:15:20 CEST 2023
User: Laser008
Spectrometer: MAYP115816
Trigger mode: 0
Integration Time (sec): 2,500000E-1
Scans to average: 10
Electric dark correction enabled: true
Nonlinearity correction enabled: true
Boxcar width: 5
XAxis mode: Wavelengths
Number of Pixels in Spectrum: 2068
>>>>>Begin Spectral Data<<<<<
198,914	-0,64
199,384	-0,45
199,855	-0,33
200,325	-0,25
200,796	-0,22
201,266	-0,17
201,737	-0,17
202,207	-0,16
202,677	-0,15
203,147	-0,14
203,618	-0,11
204,088	-0,09
204,558	-0,07
205,028	-0,06
205,498	-0,07
205,968	-0,07
206,439	-0,09
206,909	-0,08
207,379	-0,09
207,849	-0,08
208,319	-0,09
208,789	-0,1
209,258	-0,1
209,728	-0,11
210,198	-0,12
210,668	-0,11
211,138	-0,1
211,608	-0,11
212,077	-0,11
212,547	-0,1
213,017	-0,11
213,486	-0,11
213,956	-0,12
214,426	-0,13
214,895	-0,13
215,365	-0,13
215,834	-0,14
216,304	-0,15
216,773	-0,14
217,243	-0,16
217,712	-0,17
218,181	-0,17
218,651	-0,16
219,12	-0,16
219,589	-0,16
220,058	-0,15
220,528	-0,16
220,997	-0,16
221,466	-0,17
221,935	-0,18
222,404	-0,18
222,873	-0,18
223,342	-0,17
223,812	-0,16
224,281	-0,16
224,749	-0,17
225,218	-0,19
225,687	-0,19
226,156	-0,18
226,625	-0,16
227,094	-0,16
227,563	-0,15
228,031	-0,16
228,5	-0,16
228,969	-0,18
229,438	-0,17
229,906	-0,16
230,375	-0,15
230,844	-0,14
231,312	-0,13
231,781	-0,14
232,249	-0,13
232,718	-0,14
233,186	-0,12
233,655	-0,14
234,123	-0,13
234,591	-0,13
235,06	-0,13
235,528	-0,14
235,996	-0,14
236,465	-0,14
236,933	-0,13
237,401	-0,14
237,869	-0,13
238,337	-0,13
238,805	-0,12
239,274	-0,11
239,742	-0,11
240,21	-0,11
240,678	-0,1
241,146	-0,09
241,614	-0,1
242,081	-0,09
242,549	-0,1
243,017	-0,1
243,485	-0,1
243,953	-0,11
244,421	-0,1
244,888	-0,1
245,356	-0,1
245,824	-0,1
246,291	-0,11
246,759	-0,12
247,227	-0,12
247,694	-0,1
248,162	-0,1
248,629	-0,09
249,097	-0,1
249,564	-0,11
250,032	-0,12
250,499	-0,12
250,967	-0,13
251,434	-0,13
251,901	-0,12
252,369	-0,12
252,836	-0,14
253,303	-0,15
253,77	-0,16
254,237	-0,15
254,705	-0,15
255,172	-0,14
255,639	-0,15
256,106	-0,16
256,573	-0,16
257,04	-0,16
257,507	-0,16
257,974	-0,16
258,441	-0,14
258,908	-0,15
259,375	-0,15
259,841	-0,16
260,308	-0,16
260,775	-0,16
261,242	-0,14
261,709	-0,15
262,175	-0,17
262,642	-0,16
263,109	-0,16
263,575	-0,18
264,042	-0,16
264,508	-0,16
264,975	-0,17
265,441	-0,18
265,908	-0,19
266,374	-0,17
266,841	-0,18
267,307	-0,17
267,773	-0,17
268,24	-0,16
268,706	-0,16
269,172	-0,17
269,639	-0,18
270,105	-0,16
270,571	-0,16
271,037	-0,16
271,503	-0,17
271,969	-0,17
272,435	-0,16
272,902	-0,18
273,368	-0,2
273,834	-0,2
274,3	-0,21
274,765	-0,21
275,231	-0,21
275,697	-0,2
276,163	-0,2
276,629	-0,2
277,095	-0,2
277,56	-0,2
278,026	-0,21
278,492	-0,19
278,958	-0,19
279,423	-0,19
279,889	-0,18
280,354	-0,19
280,82	-0,2
281,286	-0,22
281,751	-0,22
282,217	-0,21
282,682	-0,21
283,147	-0,21
283,613	-0,21
284,078	-0,2
284,544	-0,22
285,009	-0,23
285,474	-0,21
285,939	-0,22
286,405	-0,21
286,87	-0,21
287,335	-0,2
287,8	-0,2
288,265	-0,18
288,73	-0,2
289,195	-0,23
289,66	-0,22
290,125	-0,21
290,59	-0,22
291,055	-0,21
291,52	-0,21
291,985	-0,22
292,45	-0,24
292,915	-0,24
293,38	-0,24
293,844	-0,22
294,309	-0,21
294,774	-0,2
295,239	-0,21
295,703	-0,22
296,168	-0,2
296,632	-0,2
297,097	-0,18
297,562	-0,16
298,026	-0,16
298,491	-0,17
298,955	-0,17
299,419	-0,16
299,884	-0,15
300,348	-0,15
300,813	-0,14
301,277	-0,15
301,741	-0,16
302,205	-0,16
302,67	-0,15
303,134	-0,15
303,598	-0,15
304,062	-0,14
304,526	-0,14
304,99	-0,16
305,454	-0,15
305,919	-0,15
306,383	-0,15
306,847	-0,14
307,31	-0,14
307,774	-0,15
308,238	-0,15
308,702	-0,14
309,166	-0,15
309,63	-0,15
310,094	-0,12
310,557	-0,11
311,021	-0,1
311,485	-0,1
311,948	-0,1
312,412	-0,1
312,876	-0,09
313,339	-0,1
313,803	-0,11
314,266	-0,11
314,73	-0,11
315,193	-0,11
315,657	-0,1
316,12	-0,1
316,584	-0,09
317,047	-0,09
317,51	-0,07
317,973	-0,08
318,437	-0,06
318,9	-0,04
319,363	-0,03
319,826	-0,03
320,29	-0,03
320,753	-0,04
321,216	-0,03
321,679	-0,03
322,142	-0,03
322,605	-0,05
323,068	-0,04
323,531	-0,05
323,994	-0,04
324,457	-0,05
324,92	-0,04
325,382	-0,04
325,845	-0,04
326,308	-0,04
326,771	-0,04
327,233	-0,04
327,696	-0,03
328,159	-0,03
328,622	-0,02
329,084	-0,03
329,547	-0,01
330,009	-0,01
330,472	-0
330,934	0,01
331,397	0,01
331,859	0,02
332,322	0,02
332,784	0,03
333,246	0,04
333,709	0,04
334,171	0,05
334,633	0,05
335,096	0,04
335,558	0,04
336,02	0,04
336,482	0,04
336,944	0,04
337,406	0,05
337,868	0,05
338,331	0,05
338,793	0,06
339,255	0,06
339,717	0,06
340,178	0,08
340,64	0,09
341,102	0,1
341,564	0,11
342,026	0,12
342,488	0,13
342,949	0,15
343,411	0,17
343,873	0,19
344,335	0,22
344,796	0,24
345,258	0,28
345,719	0,31
346,181	0,35
346,643	0,38
347,104	0,4
347,566	0,43
348,027	0,45
348,488	0,46
348,95	0,48
349,411	0,49
349,873	0,51
350,334	0,52
350,795	0,53
351,256	0,54
351,718	0,54
352,179	0,54
352,64	0,55
353,101	0,55
353,562	0,55
354,023	0,55
354,484	0,55
354,945	0,56
355,406	0,56
355,867	0,56
356,328	0,56
356,789	0,56
357,25	0,56
357,711	0,56
358,172	0,56
358,633	0,57
359,093	0,57
359,554	0,57
360,015	0,57
360,476	0,57
360,936	0,57
361,397	0,57
361,858	0,57
362,318	0,57
362,779	0,57
363,239	0,57
363,7	0,57
364,16	0,57
364,621	0,57
365,081	0,57
365,541	0,57
366,002	0,57
366,462	0,57
366,922	0,57
367,383	0,57
367,843	0,57
368,303	0,57
368,763	0,57
369,223	0,57
369,684	0,57
370,144	0,57
370,604	0,57
371,064	0,57
371,524	0,57
371,984	0,57
372,444	0,57
372,904	0,57
373,363	0,57
373,823	0,57
374,283	0,57
374,743	0,57
375,203	0,57
375,663	0,57
376,122	0,57
376,582	0,57
377,042	0,57
377,501	0,57
377,961	0,57
378,42	0,57
378,88	0,57
379,34	0,57
379,799	0,57
380,259	0,57
380,718	0,57
381,177	0,56
381,637	0,56
382,096	0,56
382,555	0,56
383,015	0,56
383,474	0,56
383,933	0,56
384,393	0,56
384,852	0,56
385,311	0,56
385,77	0,56
386,229	0,56
386,688	0,56
387,147	0,56
387,606	0,56
388,065	0,56
388,524	0,56
388,983	0,56
389,442	0,56
389,901	0,56
390,36	0,56
390,819	0,56
391,277	0,56
391,736	0,56
392,195	0,56
392,654	0,56
393,112	0,56
393,571	0,56
394,03	0,56
394,488	0,55
394,947	0,55
395,405	0,55
395,864	0,55
396,322	0,55
396,781	0,55
397,239	0,55
397,698	0,55
398,156	0,55
398,614	0,55
399,073	0,55
399,531	0,55
399,989	0,55
400,447	0,55
400,905	0,55
401,364	0,55
401,822	0,55
402,28	0,55
402,738	0,55
403,196	0,55
403,654	0,55
404,112	0,55
404,57	0,55
405,028	0,55
405,486	0,55
405,944	0,55
406,402	0,55
406,859	0,55
407,317	0,55
407,775	0,55
408,233	0,55
408,691	0,55
409,148	0,55
409,606	0,55
410,064	0,55
410,521	0,55
410,979	0,55
411,436	0,55
411,894	0,55
412,351	0,55
412,809	0,55
413,266	0,55
413,724	0,54
414,181	0,54
414,638	0,54
415,096	0,54
415,553	0,54
416,01	0,54
416,467	0,54
416,925	0,54
417,382	0,54
417,839	0,54
418,296	0,54
418,753	0,54
419,21	0,54
419,667	0,54
420,124	0,54
420,581	0,54
421,038	0,54
421,495	0,54
421,952	0,54
422,409	0,54
422,866	0,54
423,322	0,54
423,779	0,54
424,236	0,54
424,693	0,54
425,149	0,54
425,606	0,54
426,063	0,54
426,519	0,54
426,976	0,54
427,433	0,54
427,889	0,54
428,346	0,54
428,802	0,54
429,258	0,54
429,715	0,54
430,171	0,54
430,628	0,54
431,084	0,54
431,54	0,54
431,997	0,54
432,453	0,54
432,909	0,54
433,365	0,54
433,821	0,54
434,277	0,54
434,734	0,54
435,19	0,54
435,646	0,54
436,102	0,54
436,558	0,54
437,014	0,54
437,47	0,54
437,925	0,54
438,381	0,54
438,837	0,54
439,293	0,54
439,749	0,54
440,205	0,54
440,66	0,54
441,116	0,54
441,572	0,54
442,027	0,54
442,483	0,54
442,939	0,54
443,394	0,54
443,85	0,54
444,305	0,54
444,761	0,54
445,216	0,54
445,672	0,54
446,127	0,54
446,582	0,54
447,038	0,54
447,493	0,54
447,948	0,54
448,403	0,54
448,859	0,54
449,314	0,54
449,769	0,54
450,224	0,54
450,679	0,54
451,134	0,54
451,589	0,54
452,044	0,54
452,499	0,54
452,954	0,54
453,409	0,54
453,864	0,54
454,319	0,54
454,774	0,54
455,229	0,54
455,684	0,54
456,138	0,54
456,593	0,54
457,048	0,54
457,503	0,54
457,957	0,54
458,412	0,54
458,866	0,54
459,321	0,54
459,776	0,54
460,23	0,54
460,685	0,54
461,139	0,55
461,593	0,55
462,048	0,55
462,502	0,55
462,957	0,55
463,411	0,55
463,865	0,55
464,319	0,55
464,774	0,55
465,228	0,55
465,682	0,55
466,136	0,55
466,59	0,55
467,044	0,55
467,499	0,55
467,953	0,55
468,407	0,55
468,861	0,56
469,315	0,56
469,768	0,56
470,222	0,56
470,676	0,56
471,13	0,56
471,584	0,56
472,038	0,56
472,491	0,56
472,945	0,56
473,399	0,56
473,852	0,56
474,306	0,56
474,76	0,56
475,213	0,56
475,667	0,56
476,12	0,56
476,574	0,57
477,027	0,57
477,481	0,57
477,934	0,57
478,388	0,57
478,841	0,57
479,294	0,57
479,748	0,57
480,201	0,58
480,654	0,58
481,107	0,58
481,561	0,58
482,014	0,58
482,467	0,58
482,92	0,58
483,373	0,58
483,826	0,59
484,279	0,59
484,732	0,59
485,185	0,59
485,638	0,59
486,091	0,59
486,544	0,59
486,997	0,6
487,449	0,6
487,902	0,6
488,355	0,6
488,808	0,6
489,26	0,6
489,713	0,61
490,166	0,61
490,618	0,61
491,071	0,61
491,523	0,61
491,976	0,62
492,429	0,62
492,881	0,62
493,333	0,62
493,786	0,62
494,238	0,63
494,691	0,63
495,143	0,63
495,595	0,63
496,048	0,64
496,5	0,64
496,952	0,64
497,404	0,64
497,856	0,65
498,309	0,65
498,761	0,65
499,213	0,66
499,665	0,66
500,117	0,66
500,569	0,67
501,021	0,67
501,473	0,67
501,925	0,68
502,377	0,68
502,828	0,68
503,28	0,68
503,732	0,69
504,184	0,69
504,636	0,69
505,087	0,7
505,539	0,7
505,991	0,7
506,442	0,7
506,894	0,71
507,345	0,71
507,797	0,71
508,249	0,72
508,7	0,72
509,151	0,72
509,603	0,72
510,054	0,73
510,506	0,73
510,957	0,73
511,408	0,74
511,86	0,74
512,311	0,74
512,762	0,74
513,213	0,75
513,665	0,75
514,116	0,75
514,567	0,76
515,018	0,76
515,469	0,76
515,92	0,76
516,371	0,77
516,822	0,77
517,273	0,77
517,724	0,77
518,175	0,78
518,626	0,78
519,076	0,78
519,527	0,78
519,978	0,78
520,429	0,78
520,88	0,79
521,33	0,79
521,781	0,79
522,232	0,79
522,682	0,79
523,133	0,79
523,583	0,79
524,034	0,8
524,484	0,8
524,935	0,8
525,385	0,8
525,836	0,8
526,286	0,8
526,736	0,8
527,187	0,8
527,637	0,8
528,087	0,8
528,538	0,8
528,988	0,8
529,438	0,8
529,888	0,8
530,338	0,79
530,788	0,79
531,238	0,79
531,688	0,79
532,139	0,79
532,589	0,79
533,038	0,79
533,488	0,79
533,938	0,79
534,388	0,79
534,838	0,78
535,288	0,78
535,738	0,78
536,187	0,78
536,637	0,78
537,087	0,77
537,537	0,77
537,986	0,77
538,436	0,76
538,885	0,76
539,335	0,76
539,785	0,75
540,234	0,75
540,684	0,75
541,133	0,75
541,582	0,74
542,032	0,74
542,481	0,73
542,931	0,73
543,38	0,73
543,829	0,72
544,278	0,72
544,728	0,72
545,177	0,71
545,626	0,71
546,075	0,71
546,524	0,71
546,973	0,7
547,422	0,7
547,871	0,7
548,32	0,7
548,769	0,69
549,218	0,69
549,667	0,69
550,116	0,69
550,565	0,69
551,014	0,68
551,463	0,68
551,911	0,68
552,36	0,67
552,809	0,67
553,258	0,67
553,706	0,66
554,155	0,66
554,603	0,66
555,052	0,66
555,501	0,65
555,949	0,65
556,398	0,65
556,846	0,64
557,294	0,64
557,743	0,64
558,191	0,63
558,64	0,63
559,088	0,63
559,536	0,62
559,985	0,62
560,433	0,62
560,881	0,61
561,329	0,61
561,777	0,61
562,225	0,61
562,674	0,6
563,122	0,6
563,57	0,6
564,018	0,59
564,466	0,59
564,914	0,59
565,362	0,58
565,809	0,58
566,257	0,58
566,705	0,58
567,153	0,57
567,601	0,57
568,048	0,57
568,496	0,57
568,944	0,56
569,392	0,56
569,839	0,56
570,287	0,56
570,734	0,55
571,182	0,55
571,63	0,55
572,077	0,55
572,525	0,54
572,972	0,54
573,419	0,54
573,867	0,53
574,314	0,53
574,761	0,53
575,209	0,53
575,656	0,52
576,103	0,52
576,551	0,52
576,998	0,52
577,445	0,52
577,892	0,52
578,339	0,51
578,786	0,51
579,233	0,51
579,68	0,51
580,127	0,51
580,574	0,5
581,021	0,5
581,468	0,5
581,915	0,5
582,362	0,5
582,809	0,49
583,255	0,49
583,702	0,49
584,149	0,49
584,596	0,49
585,042	0,49
585,489	0,48
585,936	0,48
586,382	0,48
586,829	0,48
587,275	0,48
587,722	0,48
588,168	0,48
588,615	0,47
589,061	0,47
589,508	0,47
589,954	0,47
590,4	0,47
590,847	0,47
591,293	0,47
591,739	0,47
592,185	0,46
592,632	0,46
593,078	0,46
593,524	0,46
593,97	0,46
594,416	0,46
594,862	0,46
595,308	0,46
595,754	0,46
596,2	0,46
596,646	0,45
597,092	0,45
597,538	0,45
597,984	0,45
598,43	0,45
598,876	0,45
599,321	0,45
599,767	0,45
600,213	0,45
600,659	0,45
601,104	0,44
601,55	0,44
601,995	0,44
602,441	0,44
602,887	0,44
603,332	0,44
603,778	0,44
604,223	0,44
604,668	0,44
605,114	0,44
605,559	0,44
606,005	0,44
606,45	0,44
606,895	0,43
607,341	0,43
607,786	0,43
608,231	0,43
608,676	0,43
609,121	0,42
609,566	0,42
610,012	0,42
610,457	0,41
610,902	0,41
611,347	0,41
611,792	0,41
612,237	0,41
612,682	0,4
613,127	0,4
613,571	0,4
614,016	0,41
614,461	0,41
614,906	0,41
615,351	0,41
615,795	0,41
616,24	0,41
616,685	0,41
617,129	0,41
617,574	0,41
618,019	0,41
618,463	0,41
618,908	0,41
619,352	0,41
619,797	0,41
620,241	0,41
620,686	0,41
621,13	0,41
621,574	0,41
622,019	0,41
622,463	0,41
622,907	0,41
623,352	0,41
623,796	0,41
624,24	0,41
624,684	0,4
625,128	0,4
625,572	0,4
626,016	0,4
626,461	0,4
626,905	0,4
627,349	0,4
627,793	0,4
628,236	0,4
628,68	0,4
629,124	0,4
629,568	0,4
630,012	0,4
630,456	0,4
630,9	0,4
631,343	0,4
631,787	0,4
632,231	0,4
632,674	0,4
633,118	0,4
633,562	0,4
634,005	0,4
634,449	0,4
634,892	0,4
635,336	0,4
635,779	0,4
636,223	0,4
636,666	0,4
637,109	0,4
637,553	0,4
637,996	0,4
638,439	0,4
638,883	0,39
639,326	0,39
639,769	0,39
640,212	0,39
640,655	0,39
641,099	0,39
641,542	0,39
641,985	0,39
642,428	0,39
642,871	0,39
643,314	0,39
643,757	0,39
644,2	0,39
644,643	0,39
645,085	0,39
645,528	0,39
645,971	0,39
646,414	0,39
646,857	0,39
647,299	0,39
647,742	0,39
648,185	0,39
648,627	0,39
649,07	0,39
649,513	0,39
649,955	0,39
650,398	0,39
650,84	0,39
651,283	0,39
651,725	0,39
652,168	0,39
652,61	0,39
653,052	0,39
653,495	0,38
653,937	0,3
654,379	0,24
654,821	0,25
655,264	0,25
655,706	0,25
656,148	0,25
656,59	0,25
657,032	0,25
657,474	0,25
657,916	0,25
658,358	0,24
658,8	0,3
659,242	0,38
659,684	0,38
660,126	0,38
660,568	0,38
661,01	0,38
661,452	0,38
661,894	0,38
662,335	0,38
662,777	0,38
663,219	0,38
663,661	0,38
664,102	0,38
664,544	0,38
664,985	0,38
665,427	0,38
665,869	0,38
666,31	0,38
666,752	0,38
667,193	0,38
667,634	0,38
668,076	0,38
668,517	0,38
668,959	0,38
669,4	0,38
669,841	0,38
670,282	0,38
670,724	0,38
671,165	0,38
671,606	0,38
672,047	0,38
672,488	0,38
672,929	0,38
673,37	0,38
673,811	0,38
674,252	0,38
674,693	0,38
675,134	0,37
675,575	0,37
676,016	0,37
676,457	0,37
676,898	0,37
677,339	0,37
677,78	0,37
678,22	0,37
678,661	0,37
679,102	0,37
679,542	0,37
679,983	0,37
680,424	0,37
680,864	0,37
681,305	0,37
681,745	0,37
682,186	0,37
682,626	0,37
683,067	0,37
683,507	0,37
683,948	0,37
684,388	0,37
684,828	0,37
685,269	0,37
685,709	0,37
686,149	0,37
686,589	0,37
687,029	0,37
687,47	0,37
687,91	0,36
688,35	0,36
688,79	0,36
689,23	0,36
689,67	0,36
690,11	0,36
690,55	0,36
690,99	0,36
691,43	0,36
691,87	0,36
692,31	0,36
692,749	0,36
693,189	0,36
693,629	0,36
694,069	0,36
694,508	0,36
694,948	0,36
695,388	0,36
695,827	0,36
696,267	0,36
696,706	0,36
697,146	0,36
697,586	0,36
698,025	0,37
698,464	0,37
698,904	0,37
699,343	0,37
699,783	0,37
700,222	0,37
700,661	0,37
701,101	0,37
701,54	0,37
701,979	0,37
702,418	0,37
702,857	0,37
703,297	0,37
703,736	0,37
704,175	0,36
704,614	0,36
705,053	0,36
705,492	0,36
705,931	0,36
706,37	0,36
706,809	0,36
707,248	0,36
707,687	0,36
708,125	0,36
708,564	0,36
709,003	0,36
709,442	0,36
709,88	0,36
710,319	0,36
710,758	0,36
711,196	0,35
711,635	0,35
712,074	0,35
712,512	0,35
712,951	0,35
713,389	0,35
713,828	0,35
714,266	0,35
714,705	0,35
715,143	0,35
715,581	0,35
716,02	0,35
716,458	0,35
716,896	0,35
717,334	0,35
717,773	0,35
718,211	0,35
718,649	0,35
719,087	0,35
719,525	0,35
719,963	0,35
720,401	0,35
720,839	0,35
721,277	0,35
721,715	0,35
722,153	0,35
722,591	0,35
723,029	0,35
723,467	0,35
723,905	0,35
724,342	0,35
724,78	0,35
725,218	0,35
725,656	0,35
726,093	0,35
726,531	0,35
726,969	0,35
727,406	0,35
727,844	0,35
728,281	0,35
728,719	0,35
729,156	0,35
729,594	0,35
730,031	0,35
730,469	0,35
730,906	0,34
731,343	0,34
731,781	0,34
732,218	0,34
732,655	0,34
733,092	0,34
733,53	0,34
733,967	0,34
734,404	0,34
734,841	0,34
735,278	0,34
735,715	0,34
736,152	0,34
736,589	0,34
737,026	0,34
737,463	0,34
737,9	0,34
738,337	0,34
738,774	0,34
739,211	0,34
739,647	0,34
740,084	0,34
740,521	0,34
740,958	0,34
741,394	0,34
741,831	0,34
742,268	0,33
742,704	0,33
743,141	0,33
743,577	0,33
744,014	0,33
744,45	0,33
744,887	0,33
745,323	0,33
745,76	0,32
746,196	0,32
746,632	0,32
747,069	0,32
747,505	0,32
747,941	0,32
748,378	0,32
748,814	0,32
749,25	0,33
749,686	0,33
750,122	0,33
750,558	0,33
750,994	0,33
751,43	0,33
751,866	0,34
752,302	0,34
752,738	0,34
753,174	0,34
753,61	0,34
754,046	0,34
754,482	0,34
754,918	0,34
755,354	0,34
755,789	0,34
756,225	0,34
756,661	0,34
757,096	0,33
757,532	0,33
757,968	0,33
758,403	0,33
758,839	0,33
759,274	0,33
759,71	0,32
760,145	0,32
760,581	0,31
761,016	0,31
761,452	0,31
761,887	0,3
762,322	0,3
762,758	0,3
763,193	0,3
763,628	0,29
764,063	0,29
764,499	0,28
764,934	0,27
765,369	0,27
765,804	0,27
766,239	0,26
766,674	0,26
767,109	0,25
767,544	0,24
767,979	0,23
768,414	0,23
768,849	0,22
769,284	0,21
769,719	0,2
770,154	0,2
770,588	0,19
771,023	0,18
771,458	0,17
771,893	0,17
772,327	0,15
772,762	0,14
773,197	0,14
773,631	0,13
774,066	0,12
774,5	0,11
774,935	0,1
775,369	0,09
775,804	0,08
776,238	0,07
776,673	0,05
777,107	0,04
777,541	0,04
777,976	0,03
778,41	0,02
778,844	0,01
779,279	0,01
779,713	0
780,147	-0
780,581	-0
781,015	-0,01
781,449	-0,02
781,883	-0,02
782,317	-0,03
782,751	-0,04
783,185	-0,04
783,619	-0,05
784,053	-0,06
784,487	-0,07
784,921	-0,07
785,355	-0,08
785,789	-0,09
786,223	-0,1
786,656	-0,12
787,09	-0,12
787,524	-0,13
787,957	-0,15
788,391	-0,16
788,825	-0,18
789,258	-0,2
789,692	-0,21
790,125	-0,22
790,559	-0,24
790,992	-0,26
791,426	-0,29
791,859	-0,3
792,293	-0,33
792,726	-0,35
793,159	-0,36
793,593	-0,39
794,026	-0,41
794,459	-0,44
794,892	-0,47
795,326	-0,49
795,759	-0,52
796,192	-0,56
796,625	-0,61
797,058	-0,63
797,491	-0,67
797,924	-0,71
798,357	-0,76
798,79	-0,8
799,223	-0,85
799,656	-0,9
800,089	-0,95
800,522	-0,99
800,955	-1,04
801,387	-1,09
801,82	-1,15
802,253	-1,21
802,686	-1,29
803,118	-1,35
803,551	-1,4
803,984	-1,44
804,416	-1,48
804,849	-1,51
805,281	-1,6
805,714	-1,94
806,146	-2,42
806,579	-2,69
807,011	-2,86
807,444	-2,95
807,876	-3,04
808,308	-3,08
808,741	-3,11
809,173	-3,16
809,605	-3,18
810,037	-3,26
810,47	-3,18
810,902	-2,99
811,334	-2,84
811,766	-2,69
812,198	-2,46
812,63	-2,02
813,062	-1,8
813,494	-1,71
813,926	-1,62
814,358	-1,56
814,79	-1,48
815,222	-1,42
815,654	-1,37
816,086	-1,31
816,518	-1,25
816,949	-1,2
817,381	-1,16
817,813	-1,14
818,245	-1,1
818,676	-1,06
819,108	-1,02
819,54	-1,01
819,971	-0,98
820,403	-0,93
820,834	-0,92
821,266	-0,87
821,697	-0,85
822,129	-0,83
822,56	-0,81
822,991	-0,79
823,423	-0,76
823,854	-0,75
824,286	-0,72
824,717	-0,7
825,148	-0,69
825,579	-0,68
826,01	-0,67
826,442	-0,66
826,873	-0,64
827,304	-0,6
827,735	-0,6
828,166	-0,6
828,597	-0,6
829,028	-0,6
829,459	-0,6
829,89	-0,6
830,321	-0,56
830,752	-0,56
831,183	-0,55
831,613	-0,55
832,044	-0,54
832,475	-0,53
832,906	-0,55
833,336	-0,54
833,767	-0,54
834,198	-0,53
834,628	-0,5
835,059	-0,53
835,49	-0,54
835,92	-0,52
836,351	-0,52
836,781	-0,52
837,212	-0,53
837,642	-0,53
838,072	-0,51
838,503	-0,52
838,933	-0,49
839,364	-0,52
839,794	-0,5
840,224	-0,49
840,654	-0,54
841,085	-0,54
841,515	-0,52
841,945	-0,52
842,375	-0,47
842,805	-0,46
843,235	-0,45
843,665	-0,47
844,095	-0,44
844,525	-0,46
844,955	-0,46
845,385	-0,43
845,815	-0,41
846,245	-0,45
846,675	-0,46
847,105	-0,48
847,534	-0,47
847,964	-0,46
848,394	-0,45
848,824	-0,48
849,253	-0,47
849,683	-0,47
850,112	-0,49
850,542	-0,52
850,972	-0,52
851,401	-0,48
851,831	-0,46
852,26	-0,47
852,69	-0,5
853,119	-0,49
853,548	-0,51
853,978	-0,52
854,407	-0,5
854,836	-0,49
855,266	-0,49
855,695	-0,5
856,124	-0,51
856,553	-0,53
856,983	-0,55
857,412	-0,54
857,841	-0,56
858,27	-0,56
858,699	-0,56
859,128	-0,59
859,557	-0,6
859,986	-0,61
860,415	-0,58
860,844	-0,56
861,273	-0,56
861,702	-0,57
862,13	-0,55
862,559	-0,56
862,988	-0,54
863,417	-0,53
863,845	-0,52
864,274	-0,52
864,703	-0,52
865,131	-0,52
865,56	-0,54
865,989	-0,57
866,417	-0,54
866,846	-0,54
867,274	-0,54
867,703	-0,57
868,131	-0,58
868,559	-0,58
868,988	-0,6
869,416	-0,59
869,844	-0,6
870,273	-0,62
870,701	-0,6
871,129	-0,63
871,557	-0,66
871,986	-0,65
872,414	-0,66
872,842	-0,64
873,27	-0,62
873,698	-0,59
874,126	-0,63
874,554	-0,62
874,982	-0,61
875,41	-0,64
875,838	-0,59
876,266	-0,56
876,694	-0,56
877,122	-0,55
877,549	-0,59
877,977	-0,56
878,405	-0,6
878,833	-0,56
879,26	-0,55
879,688	-0,55
880,116	-0,53
880,543	-0,53
880,971	-0,52
881,399	-0,54
881,826	-0,55
882,254	-0,53
882,681	-0,57
883,109	-0,53
883,536	-0,53
883,963	-0,55
884,391	-0,52
884,818	-0,51
885,245	-0,54
885,673	-0,57
886,1	-0,54
886,527	-0,54
886,954	-0,51
887,381	-0,52
887,809	-0,52
888,236	-0,55
888,663	-0,54
889,09	-0,59
889,517	-0,6
889,944	-0,59
890,371	-0,58
890,798	-0,59
891,225	-0,59
891,652	-0,62
892,078	-0,59
892,505	-0,62
892,932	-0,58
893,359	-0,59
893,786	-0,59
894,212	-0,56
894,639	-0,58
895,066	-0,6
895,492	-0,55
895,919	-0,55
896,346	-0,55
896,772	-0,56
897,199	-0,53
897,625	-0,56
898,052	-0,53
898,478	-0,51
898,904	-0,54
899,331	-0,53
899,757	-0,55
900,183	-0,56
900,61	-0,55
901,036	-0,55
901,462	-0,54
901,888	-0,54
902,315	-0,53
902,741	-0,57
903,167	-0,56
903,593	-0,58
904,019	-0,57
904,445	-0,54
904,871	-0,58
905,297	-0,59
905,723	-0,58
906,149	-0,57
906,575	-0,58
907,001	-0,58
907,427	-0,55
907,852	-0,55
908,278	-0,55
908,704	-0,52
909,13	-0,51
909,555	-0,5
909,981	-0,49
910,407	-0,5
910,832	-0,5
911,258	-0,5
911,684	-0,49
912,109	-0,5
912,535	-0,52
912,96	-0,48
913,386	-0,52
913,811	-0,52
914,236	-0,53
914,662	-0,51
915,087	-0,55
915,512	-0,56
915,938	-0,57
916,363	-0,56
916,788	-0,58
917,213	-0,55
917,639	-0,61
918,064	-0,58
918,489	-0,59
918,914	-0,58
919,339	-0,6
919,764	-0,57
920,189	-0,57
920,614	-0,58
921,039	-0,59
921,464	-0,55
921,889	-0,58
922,314	-0,59
922,738	-0,62
923,163	-0,62
923,588	-0,63
924,013	-0,62
924,437	-0,61
924,862	-0,62
925,287	-0,58
925,711	-0,58
926,136	-0,59
926,561	-0,57
926,985	-0,55
927,41	-0,52
927,834	-0,5
928,259	-0,48
928,683	-0,46
929,108	-0,44
929,532	-0,45
929,956	-0,45
930,381	-0,45
930,805	-0,45
931,229	-0,44
931,653	-0,43
932,078	-0,43
932,502	-0,44
932,926	-0,44
933,35	-0,45
933,774	-0,44
934,198	-0,43
934,622	-0,41
935,046	-0,42
935,47	-0,42
935,894	-0,42
936,318	-0,42
936,742	-0,42
937,166	-0,44
937,59	-0,43
938,014	-0,45
938,437	-0,45
938,861	-0,47
939,285	-0,48
939,709	-0,48
940,132	-0,47
940,556	-0,48
940,98	-0,49
941,403	-0,48
941,827	-0,47
942,25	-0,48
942,674	-0,46
943,097	-0,46
943,521	-0,45
943,944	-0,46
944,368	-0,45
944,791	-0,44
945,214	-0,46
945,638	-0,47
946,061	-0,49
946,484	-0,49
946,907	-0,48
947,331	-0,49
947,754	-0,53
948,177	-0,51
948,6	-0,51
949,023	-0,51
949,446	-0,51
949,869	-0,48
950,292	-0,47
950,715	-0,45
951,138	-0,44
951,561	-0,41
951,984	-0,42
952,407	-0,41
952,83	-0,39
953,252	-0,35
953,675	-0,35
954,098	-0,35
954,521	-0,34
954,943	-0,34
955,366	-0,34
955,789	-0,32
956,211	-0,35
956,634	-0,33
957,056	-0,31
957,479	-0,32
957,902	-0,35
958,324	-0,36
958,746	-0,35
959,169	-0,36
959,591	-0,37
960,014	-0,38
960,436	-0,37
960,858	-0,37
961,281	-0,37
961,703	-0,39
962,125	-0,39
962,547	-0,37
962,969	-0,37
963,391	-0,37
963,814	-0,39
964,236	-0,37
964,658	-0,34
965,08	-0,35
965,502	-0,35
965,924	-0,32
966,346	-0,32
966,768	-0,32
967,189	-0,34
967,611	-0,33
968,033	-0,32
968,455	-0,31
968,877	-0,31
969,298	-0,33
969,72	-0,33
970,142	-0,32
970,563	-0,33
970,985	-0,31
971,407	-0,3
971,828	-0,27
972,25	-0,27
972,671	-0,25
973,093	-0,25
973,514	-0,24
973,936	-0,21
974,357	-0,2
974,778	-0,21
975,2	-0,2
975,621	-0,21
976,042	-0,2
976,464	-0,19
976,885	-0,18
977,306	-0,17
977,727	-0,16
978,148	-0,16
978,57	-0,15
978,991	-0,13
979,412	-0,12
979,833	-0,11
980,254	-0,1
980,675	-0,1
981,096	-0,09
981,517	-0,08
981,937	-0,08
982,358	-0,06
982,779	-0,04
983,2	-0,05
983,621	-0,04
984,042	-0,03
984,462	-0,02
984,883	-0
985,304	0,01
985,724	0,02
986,145	0,03
986,565	0,05
986,986	0,05
987,407	0,06
987,827	0,07
988,248	0,09
988,668	0,09
989,088	0,1
989,509	0,11
989,929	0,12
990,35	0,13
990,77	0,14
991,19	0,15
991,61	0,16
992,031	0,16
992,451	0,17
992,871	0,17
993,291	0,19
993,711	0,19
994,131	0,2
994,551	0,21
994,971	0,21
995,391	0,22
995,811	0,22
996,231	0,23
996,651	0,23
997,071	0,24
997,491	0,25
997,911	0,25
998,331	0,26
998,75	0,26
999,17	0,26
999,59	0,26
1000,009	0,27
1000,429	0,27
1000,849	0,28
1001,268	0,28
1001,688	0,28
1002,107	0,28
1002,527	0,29
1002,946	0,29
1003,366	0,29
1003,785	0,29
1004,205	0,3
1004,624	0,3
1005,044	0,3
1005,463	0,3
1005,882	0,3
1006,301	0,3
1006,721	0,31
1007,14	0,31
1007,559	0,31
1007,978	0,31
1008,397	0,31
1008,816	0,31
1009,235	0,31
1009,655	0,31
1010,074	0,3
1010,492	0,3
1010,911	0,3
1011,33	0,3
1011,749	0,3
1012,168	0,3
1012,587	0,3
1013,006	0,3
1013,425	0,3
1013,843	0,3
1014,262	0,3
1014,681	0,3
1015,099	0,3
1015,518	0,3
1015,937	0,3
1016,355	0,3
1016,774	0,3
1017,192	0,3
1017,611	0,3
1018,029	0,3
1018,448	0,3
1018,866	0,3
1019,285	0,3
1019,703	0,3
1020,121	0,3
1020,54	0,3
1020,958	0,3
1021,376	0,3
1021,794	0,3
1022,213	0,3
1022,631	0,3
1023,049	0,3
1023,467	0,3
1023,885	0,3
1024,303	0,3
1024,721	0,29
1025,139	0,29
1025,557	0,29
1025,975	0,29
1026,393	0,29
1026,811	0,29
1027,229	0,29
1027,647	0,29
1028,065	0,29
1028,482	0,29
1028,9	0,29
1029,318	0,29
1029,735	0,29
1030,153	0,29
1030,571	0,29
1030,988	0,29
1031,406	0,29
1031,823	0,29
1032,241	0,29
1032,659	0,29
1033,076	0,29
1033,493	0,29
1033,911	0,29
1034,328	0,29
1034,746	0,29
1035,163	0,29
1035,58	0,29
1035,997	0,29
1036,415	0,29
1036,832	0,29
1037,249	0,29
1037,666	0,29
1038,083	0,29
1038,501	0,29
1038,918	0,29
1039,335	0,29
1039,752	0,29
1040,169	0,29
1040,586	0,29
1041,003	0,29
1041,419	0,29
1041,836	0,29
1042,253	0,28
1042,67	0,28
1043,087	0,28
1043,504	0,28
1043,92	0,28
1044,337	0,28
1044,754	0,28
1045,17	0,28
1045,587	0,28
1046,004	0,28
1046,42	0,28
1046,837	0,28
1047,253	0,28
1047,67	0,28
1048,086	0,28
1048,503	0,28
1048,919	0,28
1049,335	0,28
1049,752	0,28
1050,168	0,28
1050,584	0,28
1051,001	0,28
1051,417	0,28
1051,833	0,28
1052,249	0,28
1052,665	0,28
1053,081	0,28
1053,497	0,28
1053,914	0,28
1054,33	0,28
1054,746	0,28
1055,162	0,28
1055,578	0,29
1055,993	0,29
1056,409	0,29
1056,825	0,29
1057,241	0,29
1057,657	0,29
1058,073	0,29
1058,488	0,29
1058,904	0,29
1059,32	0,29
1059,736	0,29
1060,151	0,29
1060,567	0,29
1060,982	0,29
1061,398	0,29
1061,813	0,29
1062,229	0,29
1062,644	0,29
1063,06	0,29
1063,475	0,29
1063,891	0,29
1064,306	0,29
1064,721	0,29
1065,137	0,29
1065,552	0,29
1065,967	0,29
1066,382	0,29
1066,798	0,29
1067,213	0,29
1067,628	0,29
1068,043	0,29
1068,458	0,29
1068,873	0,29
1069,288	0,29
1069,703	0,29
1070,118	0,29
1070,533	0,29
1070,948	0,29
1071,363	0,29
1071,778	0,29
1072,193	0,29
1072,607	0,29
1073,022	0,29
1073,437	0,29
1073,852	0,29
1074,266	0,29
1074,681	0,29
1075,096	0,29
1075,51	0,29
1075,925	0,29
1076,339	0,29
1076,754	0,29
1077,168	0,29
1077,583	0,29
1077,997	0,29
1078,412	0,29
1078,826	0,29
1079,24	0,29
1079,655	0,28
1080,069	0,28
1080,483	0,28
1080,897	0,28
1081,312	0,28
1081,726	0,28
1082,14	0,28
1082,554	0,28
1082,968	0,28
1083,382	0,28
1083,796	0,27
1084,21	0,27
1084,624	0,27
1085,038	0,27
1085,452	0,27
1085,866	0,27
1086,28	0,27
1086,694	0,27
1087,108	0,27
1087,521	0,27
1087,935	0,27
1088,349	0,26
1088,763	0,26
1089,176	0,26
1089,59	0,26
1090,004	0,26
1090,417	0,25
1090,831	0,25
1091,244	0,25
1091,658	0,25
1092,071	0,25
1092,485	0,24
1092,898	0,24
1093,312	0,24
1093,725	0,24
1094,138	0,24
1094,552	0,24
1094,965	0,23
1095,378	0,23
1095,791	0,23
1096,205	0,23
1096,618	0,23
1097,031	0,23
1097,444	0,23
1097,857	0,22
1098,27	0,22
1098,683	0,22
1099,096	0,22
1099,509	0,21
1099,922	0,21
1100,335	0,21
1100,748	0,2
1101,161	0,2
1101,574	0,19
1101,986	0,19
1102,399	0,19
1102,812	0,18
1103,225	0,18
1103,637	0,18
1104,05	0,17
1104,463	0,18
1104,875	0,17
1105,288	0,17
1105,7	0,17
1106,113	0,17
1106,525	0,16
1106,938	0,16
1107,35	0,16
1107,763	0,16
1108,175	0,15
1108,588	0,15
1109	0,15
1109,412	0,14
1109,824	0,14
1110,237	0,14
1110,649	0,13
1111,061	0,12
