Data from 18C-808nm-8A_Absorbance__1115__01115.txt Node

Date: Mon Jul 17 17:02:51 CEST 2023
User: Laser008
Spectrometer: MAYP115816
Trigger mode: 0
Integration Time (sec): 2,500000E-1
Scans to average: 10
Electric dark correction enabled: true
Nonlinearity correction enabled: true
Boxcar width: 5
XAxis mode: Wavelengths
Number of Pixels in Spectrum: 2068
>>>>>Begin Spectral Data<<<<<
198,914	-0,66
199,384	-0,45
199,855	-0,35
200,325	-0,27
200,796	-0,26
201,266	-0,22
201,737	-0,21
202,207	-0,2
202,677	-0,19
203,147	-0,18
203,618	-0,15
204,088	-0,14
204,558	-0,12
205,028	-0,12
205,498	-0,12
205,968	-0,12
206,439	-0,12
206,909	-0,12
207,379	-0,12
207,849	-0,13
208,319	-0,13
208,789	-0,14
209,258	-0,13
209,728	-0,16
210,198	-0,15
210,668	-0,16
211,138	-0,15
211,608	-0,15
212,077	-0,15
212,547	-0,15
213,017	-0,15
213,486	-0,15
213,956	-0,15
214,426	-0,17
214,895	-0,15
215,365	-0,16
215,834	-0,16
216,304	-0,17
216,773	-0,18
217,243	-0,19
217,712	-0,2
218,181	-0,2
218,651	-0,2
219,12	-0,2
219,589	-0,19
220,058	-0,18
220,528	-0,19
220,997	-0,2
221,466	-0,2
221,935	-0,2
222,404	-0,19
222,873	-0,18
223,342	-0,18
223,812	-0,19
224,281	-0,18
224,749	-0,19
225,218	-0,2
225,687	-0,2
226,156	-0,19
226,625	-0,18
227,094	-0,18
227,563	-0,19
228,031	-0,2
228,5	-0,2
228,969	-0,2
229,438	-0,2
229,906	-0,19
230,375	-0,17
230,844	-0,17
231,312	-0,17
231,781	-0,17
232,249	-0,17
232,718	-0,17
233,186	-0,15
233,655	-0,16
234,123	-0,15
234,591	-0,14
235,06	-0,16
235,528	-0,17
235,996	-0,16
236,465	-0,17
236,933	-0,16
237,401	-0,16
237,869	-0,14
238,337	-0,15
238,805	-0,14
239,274	-0,14
239,742	-0,14
240,21	-0,13
240,678	-0,12
241,146	-0,12
241,614	-0,12
242,081	-0,11
242,549	-0,11
243,017	-0,12
243,485	-0,13
243,953	-0,13
244,421	-0,12
244,888	-0,12
245,356	-0,13
245,824	-0,13
246,291	-0,13
246,759	-0,14
247,227	-0,14
247,694	-0,13
248,162	-0,13
248,629	-0,12
249,097	-0,13
249,564	-0,13
250,032	-0,14
250,499	-0,14
250,967	-0,15
251,434	-0,16
251,901	-0,15
252,369	-0,16
252,836	-0,17
253,303	-0,18
253,77	-0,19
254,237	-0,18
254,705	-0,18
255,172	-0,18
255,639	-0,18
256,106	-0,19
256,573	-0,18
257,04	-0,19
257,507	-0,19
257,974	-0,2
258,441	-0,17
258,908	-0,18
259,375	-0,19
259,841	-0,19
260,308	-0,2
260,775	-0,2
261,242	-0,19
261,709	-0,19
262,175	-0,21
262,642	-0,2
263,109	-0,19
263,575	-0,22
264,042	-0,2
264,508	-0,2
264,975	-0,22
265,441	-0,23
265,908	-0,23
266,374	-0,22
266,841	-0,23
267,307	-0,21
267,773	-0,2
268,24	-0,21
268,706	-0,2
269,172	-0,21
269,639	-0,22
270,105	-0,19
270,571	-0,2
271,037	-0,19
271,503	-0,2
271,969	-0,19
272,435	-0,2
272,902	-0,22
273,368	-0,23
273,834	-0,23
274,3	-0,23
274,765	-0,23
275,231	-0,24
275,697	-0,23
276,163	-0,23
276,629	-0,22
277,095	-0,23
277,56	-0,22
278,026	-0,22
278,492	-0,2
278,958	-0,21
279,423	-0,21
279,889	-0,21
280,354	-0,21
280,82	-0,21
281,286	-0,23
281,751	-0,23
282,217	-0,21
282,682	-0,22
283,147	-0,22
283,613	-0,22
284,078	-0,21
284,544	-0,22
285,009	-0,22
285,474	-0,22
285,939	-0,24
286,405	-0,22
286,87	-0,22
287,335	-0,22
287,8	-0,22
288,265	-0,2
288,73	-0,22
289,195	-0,24
289,66	-0,23
290,125	-0,22
290,59	-0,23
291,055	-0,21
291,52	-0,21
291,985	-0,22
292,45	-0,23
292,915	-0,23
293,38	-0,24
293,844	-0,21
294,309	-0,2
294,774	-0,19
295,239	-0,2
295,703	-0,2
296,168	-0,2
296,632	-0,2
297,097	-0,19
297,562	-0,18
298,026	-0,18
298,491	-0,18
298,955	-0,18
299,419	-0,18
299,884	-0,17
300,348	-0,17
300,813	-0,16
301,277	-0,16
301,741	-0,16
302,205	-0,15
302,67	-0,14
303,134	-0,13
303,598	-0,13
304,062	-0,11
304,526	-0,11
304,99	-0,12
305,454	-0,12
305,919	-0,12
306,383	-0,13
306,847	-0,13
307,31	-0,13
307,774	-0,14
308,238	-0,15
308,702	-0,14
309,166	-0,16
309,63	-0,16
310,094	-0,14
310,557	-0,13
311,021	-0,13
311,485	-0,13
311,948	-0,13
312,412	-0,13
312,876	-0,12
313,339	-0,13
313,803	-0,12
314,266	-0,12
314,73	-0,12
315,193	-0,12
315,657	-0,11
316,12	-0,11
316,584	-0,11
317,047	-0,1
317,51	-0,09
317,973	-0,09
318,437	-0,08
318,9	-0,07
319,363	-0,07
319,826	-0,06
320,29	-0,07
320,753	-0,07
321,216	-0,07
321,679	-0,07
322,142	-0,07
322,605	-0,08
323,068	-0,08
323,531	-0,08
323,994	-0,08
324,457	-0,08
324,92	-0,07
325,382	-0,07
325,845	-0,06
326,308	-0,05
326,771	-0,05
327,233	-0,05
327,696	-0,03
328,159	-0,02
328,622	-0,01
329,084	-0,02
329,547	-0,01
330,009	-0,01
330,472	0
330,934	0,01
331,397	0
331,859	0,01
332,322	0,02
332,784	0,02
333,246	0,02
333,709	0,02
334,171	0,03
334,633	0,03
335,096	0,02
335,558	0,02
336,02	0,02
336,482	0,02
336,944	0,02
337,406	0,03
337,868	0,03
338,331	0,03
338,793	0,04
339,255	0,04
339,717	0,04
340,178	0,05
340,64	0,06
341,102	0,06
341,564	0,07
342,026	0,08
342,488	0,09
342,949	0,1
343,411	0,12
343,873	0,14
344,335	0,16
344,796	0,19
345,258	0,21
345,719	0,24
346,181	0,27
346,643	0,29
347,104	0,31
347,566	0,32
348,027	0,34
348,488	0,35
348,95	0,36
349,411	0,37
349,873	0,38
350,334	0,39
350,795	0,4
351,256	0,4
351,718	0,41
352,179	0,41
352,64	0,41
353,101	0,41
353,562	0,41
354,023	0,41
354,484	0,42
354,945	0,42
355,406	0,42
355,867	0,42
356,328	0,42
356,789	0,42
357,25	0,43
357,711	0,43
358,172	0,43
358,633	0,43
359,093	0,43
359,554	0,43
360,015	0,43
360,476	0,43
360,936	0,43
361,397	0,43
361,858	0,43
362,318	0,43
362,779	0,43
363,239	0,43
363,7	0,43
364,16	0,43
364,621	0,43
365,081	0,43
365,541	0,43
366,002	0,43
366,462	0,43
366,922	0,43
367,383	0,43
367,843	0,43
368,303	0,43
368,763	0,43
369,223	0,43
369,684	0,43
370,144	0,43
370,604	0,43
371,064	0,43
371,524	0,43
371,984	0,43
372,444	0,43
372,904	0,43
373,363	0,43
373,823	0,43
374,283	0,43
374,743	0,43
375,203	0,43
375,663	0,43
376,122	0,43
376,582	0,43
377,042	0,43
377,501	0,43
377,961	0,43
378,42	0,43
378,88	0,43
379,34	0,42
379,799	0,42
380,259	0,42
380,718	0,42
381,177	0,42
381,637	0,42
382,096	0,42
382,555	0,42
383,015	0,42
383,474	0,42
383,933	0,42
384,393	0,42
384,852	0,42
385,311	0,42
385,77	0,42
386,229	0,42
386,688	0,42
387,147	0,42
387,606	0,42
388,065	0,42
388,524	0,42
388,983	0,42
389,442	0,42
389,901	0,42
390,36	0,42
390,819	0,42
391,277	0,42
391,736	0,42
392,195	0,42
392,654	0,42
393,112	0,42
393,571	0,42
394,03	0,42
394,488	0,42
394,947	0,42
395,405	0,41
395,864	0,41
396,322	0,42
396,781	0,42
397,239	0,42
397,698	0,41
398,156	0,41
398,614	0,41
399,073	0,41
399,531	0,41
399,989	0,41
400,447	0,41
400,905	0,41
401,364	0,41
401,822	0,41
402,28	0,41
402,738	0,41
403,196	0,41
403,654	0,41
404,112	0,41
404,57	0,41
405,028	0,41
405,486	0,41
405,944	0,41
406,402	0,41
406,859	0,41
407,317	0,41
407,775	0,41
408,233	0,41
408,691	0,41
409,148	0,41
409,606	0,41
410,064	0,41
410,521	0,41
410,979	0,41
411,436	0,41
411,894	0,41
412,351	0,41
412,809	0,41
413,266	0,41
413,724	0,41
414,181	0,41
414,638	0,41
415,096	0,41
415,553	0,41
416,01	0,41
416,467	0,41
416,925	0,41
417,382	0,41
417,839	0,41
418,296	0,41
418,753	0,4
419,21	0,4
419,667	0,4
420,124	0,4
420,581	0,4
421,038	0,4
421,495	0,4
421,952	0,4
422,409	0,4
422,866	0,4
423,322	0,4
423,779	0,4
424,236	0,4
424,693	0,4
425,149	0,4
425,606	0,4
426,063	0,4
426,519	0,4
426,976	0,4
427,433	0,4
427,889	0,4
428,346	0,4
428,802	0,4
429,258	0,4
429,715	0,4
430,171	0,4
430,628	0,4
431,084	0,4
431,54	0,4
431,997	0,4
432,453	0,4
432,909	0,4
433,365	0,4
433,821	0,4
434,277	0,4
434,734	0,4
435,19	0,4
435,646	0,4
436,102	0,4
436,558	0,4
437,014	0,4
437,47	0,4
437,925	0,4
438,381	0,4
438,837	0,4
439,293	0,4
439,749	0,4
440,205	0,4
440,66	0,4
441,116	0,4
441,572	0,4
442,027	0,4
442,483	0,4
442,939	0,4
443,394	0,4
443,85	0,4
444,305	0,4
444,761	0,4
445,216	0,4
445,672	0,4
446,127	0,4
446,582	0,4
447,038	0,4
447,493	0,4
447,948	0,4
448,403	0,4
448,859	0,4
449,314	0,4
449,769	0,4
450,224	0,4
450,679	0,4
451,134	0,4
451,589	0,4
452,044	0,4
452,499	0,4
452,954	0,4
453,409	0,4
453,864	0,4
454,319	0,4
454,774	0,4
455,229	0,4
455,684	0,4
456,138	0,4
456,593	0,4
457,048	0,4
457,503	0,4
457,957	0,4
458,412	0,4
458,866	0,4
459,321	0,4
459,776	0,4
460,23	0,4
460,685	0,4
461,139	0,4
461,593	0,4
462,048	0,4
462,502	0,4
462,957	0,4
463,411	0,4
463,865	0,41
464,319	0,41
464,774	0,41
465,228	0,41
465,682	0,41
466,136	0,41
466,59	0,41
467,044	0,41
467,499	0,41
467,953	0,41
468,407	0,41
468,861	0,41
469,315	0,41
469,768	0,41
470,222	0,41
470,676	0,41
471,13	0,41
471,584	0,41
472,038	0,41
472,491	0,41
472,945	0,41
473,399	0,41
473,852	0,41
474,306	0,41
474,76	0,41
475,213	0,41
475,667	0,41
476,12	0,42
476,574	0,42
477,027	0,42
477,481	0,42
477,934	0,42
478,388	0,42
478,841	0,42
479,294	0,42
479,748	0,42
480,201	0,42
480,654	0,43
481,107	0,43
481,561	0,43
482,014	0,43
482,467	0,43
482,92	0,43
483,373	0,43
483,826	0,43
484,279	0,43
484,732	0,43
485,185	0,43
485,638	0,44
486,091	0,44
486,544	0,44
486,997	0,44
487,449	0,44
487,902	0,44
488,355	0,44
488,808	0,44
489,26	0,45
489,713	0,45
490,166	0,45
490,618	0,45
491,071	0,45
491,523	0,45
491,976	0,46
492,429	0,46
492,881	0,46
493,333	0,46
493,786	0,46
494,238	0,46
494,691	0,47
495,143	0,47
495,595	0,47
496,048	0,47
496,5	0,47
496,952	0,47
497,404	0,48
497,856	0,48
498,309	0,48
498,761	0,48
499,213	0,49
499,665	0,49
500,117	0,49
500,569	0,49
501,021	0,5
501,473	0,5
501,925	0,5
502,377	0,5
502,828	0,5
503,28	0,51
503,732	0,51
504,184	0,51
504,636	0,51
505,087	0,52
505,539	0,52
505,991	0,52
506,442	0,52
506,894	0,52
507,345	0,53
507,797	0,53
508,249	0,53
508,7	0,53
509,151	0,54
509,603	0,54
510,054	0,54
510,506	0,54
510,957	0,55
511,408	0,55
511,86	0,55
512,311	0,55
512,762	0,55
513,213	0,56
513,665	0,56
514,116	0,56
514,567	0,56
515,018	0,56
515,469	0,57
515,92	0,57
516,371	0,57
516,822	0,57
517,273	0,57
517,724	0,58
518,175	0,58
518,626	0,58
519,076	0,58
519,527	0,58
519,978	0,58
520,429	0,59
520,88	0,59
521,33	0,59
521,781	0,59
522,232	0,59
522,682	0,59
523,133	0,59
523,583	0,59
524,034	0,6
524,484	0,6
524,935	0,6
525,385	0,6
525,836	0,6
526,286	0,6
526,736	0,6
527,187	0,6
527,637	0,6
528,087	0,6
528,538	0,6
528,988	0,6
529,438	0,6
529,888	0,6
530,338	0,6
530,788	0,6
531,238	0,6
531,688	0,59
532,139	0,59
532,589	0,59
533,038	0,59
533,488	0,59
533,938	0,59
534,388	0,59
534,838	0,59
535,288	0,59
535,738	0,59
536,187	0,59
536,637	0,58
537,087	0,58
537,537	0,58
537,986	0,58
538,436	0,58
538,885	0,57
539,335	0,57
539,785	0,57
540,234	0,57
540,684	0,56
541,133	0,56
541,582	0,56
542,032	0,56
542,481	0,56
542,931	0,55
543,38	0,55
543,829	0,55
544,278	0,55
544,728	0,54
545,177	0,54
545,626	0,54
546,075	0,54
546,524	0,53
546,973	0,53
547,422	0,53
547,871	0,53
548,32	0,53
548,769	0,53
549,218	0,53
549,667	0,53
550,116	0,52
550,565	0,52
551,014	0,52
551,463	0,52
551,911	0,52
552,36	0,52
552,809	0,51
553,258	0,51
553,706	0,51
554,155	0,51
554,603	0,51
555,052	0,5
555,501	0,5
555,949	0,5
556,398	0,5
556,846	0,5
557,294	0,49
557,743	0,49
558,191	0,49
558,64	0,49
559,088	0,48
559,536	0,48
559,985	0,48
560,433	0,48
560,881	0,47
561,329	0,47
561,777	0,47
562,225	0,47
562,674	0,47
563,122	0,47
563,57	0,46
564,018	0,46
564,466	0,46
564,914	0,46
565,362	0,45
565,809	0,45
566,257	0,45
566,705	0,45
567,153	0,45
567,601	0,44
568,048	0,44
568,496	0,44
568,944	0,44
569,392	0,44
569,839	0,43
570,287	0,43
570,734	0,43
571,182	0,43
571,63	0,43
572,077	0,43
572,525	0,42
572,972	0,42
573,419	0,42
573,867	0,42
574,314	0,42
574,761	0,42
575,209	0,41
575,656	0,41
576,103	0,41
576,551	0,41
576,998	0,41
577,445	0,41
577,892	0,41
578,339	0,41
578,786	0,41
579,233	0,4
579,68	0,4
580,127	0,4
580,574	0,4
581,021	0,4
581,468	0,4
581,915	0,4
582,362	0,39
582,809	0,39
583,255	0,39
583,702	0,39
584,149	0,39
584,596	0,39
585,042	0,39
585,489	0,38
585,936	0,38
586,382	0,38
586,829	0,38
587,275	0,38
587,722	0,38
588,168	0,38
588,615	0,38
589,061	0,38
589,508	0,38
589,954	0,38
590,4	0,38
590,847	0,37
591,293	0,37
591,739	0,37
592,185	0,37
592,632	0,37
593,078	0,37
593,524	0,37
593,97	0,37
594,416	0,37
594,862	0,37
595,308	0,37
595,754	0,37
596,2	0,37
596,646	0,36
597,092	0,36
597,538	0,36
597,984	0,36
598,43	0,36
598,876	0,36
599,321	0,36
599,767	0,36
600,213	0,36
600,659	0,36
601,104	0,36
601,55	0,36
601,995	0,36
602,441	0,35
602,887	0,35
603,332	0,35
603,778	0,35
604,223	0,35
604,668	0,35
605,114	0,35
605,559	0,35
606,005	0,35
606,45	0,35
606,895	0,35
607,341	0,35
607,786	0,35
608,231	0,35
608,676	0,35
609,121	0,34
609,566	0,34
610,012	0,34
610,457	0,33
610,902	0,33
611,347	0,33
611,792	0,33
612,237	0,33
612,682	0,33
613,127	0,33
613,571	0,33
614,016	0,33
614,461	0,33
614,906	0,33
615,351	0,33
615,795	0,33
616,24	0,33
616,685	0,33
617,129	0,34
617,574	0,34
618,019	0,34
618,463	0,34
618,908	0,34
619,352	0,34
619,797	0,34
620,241	0,34
620,686	0,34
621,13	0,34
621,574	0,33
622,019	0,33
622,463	0,33
622,907	0,33
623,352	0,33
623,796	0,33
624,24	0,33
624,684	0,33
625,128	0,33
625,572	0,33
626,016	0,33
626,461	0,33
626,905	0,33
627,349	0,33
627,793	0,33
628,236	0,33
628,68	0,33
629,124	0,33
629,568	0,33
630,012	0,33
630,456	0,33
630,9	0,33
631,343	0,33
631,787	0,33
632,231	0,33
632,674	0,33
633,118	0,33
633,562	0,33
634,005	0,33
634,449	0,33
634,892	0,33
635,336	0,33
635,779	0,33
636,223	0,33
636,666	0,33
637,109	0,33
637,553	0,33
637,996	0,32
638,439	0,32
638,883	0,32
639,326	0,32
639,769	0,32
640,212	0,32
640,655	0,32
641,099	0,32
641,542	0,32
641,985	0,32
642,428	0,32
642,871	0,32
643,314	0,32
643,757	0,32
644,2	0,32
644,643	0,32
645,085	0,32
645,528	0,32
645,971	0,32
646,414	0,32
646,857	0,32
647,299	0,32
647,742	0,32
648,185	0,32
648,627	0,32
649,07	0,32
649,513	0,32
649,955	0,31
650,398	0,31
650,84	0,31
651,283	0,31
651,725	0,31
652,168	0,31
652,61	0,31
653,052	0,31
653,495	0,31
653,937	0,25
654,379	0,2
654,821	0,2
655,264	0,2
655,706	0,2
656,148	0,2
656,59	0,2
657,032	0,2
657,474	0,2
657,916	0,2
658,358	0,2
658,8	0,25
659,242	0,31
659,684	0,31
660,126	0,31
660,568	0,31
661,01	0,31
661,452	0,31
661,894	0,31
662,335	0,31
662,777	0,31
663,219	0,31
663,661	0,31
664,102	0,31
664,544	0,31
664,985	0,31
665,427	0,31
665,869	0,31
666,31	0,31
666,752	0,31
667,193	0,31
667,634	0,31
668,076	0,31
668,517	0,31
668,959	0,31
669,4	0,31
669,841	0,31
670,282	0,31
670,724	0,31
671,165	0,31
671,606	0,31
672,047	0,31
672,488	0,31
672,929	0,31
673,37	0,31
673,811	0,31
674,252	0,31
674,693	0,31
675,134	0,31
675,575	0,31
676,016	0,31
676,457	0,31
676,898	0,31
677,339	0,31
677,78	0,31
678,22	0,31
678,661	0,31
679,102	0,31
679,542	0,31
679,983	0,31
680,424	0,31
680,864	0,31
681,305	0,31
681,745	0,31
682,186	0,31
682,626	0,31
683,067	0,31
683,507	0,31
683,948	0,31
684,388	0,31
684,828	0,3
685,269	0,3
685,709	0,3
686,149	0,3
686,589	0,3
687,029	0,3
687,47	0,3
687,91	0,3
688,35	0,3
688,79	0,3
689,23	0,3
689,67	0,3
690,11	0,3
690,55	0,3
690,99	0,3
691,43	0,3
691,87	0,29
692,31	0,29
692,749	0,29
693,189	0,29
693,629	0,29
694,069	0,29
694,508	0,29
694,948	0,29
695,388	0,29
695,827	0,29
696,267	0,29
696,706	0,3
697,146	0,3
697,586	0,3
698,025	0,3
698,464	0,3
698,904	0,3
699,343	0,3
699,783	0,3
700,222	0,3
700,661	0,3
701,101	0,3
701,54	0,3
701,979	0,3
702,418	0,3
702,857	0,3
703,297	0,3
703,736	0,3
704,175	0,3
704,614	0,3
705,053	0,29
705,492	0,29
705,931	0,29
706,37	0,29
706,809	0,29
707,248	0,29
707,687	0,29
708,125	0,29
708,564	0,29
709,003	0,29
709,442	0,29
709,88	0,29
710,319	0,29
710,758	0,29
711,196	0,29
711,635	0,29
712,074	0,29
712,512	0,29
712,951	0,29
713,389	0,29
713,828	0,29
714,266	0,28
714,705	0,28
715,143	0,28
715,581	0,28
716,02	0,28
716,458	0,28
716,896	0,28
717,334	0,28
717,773	0,28
718,211	0,28
718,649	0,28
719,087	0,28
719,525	0,28
719,963	0,28
720,401	0,28
720,839	0,28
721,277	0,28
721,715	0,28
722,153	0,28
722,591	0,28
723,029	0,28
723,467	0,28
723,905	0,28
724,342	0,28
724,78	0,28
725,218	0,28
725,656	0,28
726,093	0,28
726,531	0,28
726,969	0,28
727,406	0,28
727,844	0,28
728,281	0,28
728,719	0,28
729,156	0,28
729,594	0,28
730,031	0,28
730,469	0,28
730,906	0,28
731,343	0,28
731,781	0,28
732,218	0,28
732,655	0,28
733,092	0,28
733,53	0,28
733,967	0,28
734,404	0,28
734,841	0,28
735,278	0,28
735,715	0,28
736,152	0,27
736,589	0,27
737,026	0,27
737,463	0,27
737,9	0,27
738,337	0,27
738,774	0,27
739,211	0,27
739,647	0,27
740,084	0,27
740,521	0,27
740,958	0,27
741,394	0,27
741,831	0,27
742,268	0,27
742,704	0,26
743,141	0,26
743,577	0,26
744,014	0,26
744,45	0,26
744,887	0,26
745,323	0,26
745,76	0,26
746,196	0,26
746,632	0,25
747,069	0,25
747,505	0,25
747,941	0,26
748,378	0,26
748,814	0,26
749,25	0,26
749,686	0,26
750,122	0,26
750,558	0,26
750,994	0,26
751,43	0,26
751,866	0,27
752,302	0,27
752,738	0,27
753,174	0,27
753,61	0,27
754,046	0,27
754,482	0,27
754,918	0,27
755,354	0,27
755,789	0,27
756,225	0,27
756,661	0,27
757,096	0,27
757,532	0,27
757,968	0,27
758,403	0,27
758,839	0,26
759,274	0,26
759,71	0,26
760,145	0,26
760,581	0,25
761,016	0,25
761,452	0,25
761,887	0,24
762,322	0,24
762,758	0,24
763,193	0,23
763,628	0,23
764,063	0,23
764,499	0,22
764,934	0,22
765,369	0,21
765,804	0,21
766,239	0,2
766,674	0,2
767,109	0,19
767,544	0,19
767,979	0,18
768,414	0,17
768,849	0,16
769,284	0,15
769,719	0,15
770,154	0,14
770,588	0,14
771,023	0,13
771,458	0,12
771,893	0,11
772,327	0,1
772,762	0,1
773,197	0,09
773,631	0,08
774,066	0,07
774,5	0,07
774,935	0,06
775,369	0,05
775,804	0,04
776,238	0,04
776,673	0,03
777,107	0,02
777,541	0,02
777,976	0,01
778,41	0,01
778,844	-0
779,279	-0
779,713	-0,01
780,147	-0,02
780,581	-0,03
781,015	-0,05
781,449	-0,05
781,883	-0,06
782,317	-0,08
782,751	-0,09
783,185	-0,1
783,619	-0,1
784,053	-0,11
784,487	-0,12
784,921	-0,12
785,355	-0,12
785,789	-0,12
786,223	-0,13
786,656	-0,14
787,09	-0,15
787,524	-0,16
787,957	-0,16
788,391	-0,18
788,825	-0,2
789,258	-0,21
789,692	-0,23
790,125	-0,25
790,559	-0,26
790,992	-0,28
791,426	-0,3
791,859	-0,32
792,293	-0,35
792,726	-0,37
793,159	-0,38
793,593	-0,4
794,026	-0,43
794,459	-0,45
794,892	-0,48
795,326	-0,51
795,759	-0,55
796,192	-0,59
796,625	-0,64
797,058	-0,66
797,491	-0,71
797,924	-0,75
798,357	-0,8
798,79	-0,84
799,223	-0,88
799,656	-0,93
800,089	-0,98
800,522	-1,02
800,955	-1,07
801,387	-1,12
801,82	-1,18
802,253	-1,24
802,686	-1,32
803,118	-1,37
803,551	-1,43
803,984	-1,47
804,416	-1,51
804,849	-1,55
805,281	-1,67
805,714	-2,01
806,146	-2,46
806,579	-2,72
807,011	-2,88
807,444	-2,97
807,876	-3,06
808,308	-3,09
808,741	-3,12
809,173	-3,17
809,605	-3,19
810,037	-3,27
810,47	-3,19
810,902	-2,99
811,334	-2,84
811,766	-2,69
812,198	-2,46
812,63	-2,04
813,062	-1,82
813,494	-1,73
813,926	-1,64
814,358	-1,59
814,79	-1,5
815,222	-1,44
815,654	-1,39
816,086	-1,33
816,518	-1,27
816,949	-1,22
817,381	-1,17
817,813	-1,16
818,245	-1,11
818,676	-1,07
819,108	-1,04
819,54	-1,02
819,971	-1
820,403	-0,95
820,834	-0,93
821,266	-0,89
821,697	-0,86
822,129	-0,85
822,56	-0,82
822,991	-0,79
823,423	-0,77
823,854	-0,76
824,286	-0,73
824,717	-0,72
825,148	-0,7
825,579	-0,7
826,01	-0,68
826,442	-0,67
826,873	-0,66
827,304	-0,62
827,735	-0,62
828,166	-0,62
828,597	-0,61
829,028	-0,61
829,459	-0,61
829,89	-0,61
830,321	-0,57
830,752	-0,57
831,183	-0,56
831,613	-0,56
832,044	-0,55
832,475	-0,54
832,906	-0,55
833,336	-0,55
833,767	-0,55
834,198	-0,53
834,628	-0,5
835,059	-0,53
835,49	-0,54
835,92	-0,51
836,351	-0,52
836,781	-0,52
837,212	-0,53
837,642	-0,53
838,072	-0,51
838,503	-0,52
838,933	-0,5
839,364	-0,52
839,794	-0,49
840,224	-0,48
840,654	-0,53
841,085	-0,53
841,515	-0,5
841,945	-0,5
842,375	-0,45
842,805	-0,44
843,235	-0,42
843,665	-0,44
844,095	-0,42
844,525	-0,44
844,955	-0,45
845,385	-0,42
845,815	-0,41
846,245	-0,43
846,675	-0,44
847,105	-0,46
847,534	-0,47
847,964	-0,46
848,394	-0,45
848,824	-0,48
849,253	-0,48
849,683	-0,48
850,112	-0,49
850,542	-0,51
850,972	-0,51
851,401	-0,5
851,831	-0,48
852,26	-0,49
852,69	-0,52
853,119	-0,52
853,548	-0,53
853,978	-0,53
854,407	-0,5
854,836	-0,51
855,266	-0,5
855,695	-0,52
856,124	-0,53
856,553	-0,53
856,983	-0,56
857,412	-0,54
857,841	-0,55
858,27	-0,55
858,699	-0,56
859,128	-0,59
859,557	-0,61
859,986	-0,63
860,415	-0,6
860,844	-0,57
861,273	-0,58
861,702	-0,58
862,13	-0,56
862,559	-0,58
862,988	-0,57
863,417	-0,56
863,845	-0,56
864,274	-0,56
864,703	-0,55
865,131	-0,55
865,56	-0,56
865,989	-0,58
866,417	-0,56
866,846	-0,56
867,274	-0,55
867,703	-0,57
868,131	-0,58
868,559	-0,56
868,988	-0,58
869,416	-0,57
869,844	-0,58
870,273	-0,6
870,701	-0,58
871,129	-0,62
871,557	-0,65
871,986	-0,64
872,414	-0,65
872,842	-0,63
873,27	-0,62
873,698	-0,58
874,126	-0,62
874,554	-0,6
874,982	-0,6
875,41	-0,63
875,838	-0,58
876,266	-0,56
876,694	-0,56
877,122	-0,55
877,549	-0,61
877,977	-0,58
878,405	-0,62
878,833	-0,59
879,26	-0,58
879,688	-0,57
880,116	-0,54
880,543	-0,53
880,971	-0,52
881,399	-0,55
881,826	-0,54
882,254	-0,53
882,681	-0,57
883,109	-0,52
883,536	-0,52
883,963	-0,54
884,391	-0,54
884,818	-0,52
885,245	-0,56
885,673	-0,57
886,1	-0,54
886,527	-0,55
886,954	-0,5
887,381	-0,51
887,809	-0,53
888,236	-0,55
888,663	-0,56
889,09	-0,6
889,517	-0,62
889,944	-0,62
890,371	-0,61
890,798	-0,61
891,225	-0,61
891,652	-0,65
892,078	-0,63
892,505	-0,66
892,932	-0,61
893,359	-0,61
893,786	-0,61
894,212	-0,58
894,639	-0,6
895,066	-0,62
895,492	-0,57
895,919	-0,57
896,346	-0,57
896,772	-0,56
897,199	-0,53
897,625	-0,56
898,052	-0,52
898,478	-0,51
898,904	-0,52
899,331	-0,52
899,757	-0,53
900,183	-0,55
900,61	-0,53
901,036	-0,53
901,462	-0,53
901,888	-0,52
902,315	-0,5
902,741	-0,55
903,167	-0,53
903,593	-0,56
904,019	-0,55
904,445	-0,52
904,871	-0,55
905,297	-0,56
905,723	-0,56
906,149	-0,55
906,575	-0,57
907,001	-0,57
907,427	-0,54
907,852	-0,53
908,278	-0,54
908,704	-0,51
909,13	-0,5
909,555	-0,49
909,981	-0,48
910,407	-0,49
910,832	-0,49
911,258	-0,49
911,684	-0,49
912,109	-0,5
912,535	-0,51
912,96	-0,47
913,386	-0,52
913,811	-0,51
914,236	-0,54
914,662	-0,52
915,087	-0,55
915,512	-0,56
915,938	-0,57
916,363	-0,56
916,788	-0,57
917,213	-0,56
917,639	-0,61
918,064	-0,59
918,489	-0,59
918,914	-0,59
919,339	-0,6
919,764	-0,57
920,189	-0,56
920,614	-0,58
921,039	-0,59
921,464	-0,55
921,889	-0,58
922,314	-0,59
922,738	-0,61
923,163	-0,62
923,588	-0,62
924,013	-0,61
924,437	-0,61
924,862	-0,63
925,287	-0,59
925,711	-0,6
926,136	-0,62
926,561	-0,6
926,985	-0,58
927,41	-0,56
927,834	-0,53
928,259	-0,5
928,683	-0,5
929,108	-0,47
929,532	-0,47
929,956	-0,47
930,381	-0,46
930,805	-0,45
931,229	-0,44
931,653	-0,43
932,078	-0,42
932,502	-0,44
932,926	-0,45
933,35	-0,44
933,774	-0,44
934,198	-0,43
934,622	-0,42
935,046	-0,43
935,47	-0,43
935,894	-0,42
936,318	-0,42
936,742	-0,42
937,166	-0,42
937,59	-0,42
938,014	-0,44
938,437	-0,44
938,861	-0,45
939,285	-0,46
939,709	-0,45
940,132	-0,46
940,556	-0,47
940,98	-0,47
941,403	-0,45
941,827	-0,46
942,25	-0,47
942,674	-0,46
943,097	-0,45
943,521	-0,46
943,944	-0,46
944,368	-0,46
944,791	-0,44
945,214	-0,46
945,638	-0,46
946,061	-0,5
946,484	-0,5
946,907	-0,49
947,331	-0,49
947,754	-0,52
948,177	-0,49
948,6	-0,49
949,023	-0,49
949,446	-0,5
949,869	-0,47
950,292	-0,48
950,715	-0,44
951,138	-0,43
951,561	-0,41
951,984	-0,41
952,407	-0,4
952,83	-0,39
953,252	-0,35
953,675	-0,34
954,098	-0,34
954,521	-0,33
954,943	-0,31
955,366	-0,32
955,789	-0,3
956,211	-0,32
956,634	-0,33
957,056	-0,31
957,479	-0,33
957,902	-0,35
958,324	-0,36
958,746	-0,35
959,169	-0,36
959,591	-0,37
960,014	-0,38
960,436	-0,38
960,858	-0,37
961,281	-0,37
961,703	-0,38
962,125	-0,38
962,547	-0,36
962,969	-0,37
963,391	-0,38
963,814	-0,39
964,236	-0,38
964,658	-0,35
965,08	-0,36
965,502	-0,36
965,924	-0,33
966,346	-0,34
966,768	-0,33
967,189	-0,35
967,611	-0,34
968,033	-0,34
968,455	-0,32
968,877	-0,33
969,298	-0,34
969,72	-0,34
970,142	-0,33
970,563	-0,34
970,985	-0,31
971,407	-0,31
971,828	-0,29
972,25	-0,29
972,671	-0,28
973,093	-0,27
973,514	-0,27
973,936	-0,25
974,357	-0,24
974,778	-0,24
975,2	-0,25
975,621	-0,24
976,042	-0,22
976,464	-0,22
976,885	-0,2
977,306	-0,19
977,727	-0,19
978,148	-0,18
978,57	-0,17
978,991	-0,15
979,412	-0,14
979,833	-0,13
980,254	-0,12
980,675	-0,13
981,096	-0,12
981,517	-0,11
981,937	-0,1
982,358	-0,09
982,779	-0,07
983,2	-0,07
983,621	-0,07
984,042	-0,06
984,462	-0,05
984,883	-0,04
985,304	-0,03
985,724	-0,02
986,145	-0,01
986,565	0
986,986	0,01
987,407	0,01
987,827	0,03
988,248	0,03
988,668	0,04
989,088	0,05
989,509	0,06
989,929	0,07
990,35	0,07
990,77	0,08
991,19	0,09
991,61	0,1
992,031	0,1
992,451	0,11
992,871	0,12
993,291	0,12
993,711	0,13
994,131	0,13
994,551	0,14
994,971	0,14
995,391	0,14
995,811	0,15
996,231	0,15
996,651	0,15
997,071	0,16
997,491	0,16
997,911	0,17
998,331	0,18
998,75	0,18
999,17	0,18
999,59	0,19
1000,009	0,19
1000,429	0,19
1000,849	0,2
1001,268	0,2
1001,688	0,2
1002,107	0,2
1002,527	0,21
1002,946	0,21
1003,366	0,21
1003,785	0,21
1004,205	0,21
1004,624	0,22
1005,044	0,22
1005,463	0,22
1005,882	0,22
1006,301	0,22
1006,721	0,22
1007,14	0,22
1007,559	0,22
1007,978	0,22
1008,397	0,22
1008,816	0,22
1009,235	0,22
1009,655	0,22
1010,074	0,22
1010,492	0,22
1010,911	0,22
1011,33	0,22
1011,749	0,21
1012,168	0,21
1012,587	0,21
1013,006	0,21
1013,425	0,21
1013,843	0,21
1014,262	0,21
1014,681	0,21
1015,099	0,21
1015,518	0,21
1015,937	0,21
1016,355	0,21
1016,774	0,21
1017,192	0,21
1017,611	0,21
1018,029	0,21
1018,448	0,21
1018,866	0,21
1019,285	0,21
1019,703	0,21
1020,121	0,21
1020,54	0,22
1020,958	0,22
1021,376	0,22
1021,794	0,22
1022,213	0,22
1022,631	0,22
1023,049	0,22
1023,467	0,22
1023,885	0,22
1024,303	0,21
1024,721	0,21
1025,139	0,21
1025,557	0,21
1025,975	0,21
1026,393	0,21
1026,811	0,21
1027,229	0,21
1027,647	0,21
1028,065	0,21
1028,482	0,21
1028,9	0,21
1029,318	0,21
1029,735	0,21
1030,153	0,21
1030,571	0,21
1030,988	0,21
1031,406	0,21
1031,823	0,21
1032,241	0,21
1032,659	0,21
1033,076	0,21
1033,493	0,21
1033,911	0,21
1034,328	0,21
1034,746	0,21
1035,163	0,21
1035,58	0,21
1035,997	0,21
1036,415	0,21
1036,832	0,21
1037,249	0,2
1037,666	0,2
1038,083	0,2
1038,501	0,2
1038,918	0,2
1039,335	0,2
1039,752	0,2
1040,169	0,2
1040,586	0,2
1041,003	0,2
1041,419	0,2
1041,836	0,2
1042,253	0,2
1042,67	0,2
1043,087	0,2
1043,504	0,2
1043,92	0,2
1044,337	0,2
1044,754	0,2
1045,17	0,2
1045,587	0,2
1046,004	0,19
1046,42	0,19
1046,837	0,19
1047,253	0,19
1047,67	0,19
1048,086	0,19
1048,503	0,19
1048,919	0,19
1049,335	0,19
1049,752	0,19
1050,168	0,19
1050,584	0,19
1051,001	0,19
1051,417	0,19
1051,833	0,19
1052,249	0,19
1052,665	0,19
1053,081	0,19
1053,497	0,19
1053,914	0,19
1054,33	0,2
1054,746	0,2
1055,162	0,2
1055,578	0,2
1055,993	0,2
1056,409	0,2
1056,825	0,2
1057,241	0,2
1057,657	0,2
1058,073	0,2
1058,488	0,2
1058,904	0,2
1059,32	0,2
1059,736	0,2
1060,151	0,2
1060,567	0,2
1060,982	0,2
1061,398	0,2
1061,813	0,2
1062,229	0,2
1062,644	0,2
1063,06	0,2
1063,475	0,2
1063,891	0,2
1064,306	0,2
1064,721	0,2
1065,137	0,2
1065,552	0,2
1065,967	0,19
1066,382	0,19
1066,798	0,19
1067,213	0,19
1067,628	0,2
1068,043	0,2
1068,458	0,2
1068,873	0,2
1069,288	0,2
1069,703	0,2
1070,118	0,2
1070,533	0,2
1070,948	0,2
1071,363	0,2
1071,778	0,2
1072,193	0,2
1072,607	0,2
1073,022	0,2
1073,437	0,2
1073,852	0,2
1074,266	0,2
1074,681	0,21
1075,096	0,21
1075,51	0,21
1075,925	0,21
1076,339	0,21
1076,754	0,2
1077,168	0,2
1077,583	0,2
1077,997	0,2
1078,412	0,2
1078,826	0,2
1079,24	0,2
1079,655	0,2
1080,069	0,2
1080,483	0,2
1080,897	0,2
1081,312	0,2
1081,726	0,2
1082,14	0,2
1082,554	0,2
1082,968	0,2
1083,382	0,2
1083,796	0,19
1084,21	0,19
1084,624	0,19
1085,038	0,19
1085,452	0,19
1085,866	0,19
1086,28	0,19
1086,694	0,19
1087,108	0,19
1087,521	0,19
1087,935	0,18
1088,349	0,18
1088,763	0,18
1089,176	0,18
1089,59	0,18
1090,004	0,18
1090,417	0,17
1090,831	0,17
1091,244	0,17
1091,658	0,17
1092,071	0,17
1092,485	0,17
1092,898	0,17
1093,312	0,17
1093,725	0,17
1094,138	0,17
1094,552	0,16
1094,965	0,16
1095,378	0,16
1095,791	0,16
1096,205	0,16
1096,618	0,16
1097,031	0,16
1097,444	0,16
1097,857	0,16
1098,27	0,15
1098,683	0,15
1099,096	0,15
1099,509	0,15
1099,922	0,15
1100,335	0,15
1100,748	0,14
1101,161	0,14
1101,574	0,14
1101,986	0,13
1102,399	0,13
1102,812	0,13
1103,225	0,12
1103,637	0,12
1104,05	0,12
1104,463	0,12
1104,875	0,12
1105,288	0,12
1105,7	0,11
1106,113	0,11
1106,525	0,11
1106,938	0,11
1107,35	0,1
1107,763	0,1
1108,175	0,1
1108,588	0,1
1109	0,1
1109,412	0,09
1109,824	0,09
1110,237	0,09
1110,649	0,09
1111,061	0,1
