Data from 18C-808nm-8A_Absorbance__1183__01183.txt Node

Date: Mon Jul 17 17:05:41 CEST 2023
User: Laser008
Spectrometer: MAYP115816
Trigger mode: 0
Integration Time (sec): 2,500000E-1
Scans to average: 10
Electric dark correction enabled: true
Nonlinearity correction enabled: true
Boxcar width: 5
XAxis mode: Wavelengths
Number of Pixels in Spectrum: 2068
>>>>>Begin Spectral Data<<<<<
198,914	-0,67
199,384	-0,47
199,855	-0,36
200,325	-0,27
200,796	-0,25
201,266	-0,19
201,737	-0,18
202,207	-0,17
202,677	-0,16
203,147	-0,15
203,618	-0,12
204,088	-0,1
204,558	-0,09
205,028	-0,08
205,498	-0,09
205,968	-0,09
206,439	-0,11
206,909	-0,1
207,379	-0,11
207,849	-0,12
208,319	-0,12
208,789	-0,13
209,258	-0,13
209,728	-0,14
210,198	-0,14
210,668	-0,14
211,138	-0,13
211,608	-0,13
212,077	-0,14
212,547	-0,12
213,017	-0,13
213,486	-0,12
213,956	-0,13
214,426	-0,14
214,895	-0,14
215,365	-0,15
215,834	-0,16
216,304	-0,16
216,773	-0,17
217,243	-0,18
217,712	-0,19
218,181	-0,19
218,651	-0,19
219,12	-0,18
219,589	-0,17
220,058	-0,15
220,528	-0,16
220,997	-0,16
221,466	-0,17
221,935	-0,17
222,404	-0,16
222,873	-0,16
223,342	-0,16
223,812	-0,17
224,281	-0,17
224,749	-0,17
225,218	-0,19
225,687	-0,19
226,156	-0,18
226,625	-0,16
227,094	-0,16
227,563	-0,16
228,031	-0,18
228,5	-0,17
228,969	-0,18
229,438	-0,17
229,906	-0,16
230,375	-0,15
230,844	-0,15
231,312	-0,15
231,781	-0,16
232,249	-0,16
232,718	-0,16
233,186	-0,14
233,655	-0,15
234,123	-0,14
234,591	-0,15
235,06	-0,15
235,528	-0,16
235,996	-0,15
236,465	-0,15
236,933	-0,15
237,401	-0,14
237,869	-0,13
238,337	-0,13
238,805	-0,12
239,274	-0,11
239,742	-0,11
240,21	-0,1
240,678	-0,1
241,146	-0,1
241,614	-0,1
242,081	-0,09
242,549	-0,09
243,017	-0,1
243,485	-0,1
243,953	-0,11
244,421	-0,1
244,888	-0,1
245,356	-0,11
245,824	-0,1
246,291	-0,1
246,759	-0,11
247,227	-0,11
247,694	-0,1
248,162	-0,1
248,629	-0,09
249,097	-0,09
249,564	-0,1
250,032	-0,12
250,499	-0,12
250,967	-0,13
251,434	-0,14
251,901	-0,13
252,369	-0,13
252,836	-0,15
253,303	-0,16
253,77	-0,17
254,237	-0,16
254,705	-0,16
255,172	-0,15
255,639	-0,15
256,106	-0,16
256,573	-0,16
257,04	-0,16
257,507	-0,17
257,974	-0,16
258,441	-0,14
258,908	-0,15
259,375	-0,16
259,841	-0,17
260,308	-0,18
260,775	-0,18
261,242	-0,17
261,709	-0,18
262,175	-0,19
262,642	-0,19
263,109	-0,18
263,575	-0,2
264,042	-0,19
264,508	-0,19
264,975	-0,21
265,441	-0,22
265,908	-0,21
266,374	-0,21
266,841	-0,21
267,307	-0,21
267,773	-0,2
268,24	-0,2
268,706	-0,21
269,172	-0,21
269,639	-0,22
270,105	-0,2
270,571	-0,19
271,037	-0,2
271,503	-0,21
271,969	-0,21
272,435	-0,2
272,902	-0,21
273,368	-0,22
273,834	-0,22
274,3	-0,22
274,765	-0,22
275,231	-0,22
275,697	-0,21
276,163	-0,2
276,629	-0,21
277,095	-0,22
277,56	-0,21
278,026	-0,22
278,492	-0,2
278,958	-0,2
279,423	-0,2
279,889	-0,19
280,354	-0,2
280,82	-0,2
281,286	-0,21
281,751	-0,22
282,217	-0,2
282,682	-0,2
283,147	-0,2
283,613	-0,2
284,078	-0,2
284,544	-0,22
285,009	-0,23
285,474	-0,22
285,939	-0,24
286,405	-0,22
286,87	-0,21
287,335	-0,21
287,8	-0,21
288,265	-0,2
288,73	-0,22
289,195	-0,24
289,66	-0,24
290,125	-0,22
290,59	-0,22
291,055	-0,22
291,52	-0,22
291,985	-0,22
292,45	-0,24
292,915	-0,23
293,38	-0,24
293,844	-0,22
294,309	-0,2
294,774	-0,19
295,239	-0,2
295,703	-0,2
296,168	-0,19
296,632	-0,18
297,097	-0,17
297,562	-0,16
298,026	-0,18
298,491	-0,18
298,955	-0,17
299,419	-0,17
299,884	-0,16
300,348	-0,16
300,813	-0,15
301,277	-0,16
301,741	-0,15
302,205	-0,15
302,67	-0,15
303,134	-0,14
303,598	-0,14
304,062	-0,14
304,526	-0,14
304,99	-0,16
305,454	-0,16
305,919	-0,15
306,383	-0,15
306,847	-0,15
307,31	-0,16
307,774	-0,16
308,238	-0,16
308,702	-0,14
309,166	-0,15
309,63	-0,15
310,094	-0,12
310,557	-0,12
311,021	-0,12
311,485	-0,11
311,948	-0,11
312,412	-0,1
312,876	-0,1
313,339	-0,11
313,803	-0,12
314,266	-0,12
314,73	-0,13
315,193	-0,13
315,657	-0,12
316,12	-0,12
316,584	-0,12
317,047	-0,12
317,51	-0,11
317,973	-0,1
318,437	-0,09
318,9	-0,09
319,363	-0,07
319,826	-0,06
320,29	-0,07
320,753	-0,07
321,216	-0,07
321,679	-0,07
322,142	-0,07
322,605	-0,09
323,068	-0,08
323,531	-0,09
323,994	-0,07
324,457	-0,07
324,92	-0,06
325,382	-0,06
325,845	-0,05
326,308	-0,04
326,771	-0,04
327,233	-0,03
327,696	-0,01
328,159	-0,01
328,622	0,01
329,084	-0
329,547	0,01
330,009	0
330,472	0,02
330,934	0,02
331,397	0,02
331,859	0,04
332,322	0,03
332,784	0,03
333,246	0,03
333,709	0,02
334,171	0,03
334,633	0,03
335,096	0,02
335,558	0,01
336,02	0,01
336,482	0,02
336,944	0,02
337,406	0,03
337,868	0,04
338,331	0,04
338,793	0,05
339,255	0,05
339,717	0,06
340,178	0,07
340,64	0,08
341,102	0,08
341,564	0,09
342,026	0,1
342,488	0,1
342,949	0,12
343,411	0,14
343,873	0,16
344,335	0,18
344,796	0,2
345,258	0,23
345,719	0,26
346,181	0,29
346,643	0,32
347,104	0,34
347,566	0,36
348,027	0,38
348,488	0,39
348,95	0,4
349,411	0,41
349,873	0,42
350,334	0,44
350,795	0,44
351,256	0,45
351,718	0,45
352,179	0,46
352,64	0,46
353,101	0,46
353,562	0,46
354,023	0,46
354,484	0,47
354,945	0,47
355,406	0,47
355,867	0,47
356,328	0,47
356,789	0,47
357,25	0,47
357,711	0,47
358,172	0,48
358,633	0,48
359,093	0,48
359,554	0,48
360,015	0,48
360,476	0,48
360,936	0,48
361,397	0,48
361,858	0,48
362,318	0,48
362,779	0,48
363,239	0,48
363,7	0,48
364,16	0,48
364,621	0,48
365,081	0,48
365,541	0,48
366,002	0,48
366,462	0,48
366,922	0,48
367,383	0,48
367,843	0,48
368,303	0,48
368,763	0,48
369,223	0,48
369,684	0,48
370,144	0,48
370,604	0,48
371,064	0,48
371,524	0,48
371,984	0,48
372,444	0,48
372,904	0,48
373,363	0,48
373,823	0,48
374,283	0,48
374,743	0,48
375,203	0,48
375,663	0,48
376,122	0,48
376,582	0,48
377,042	0,48
377,501	0,48
377,961	0,48
378,42	0,48
378,88	0,48
379,34	0,48
379,799	0,48
380,259	0,48
380,718	0,48
381,177	0,47
381,637	0,47
382,096	0,47
382,555	0,47
383,015	0,47
383,474	0,47
383,933	0,47
384,393	0,47
384,852	0,47
385,311	0,47
385,77	0,47
386,229	0,47
386,688	0,47
387,147	0,47
387,606	0,47
388,065	0,47
388,524	0,47
388,983	0,47
389,442	0,47
389,901	0,47
390,36	0,47
390,819	0,47
391,277	0,47
391,736	0,47
392,195	0,47
392,654	0,47
393,112	0,47
393,571	0,47
394,03	0,47
394,488	0,47
394,947	0,47
395,405	0,47
395,864	0,47
396,322	0,47
396,781	0,47
397,239	0,47
397,698	0,47
398,156	0,47
398,614	0,47
399,073	0,47
399,531	0,47
399,989	0,47
400,447	0,47
400,905	0,47
401,364	0,47
401,822	0,46
402,28	0,46
402,738	0,46
403,196	0,46
403,654	0,46
404,112	0,46
404,57	0,46
405,028	0,46
405,486	0,46
405,944	0,46
406,402	0,46
406,859	0,46
407,317	0,46
407,775	0,46
408,233	0,46
408,691	0,46
409,148	0,46
409,606	0,46
410,064	0,46
410,521	0,46
410,979	0,46
411,436	0,46
411,894	0,46
412,351	0,46
412,809	0,46
413,266	0,46
413,724	0,46
414,181	0,46
414,638	0,46
415,096	0,46
415,553	0,46
416,01	0,46
416,467	0,46
416,925	0,46
417,382	0,46
417,839	0,46
418,296	0,46
418,753	0,46
419,21	0,46
419,667	0,46
420,124	0,46
420,581	0,46
421,038	0,46
421,495	0,46
421,952	0,46
422,409	0,46
422,866	0,46
423,322	0,46
423,779	0,46
424,236	0,46
424,693	0,46
425,149	0,46
425,606	0,46
426,063	0,46
426,519	0,46
426,976	0,46
427,433	0,46
427,889	0,46
428,346	0,46
428,802	0,46
429,258	0,46
429,715	0,45
430,171	0,45
430,628	0,45
431,084	0,45
431,54	0,45
431,997	0,45
432,453	0,45
432,909	0,45
433,365	0,45
433,821	0,45
434,277	0,45
434,734	0,45
435,19	0,45
435,646	0,45
436,102	0,45
436,558	0,45
437,014	0,45
437,47	0,45
437,925	0,45
438,381	0,45
438,837	0,45
439,293	0,45
439,749	0,45
440,205	0,45
440,66	0,45
441,116	0,45
441,572	0,45
442,027	0,45
442,483	0,45
442,939	0,45
443,394	0,45
443,85	0,45
444,305	0,45
444,761	0,45
445,216	0,45
445,672	0,45
446,127	0,45
446,582	0,45
447,038	0,45
447,493	0,45
447,948	0,45
448,403	0,45
448,859	0,45
449,314	0,45
449,769	0,45
450,224	0,45
450,679	0,45
451,134	0,45
451,589	0,45
452,044	0,45
452,499	0,45
452,954	0,45
453,409	0,45
453,864	0,45
454,319	0,45
454,774	0,45
455,229	0,45
455,684	0,45
456,138	0,45
456,593	0,45
457,048	0,45
457,503	0,45
457,957	0,45
458,412	0,45
458,866	0,45
459,321	0,45
459,776	0,45
460,23	0,46
460,685	0,46
461,139	0,46
461,593	0,46
462,048	0,46
462,502	0,46
462,957	0,46
463,411	0,46
463,865	0,46
464,319	0,46
464,774	0,46
465,228	0,46
465,682	0,46
466,136	0,46
466,59	0,46
467,044	0,46
467,499	0,46
467,953	0,46
468,407	0,46
468,861	0,46
469,315	0,46
469,768	0,46
470,222	0,47
470,676	0,47
471,13	0,47
471,584	0,47
472,038	0,47
472,491	0,47
472,945	0,47
473,399	0,47
473,852	0,47
474,306	0,47
474,76	0,47
475,213	0,47
475,667	0,47
476,12	0,47
476,574	0,47
477,027	0,47
477,481	0,47
477,934	0,47
478,388	0,48
478,841	0,48
479,294	0,48
479,748	0,48
480,201	0,48
480,654	0,48
481,107	0,48
481,561	0,48
482,014	0,48
482,467	0,49
482,92	0,49
483,373	0,49
483,826	0,49
484,279	0,49
484,732	0,49
485,185	0,49
485,638	0,49
486,091	0,49
486,544	0,49
486,997	0,49
487,449	0,5
487,902	0,5
488,355	0,5
488,808	0,5
489,26	0,5
489,713	0,5
490,166	0,5
490,618	0,51
491,071	0,51
491,523	0,51
491,976	0,51
492,429	0,51
492,881	0,52
493,333	0,52
493,786	0,52
494,238	0,52
494,691	0,52
495,143	0,53
495,595	0,53
496,048	0,53
496,5	0,53
496,952	0,53
497,404	0,54
497,856	0,54
498,309	0,54
498,761	0,54
499,213	0,55
499,665	0,55
500,117	0,55
500,569	0,55
501,021	0,56
501,473	0,56
501,925	0,56
502,377	0,56
502,828	0,57
503,28	0,57
503,732	0,57
504,184	0,57
504,636	0,58
505,087	0,58
505,539	0,58
505,991	0,58
506,442	0,58
506,894	0,59
507,345	0,59
507,797	0,59
508,249	0,59
508,7	0,6
509,151	0,6
509,603	0,6
510,054	0,6
510,506	0,61
510,957	0,61
511,408	0,61
511,86	0,61
512,311	0,62
512,762	0,62
513,213	0,62
513,665	0,62
514,116	0,62
514,567	0,63
515,018	0,63
515,469	0,63
515,92	0,63
516,371	0,64
516,822	0,64
517,273	0,64
517,724	0,64
518,175	0,64
518,626	0,65
519,076	0,65
519,527	0,65
519,978	0,65
520,429	0,65
520,88	0,65
521,33	0,65
521,781	0,65
522,232	0,66
522,682	0,66
523,133	0,66
523,583	0,66
524,034	0,66
524,484	0,66
524,935	0,66
525,385	0,66
525,836	0,67
526,286	0,67
526,736	0,67
527,187	0,67
527,637	0,67
528,087	0,66
528,538	0,66
528,988	0,66
529,438	0,66
529,888	0,66
530,338	0,66
530,788	0,66
531,238	0,66
531,688	0,66
532,139	0,66
532,589	0,66
533,038	0,66
533,488	0,66
533,938	0,66
534,388	0,66
534,838	0,66
535,288	0,65
535,738	0,65
536,187	0,65
536,637	0,65
537,087	0,65
537,537	0,64
537,986	0,64
538,436	0,64
538,885	0,64
539,335	0,64
539,785	0,63
540,234	0,63
540,684	0,63
541,133	0,63
541,582	0,62
542,032	0,62
542,481	0,62
542,931	0,61
543,38	0,61
543,829	0,61
544,278	0,61
544,728	0,6
545,177	0,6
545,626	0,6
546,075	0,6
546,524	0,59
546,973	0,59
547,422	0,59
547,871	0,59
548,32	0,59
548,769	0,59
549,218	0,59
549,667	0,58
550,116	0,58
550,565	0,58
551,014	0,58
551,463	0,58
551,911	0,58
552,36	0,57
552,809	0,57
553,258	0,57
553,706	0,57
554,155	0,56
554,603	0,56
555,052	0,56
555,501	0,56
555,949	0,55
556,398	0,55
556,846	0,55
557,294	0,55
557,743	0,55
558,191	0,54
558,64	0,54
559,088	0,54
559,536	0,53
559,985	0,53
560,433	0,53
560,881	0,53
561,329	0,53
561,777	0,52
562,225	0,52
562,674	0,52
563,122	0,52
563,57	0,52
564,018	0,51
564,466	0,51
564,914	0,51
565,362	0,51
565,809	0,5
566,257	0,5
566,705	0,5
567,153	0,5
567,601	0,49
568,048	0,49
568,496	0,49
568,944	0,49
569,392	0,49
569,839	0,48
570,287	0,48
570,734	0,48
571,182	0,48
571,63	0,48
572,077	0,48
572,525	0,47
572,972	0,47
573,419	0,47
573,867	0,47
574,314	0,47
574,761	0,46
575,209	0,46
575,656	0,46
576,103	0,46
576,551	0,46
576,998	0,46
577,445	0,46
577,892	0,45
578,339	0,45
578,786	0,45
579,233	0,45
579,68	0,45
580,127	0,45
580,574	0,45
581,021	0,44
581,468	0,44
581,915	0,44
582,362	0,44
582,809	0,44
583,255	0,44
583,702	0,44
584,149	0,43
584,596	0,43
585,042	0,43
585,489	0,43
585,936	0,43
586,382	0,43
586,829	0,43
587,275	0,43
587,722	0,43
588,168	0,42
588,615	0,42
589,061	0,42
589,508	0,42
589,954	0,42
590,4	0,42
590,847	0,42
591,293	0,42
591,739	0,42
592,185	0,42
592,632	0,41
593,078	0,41
593,524	0,41
593,97	0,41
594,416	0,41
594,862	0,41
595,308	0,41
595,754	0,41
596,2	0,41
596,646	0,41
597,092	0,41
597,538	0,41
597,984	0,4
598,43	0,4
598,876	0,4
599,321	0,4
599,767	0,4
600,213	0,4
600,659	0,4
601,104	0,4
601,55	0,4
601,995	0,4
602,441	0,4
602,887	0,4
603,332	0,4
603,778	0,39
604,223	0,39
604,668	0,39
605,114	0,39
605,559	0,39
606,005	0,39
606,45	0,39
606,895	0,39
607,341	0,39
607,786	0,39
608,231	0,39
608,676	0,39
609,121	0,38
609,566	0,38
610,012	0,38
610,457	0,37
610,902	0,37
611,347	0,37
611,792	0,37
612,237	0,37
612,682	0,37
613,127	0,37
613,571	0,37
614,016	0,37
614,461	0,37
614,906	0,37
615,351	0,37
615,795	0,37
616,24	0,37
616,685	0,37
617,129	0,37
617,574	0,38
618,019	0,38
618,463	0,38
618,908	0,38
619,352	0,38
619,797	0,38
620,241	0,38
620,686	0,37
621,13	0,37
621,574	0,37
622,019	0,37
622,463	0,37
622,907	0,37
623,352	0,37
623,796	0,37
624,24	0,37
624,684	0,37
625,128	0,37
625,572	0,37
626,016	0,37
626,461	0,37
626,905	0,37
627,349	0,37
627,793	0,37
628,236	0,37
628,68	0,37
629,124	0,37
629,568	0,37
630,012	0,37
630,456	0,37
630,9	0,37
631,343	0,37
631,787	0,37
632,231	0,37
632,674	0,37
633,118	0,37
633,562	0,37
634,005	0,37
634,449	0,37
634,892	0,37
635,336	0,37
635,779	0,37
636,223	0,37
636,666	0,36
637,109	0,36
637,553	0,36
637,996	0,36
638,439	0,36
638,883	0,36
639,326	0,36
639,769	0,36
640,212	0,36
640,655	0,36
641,099	0,36
641,542	0,36
641,985	0,36
642,428	0,36
642,871	0,36
643,314	0,36
643,757	0,36
644,2	0,36
644,643	0,36
645,085	0,36
645,528	0,36
645,971	0,36
646,414	0,36
646,857	0,36
647,299	0,36
647,742	0,36
648,185	0,36
648,627	0,35
649,07	0,35
649,513	0,35
649,955	0,35
650,398	0,35
650,84	0,35
651,283	0,35
651,725	0,35
652,168	0,35
652,61	0,35
653,052	0,35
653,495	0,35
653,937	0,27
654,379	0,22
654,821	0,22
655,264	0,23
655,706	0,23
656,148	0,23
656,59	0,23
657,032	0,23
657,474	0,23
657,916	0,23
658,358	0,22
658,8	0,28
659,242	0,35
659,684	0,35
660,126	0,35
660,568	0,35
661,01	0,35
661,452	0,35
661,894	0,35
662,335	0,35
662,777	0,35
663,219	0,35
663,661	0,35
664,102	0,35
664,544	0,35
664,985	0,35
665,427	0,35
665,869	0,35
666,31	0,35
666,752	0,35
667,193	0,35
667,634	0,35
668,076	0,35
668,517	0,35
668,959	0,35
669,4	0,35
669,841	0,35
670,282	0,35
670,724	0,35
671,165	0,35
671,606	0,35
672,047	0,35
672,488	0,35
672,929	0,35
673,37	0,35
673,811	0,35
674,252	0,35
674,693	0,34
675,134	0,34
675,575	0,34
676,016	0,34
676,457	0,34
676,898	0,34
677,339	0,34
677,78	0,34
678,22	0,34
678,661	0,34
679,102	0,34
679,542	0,34
679,983	0,34
680,424	0,34
680,864	0,34
681,305	0,34
681,745	0,34
682,186	0,34
682,626	0,34
683,067	0,34
683,507	0,34
683,948	0,34
684,388	0,34
684,828	0,34
685,269	0,34
685,709	0,34
686,149	0,34
686,589	0,34
687,029	0,34
687,47	0,34
687,91	0,34
688,35	0,34
688,79	0,33
689,23	0,33
689,67	0,33
690,11	0,33
690,55	0,33
690,99	0,33
691,43	0,33
691,87	0,33
692,31	0,33
692,749	0,33
693,189	0,33
693,629	0,33
694,069	0,33
694,508	0,33
694,948	0,33
695,388	0,33
695,827	0,33
696,267	0,33
696,706	0,33
697,146	0,33
697,586	0,33
698,025	0,34
698,464	0,34
698,904	0,34
699,343	0,34
699,783	0,34
700,222	0,34
700,661	0,34
701,101	0,34
701,54	0,34
701,979	0,33
702,418	0,33
702,857	0,33
703,297	0,33
703,736	0,33
704,175	0,33
704,614	0,33
705,053	0,33
705,492	0,33
705,931	0,33
706,37	0,33
706,809	0,33
707,248	0,33
707,687	0,33
708,125	0,33
708,564	0,33
709,003	0,33
709,442	0,32
709,88	0,32
710,319	0,32
710,758	0,32
711,196	0,32
711,635	0,32
712,074	0,32
712,512	0,32
712,951	0,32
713,389	0,32
713,828	0,32
714,266	0,32
714,705	0,32
715,143	0,32
715,581	0,32
716,02	0,32
716,458	0,32
716,896	0,32
717,334	0,32
717,773	0,32
718,211	0,32
718,649	0,32
719,087	0,32
719,525	0,32
719,963	0,32
720,401	0,32
720,839	0,32
721,277	0,32
721,715	0,32
722,153	0,32
722,591	0,32
723,029	0,32
723,467	0,32
723,905	0,32
724,342	0,32
724,78	0,32
725,218	0,32
725,656	0,32
726,093	0,32
726,531	0,32
726,969	0,32
727,406	0,32
727,844	0,32
728,281	0,32
728,719	0,32
729,156	0,32
729,594	0,32
730,031	0,32
730,469	0,32
730,906	0,31
731,343	0,31
731,781	0,31
732,218	0,31
732,655	0,31
733,092	0,31
733,53	0,31
733,967	0,31
734,404	0,31
734,841	0,31
735,278	0,31
735,715	0,31
736,152	0,31
736,589	0,31
737,026	0,31
737,463	0,31
737,9	0,31
738,337	0,31
738,774	0,31
739,211	0,31
739,647	0,31
740,084	0,31
740,521	0,31
740,958	0,31
741,394	0,3
741,831	0,3
742,268	0,3
742,704	0,3
743,141	0,3
743,577	0,3
744,014	0,3
744,45	0,3
744,887	0,29
745,323	0,29
745,76	0,29
746,196	0,29
746,632	0,29
747,069	0,29
747,505	0,29
747,941	0,29
748,378	0,29
748,814	0,29
749,25	0,29
749,686	0,3
750,122	0,3
750,558	0,3
750,994	0,3
751,43	0,3
751,866	0,3
752,302	0,3
752,738	0,3
753,174	0,31
753,61	0,31
754,046	0,31
754,482	0,31
754,918	0,31
755,354	0,31
755,789	0,31
756,225	0,31
756,661	0,31
757,096	0,3
757,532	0,3
757,968	0,3
758,403	0,3
758,839	0,3
759,274	0,29
759,71	0,29
760,145	0,29
760,581	0,28
761,016	0,28
761,452	0,27
761,887	0,27
762,322	0,27
762,758	0,27
763,193	0,26
763,628	0,26
764,063	0,25
764,499	0,25
764,934	0,24
765,369	0,24
765,804	0,23
766,239	0,23
766,674	0,22
767,109	0,22
767,544	0,21
767,979	0,2
768,414	0,19
768,849	0,19
769,284	0,18
769,719	0,17
770,154	0,17
770,588	0,16
771,023	0,15
771,458	0,14
771,893	0,14
772,327	0,13
772,762	0,12
773,197	0,11
773,631	0,1
774,066	0,1
774,5	0,1
774,935	0,09
775,369	0,08
775,804	0,07
776,238	0,06
776,673	0,05
777,107	0,04
777,541	0,03
777,976	0,02
778,41	0,02
778,844	0,01
779,279	0,01
779,713	-0
780,147	-0,01
780,581	-0,02
781,015	-0,03
781,449	-0,03
781,883	-0,04
782,317	-0,05
782,751	-0,07
783,185	-0,08
783,619	-0,09
784,053	-0,09
784,487	-0,1
784,921	-0,11
785,355	-0,11
785,789	-0,12
786,223	-0,13
786,656	-0,14
787,09	-0,15
787,524	-0,15
787,957	-0,17
788,391	-0,18
788,825	-0,2
789,258	-0,21
789,692	-0,22
790,125	-0,24
790,559	-0,25
790,992	-0,27
791,426	-0,29
791,859	-0,31
792,293	-0,34
792,726	-0,35
793,159	-0,37
793,593	-0,39
794,026	-0,42
794,459	-0,44
794,892	-0,47
795,326	-0,5
795,759	-0,54
796,192	-0,58
796,625	-0,63
797,058	-0,65
797,491	-0,7
797,924	-0,74
798,357	-0,79
798,79	-0,83
799,223	-0,88
799,656	-0,93
800,089	-0,98
800,522	-1,02
800,955	-1,07
801,387	-1,12
801,82	-1,18
802,253	-1,24
802,686	-1,32
803,118	-1,38
803,551	-1,43
803,984	-1,47
804,416	-1,51
804,849	-1,56
805,281	-1,69
805,714	-2,05
806,146	-2,48
806,579	-2,73
807,011	-2,88
807,444	-2,97
807,876	-3,06
808,308	-3,1
808,741	-3,13
809,173	-3,18
809,605	-3,2
810,037	-3,27
810,47	-3,19
810,902	-2,99
811,334	-2,84
811,766	-2,69
812,198	-2,46
812,63	-2,04
813,062	-1,82
813,494	-1,72
813,926	-1,63
814,358	-1,58
814,79	-1,5
815,222	-1,44
815,654	-1,39
816,086	-1,32
816,518	-1,27
816,949	-1,21
817,381	-1,17
817,813	-1,15
818,245	-1,11
818,676	-1,07
819,108	-1,03
819,54	-1,02
819,971	-0,99
820,403	-0,94
820,834	-0,93
821,266	-0,88
821,697	-0,86
822,129	-0,84
822,56	-0,82
822,991	-0,79
823,423	-0,76
823,854	-0,75
824,286	-0,73
824,717	-0,71
825,148	-0,69
825,579	-0,69
826,01	-0,68
826,442	-0,67
826,873	-0,65
827,304	-0,62
827,735	-0,61
828,166	-0,61
828,597	-0,6
829,028	-0,59
829,459	-0,6
829,89	-0,6
830,321	-0,55
830,752	-0,56
831,183	-0,54
831,613	-0,54
832,044	-0,54
832,475	-0,53
832,906	-0,55
833,336	-0,55
833,767	-0,55
834,198	-0,54
834,628	-0,52
835,059	-0,56
835,49	-0,56
835,92	-0,53
836,351	-0,53
836,781	-0,53
837,212	-0,54
837,642	-0,54
838,072	-0,51
838,503	-0,53
838,933	-0,5
839,364	-0,51
839,794	-0,49
840,224	-0,48
840,654	-0,52
841,085	-0,54
841,515	-0,52
841,945	-0,52
842,375	-0,48
842,805	-0,47
843,235	-0,45
843,665	-0,46
844,095	-0,44
844,525	-0,47
844,955	-0,47
845,385	-0,45
845,815	-0,42
846,245	-0,44
846,675	-0,45
847,105	-0,47
847,534	-0,47
847,964	-0,46
848,394	-0,44
848,824	-0,48
849,253	-0,47
849,683	-0,47
850,112	-0,47
850,542	-0,51
850,972	-0,51
851,401	-0,49
851,831	-0,47
852,26	-0,47
852,69	-0,51
853,119	-0,5
853,548	-0,5
853,978	-0,5
854,407	-0,49
854,836	-0,49
855,266	-0,48
855,695	-0,5
856,124	-0,51
856,553	-0,53
856,983	-0,56
857,412	-0,55
857,841	-0,56
858,27	-0,57
858,699	-0,57
859,128	-0,6
859,557	-0,61
859,986	-0,62
860,415	-0,6
860,844	-0,57
861,273	-0,57
861,702	-0,57
862,13	-0,55
862,559	-0,57
862,988	-0,54
863,417	-0,53
863,845	-0,52
864,274	-0,52
864,703	-0,52
865,131	-0,52
865,56	-0,53
865,989	-0,55
866,417	-0,53
866,846	-0,53
867,274	-0,52
867,703	-0,55
868,131	-0,56
868,559	-0,57
868,988	-0,59
869,416	-0,59
869,844	-0,61
870,273	-0,64
870,701	-0,61
871,129	-0,64
871,557	-0,66
871,986	-0,67
872,414	-0,68
872,842	-0,65
873,27	-0,63
873,698	-0,6
874,126	-0,63
874,554	-0,61
874,982	-0,61
875,41	-0,64
875,838	-0,59
876,266	-0,56
876,694	-0,56
877,122	-0,55
877,549	-0,6
877,977	-0,57
878,405	-0,6
878,833	-0,57
879,26	-0,54
879,688	-0,55
880,116	-0,52
880,543	-0,5
880,971	-0,5
881,399	-0,53
881,826	-0,53
882,254	-0,51
882,681	-0,54
883,109	-0,51
883,536	-0,52
883,963	-0,54
884,391	-0,53
884,818	-0,52
885,245	-0,56
885,673	-0,57
886,1	-0,55
886,527	-0,54
886,954	-0,5
887,381	-0,51
887,809	-0,52
888,236	-0,52
888,663	-0,53
889,09	-0,56
889,517	-0,58
889,944	-0,57
890,371	-0,58
890,798	-0,58
891,225	-0,58
891,652	-0,62
892,078	-0,59
892,505	-0,61
892,932	-0,57
893,359	-0,58
893,786	-0,59
894,212	-0,56
894,639	-0,59
895,066	-0,61
895,492	-0,55
895,919	-0,56
896,346	-0,56
896,772	-0,56
897,199	-0,55
897,625	-0,58
898,052	-0,54
898,478	-0,52
898,904	-0,53
899,331	-0,52
899,757	-0,53
900,183	-0,56
900,61	-0,53
901,036	-0,54
901,462	-0,53
901,888	-0,53
902,315	-0,5
902,741	-0,56
903,167	-0,54
903,593	-0,57
904,019	-0,56
904,445	-0,54
904,871	-0,56
905,297	-0,59
905,723	-0,58
906,149	-0,58
906,575	-0,59
907,001	-0,59
907,427	-0,55
907,852	-0,55
908,278	-0,55
908,704	-0,53
909,13	-0,51
909,555	-0,5
909,981	-0,49
910,407	-0,5
910,832	-0,48
911,258	-0,48
911,684	-0,48
912,109	-0,49
912,535	-0,51
912,96	-0,46
913,386	-0,52
913,811	-0,51
914,236	-0,53
914,662	-0,52
915,087	-0,54
915,512	-0,54
915,938	-0,56
916,363	-0,55
916,788	-0,56
917,213	-0,54
917,639	-0,58
918,064	-0,55
918,489	-0,55
918,914	-0,56
919,339	-0,57
919,764	-0,54
920,189	-0,55
920,614	-0,57
921,039	-0,58
921,464	-0,53
921,889	-0,57
922,314	-0,59
922,738	-0,61
923,163	-0,63
923,588	-0,63
924,013	-0,63
924,437	-0,62
924,862	-0,64
925,287	-0,6
925,711	-0,61
926,136	-0,63
926,561	-0,6
926,985	-0,59
927,41	-0,56
927,834	-0,53
928,259	-0,5
928,683	-0,48
929,108	-0,45
929,532	-0,46
929,956	-0,46
930,381	-0,45
930,805	-0,44
931,229	-0,44
931,653	-0,42
932,078	-0,43
932,502	-0,45
932,926	-0,45
933,35	-0,45
933,774	-0,44
934,198	-0,42
934,622	-0,41
935,046	-0,42
935,47	-0,43
935,894	-0,43
936,318	-0,43
936,742	-0,42
937,166	-0,42
937,59	-0,42
938,014	-0,45
938,437	-0,45
938,861	-0,47
939,285	-0,49
939,709	-0,48
940,132	-0,48
940,556	-0,49
940,98	-0,48
941,403	-0,47
941,827	-0,47
942,25	-0,48
942,674	-0,46
943,097	-0,46
943,521	-0,46
943,944	-0,47
944,368	-0,46
944,791	-0,44
945,214	-0,46
945,638	-0,47
946,061	-0,5
946,484	-0,51
946,907	-0,5
947,331	-0,5
947,754	-0,55
948,177	-0,52
948,6	-0,51
949,023	-0,51
949,446	-0,51
949,869	-0,5
950,292	-0,49
950,715	-0,47
951,138	-0,45
951,561	-0,43
951,984	-0,43
952,407	-0,41
952,83	-0,41
953,252	-0,37
953,675	-0,36
954,098	-0,37
954,521	-0,35
954,943	-0,34
955,366	-0,35
955,789	-0,33
956,211	-0,35
956,634	-0,35
957,056	-0,33
957,479	-0,33
957,902	-0,35
958,324	-0,36
958,746	-0,34
959,169	-0,35
959,591	-0,35
960,014	-0,36
960,436	-0,36
960,858	-0,36
961,281	-0,36
961,703	-0,38
962,125	-0,38
962,547	-0,36
962,969	-0,37
963,391	-0,38
963,814	-0,39
964,236	-0,38
964,658	-0,34
965,08	-0,35
965,502	-0,34
965,924	-0,32
966,346	-0,32
966,768	-0,31
967,189	-0,33
967,611	-0,33
968,033	-0,33
968,455	-0,31
968,877	-0,32
969,298	-0,34
969,72	-0,34
970,142	-0,33
970,563	-0,34
970,985	-0,32
971,407	-0,32
971,828	-0,29
972,25	-0,28
972,671	-0,27
973,093	-0,26
973,514	-0,24
973,936	-0,22
974,357	-0,21
974,778	-0,21
975,2	-0,21
975,621	-0,2
976,042	-0,19
976,464	-0,19
976,885	-0,18
977,306	-0,18
977,727	-0,18
978,148	-0,18
978,57	-0,17
978,991	-0,15
979,412	-0,14
979,833	-0,13
980,254	-0,13
980,675	-0,13
981,096	-0,12
981,517	-0,11
981,937	-0,11
982,358	-0,09
982,779	-0,07
983,2	-0,07
983,621	-0,07
984,042	-0,05
984,462	-0,04
984,883	-0,03
985,304	-0,01
985,724	0
986,145	0,01
986,565	0,03
986,986	0,04
987,407	0,05
987,827	0,06
988,248	0,07
988,668	0,08
989,088	0,08
989,509	0,09
989,929	0,1
990,35	0,1
990,77	0,12
991,19	0,12
991,61	0,13
992,031	0,13
992,451	0,14
992,871	0,15
993,291	0,16
993,711	0,16
994,131	0,17
994,551	0,17
994,971	0,18
995,391	0,18
995,811	0,19
996,231	0,19
996,651	0,19
997,071	0,2
997,491	0,2
997,911	0,21
998,331	0,21
998,75	0,22
999,17	0,22
999,59	0,23
1000,009	0,23
1000,429	0,23
1000,849	0,24
1001,268	0,24
1001,688	0,24
1002,107	0,24
1002,527	0,24
1002,946	0,25
1003,366	0,25
1003,785	0,25
1004,205	0,25
1004,624	0,25
1005,044	0,26
1005,463	0,26
1005,882	0,26
1006,301	0,26
1006,721	0,26
1007,14	0,26
1007,559	0,26
1007,978	0,26
1008,397	0,26
1008,816	0,26
1009,235	0,26
1009,655	0,26
1010,074	0,26
1010,492	0,26
1010,911	0,26
1011,33	0,26
1011,749	0,25
1012,168	0,25
1012,587	0,25
1013,006	0,25
1013,425	0,25
1013,843	0,25
1014,262	0,25
1014,681	0,25
1015,099	0,25
1015,518	0,25
1015,937	0,25
1016,355	0,25
1016,774	0,25
1017,192	0,25
1017,611	0,25
1018,029	0,25
1018,448	0,25
1018,866	0,25
1019,285	0,25
1019,703	0,25
1020,121	0,25
1020,54	0,25
1020,958	0,26
1021,376	0,26
1021,794	0,26
1022,213	0,26
1022,631	0,26
1023,049	0,26
1023,467	0,26
1023,885	0,25
1024,303	0,25
1024,721	0,25
1025,139	0,25
1025,557	0,25
1025,975	0,25
1026,393	0,25
1026,811	0,25
1027,229	0,25
1027,647	0,25
1028,065	0,25
1028,482	0,25
1028,9	0,25
1029,318	0,25
1029,735	0,25
1030,153	0,25
1030,571	0,25
1030,988	0,25
1031,406	0,25
1031,823	0,25
1032,241	0,25
1032,659	0,25
1033,076	0,25
1033,493	0,25
1033,911	0,25
1034,328	0,25
1034,746	0,25
1035,163	0,25
1035,58	0,25
1035,997	0,25
1036,415	0,25
1036,832	0,25
1037,249	0,25
1037,666	0,25
1038,083	0,24
1038,501	0,24
1038,918	0,24
1039,335	0,24
1039,752	0,24
1040,169	0,24
1040,586	0,24
1041,003	0,24
1041,419	0,24
1041,836	0,24
1042,253	0,24
1042,67	0,24
1043,087	0,24
1043,504	0,24
1043,92	0,24
1044,337	0,24
1044,754	0,23
1045,17	0,23
1045,587	0,23
1046,004	0,23
1046,42	0,23
1046,837	0,23
1047,253	0,23
1047,67	0,23
1048,086	0,23
1048,503	0,23
1048,919	0,23
1049,335	0,23
1049,752	0,23
1050,168	0,23
1050,584	0,23
1051,001	0,23
1051,417	0,23
1051,833	0,23
1052,249	0,23
1052,665	0,23
1053,081	0,23
1053,497	0,23
1053,914	0,23
1054,33	0,24
1054,746	0,24
1055,162	0,24
1055,578	0,24
1055,993	0,24
1056,409	0,24
1056,825	0,24
1057,241	0,24
1057,657	0,24
1058,073	0,24
1058,488	0,24
1058,904	0,24
1059,32	0,24
1059,736	0,24
1060,151	0,24
1060,567	0,24
1060,982	0,24
1061,398	0,24
1061,813	0,24
1062,229	0,24
1062,644	0,24
1063,06	0,24
1063,475	0,24
1063,891	0,24
1064,306	0,24
1064,721	0,24
1065,137	0,24
1065,552	0,24
1065,967	0,24
1066,382	0,24
1066,798	0,24
1067,213	0,24
1067,628	0,24
1068,043	0,24
1068,458	0,24
1068,873	0,24
1069,288	0,24
1069,703	0,24
1070,118	0,24
1070,533	0,24
1070,948	0,24
1071,363	0,24
1071,778	0,24
1072,193	0,24
1072,607	0,24
1073,022	0,24
1073,437	0,25
1073,852	0,25
1074,266	0,25
1074,681	0,25
1075,096	0,25
1075,51	0,25
1075,925	0,25
1076,339	0,25
1076,754	0,25
1077,168	0,24
1077,583	0,24
1077,997	0,24
1078,412	0,24
1078,826	0,24
1079,24	0,24
1079,655	0,24
1080,069	0,24
1080,483	0,24
1080,897	0,24
1081,312	0,24
1081,726	0,24
1082,14	0,24
1082,554	0,23
1082,968	0,23
1083,382	0,23
1083,796	0,23
1084,21	0,23
1084,624	0,23
1085,038	0,23
1085,452	0,23
1085,866	0,23
1086,28	0,23
1086,694	0,23
1087,108	0,23
1087,521	0,22
1087,935	0,22
1088,349	0,22
1088,763	0,22
1089,176	0,22
1089,59	0,22
1090,004	0,22
1090,417	0,21
1090,831	0,21
1091,244	0,21
1091,658	0,21
1092,071	0,21
1092,485	0,21
1092,898	0,2
1093,312	0,2
1093,725	0,2
1094,138	0,2
1094,552	0,2
1094,965	0,2
1095,378	0,2
1095,791	0,19
1096,205	0,19
1096,618	0,19
1097,031	0,19
1097,444	0,19
1097,857	0,19
1098,27	0,19
1098,683	0,18
1099,096	0,18
1099,509	0,18
1099,922	0,18
1100,335	0,17
1100,748	0,17
1101,161	0,17
1101,574	0,17
1101,986	0,16
1102,399	0,16
1102,812	0,16
1103,225	0,15
1103,637	0,15
1104,05	0,15
1104,463	0,15
1104,875	0,15
1105,288	0,14
1105,7	0,14
1106,113	0,14
1106,525	0,14
1106,938	0,13
1107,35	0,13
1107,763	0,13
1108,175	0,12
1108,588	0,12
1109	0,11
1109,412	0,11
1109,824	0,1
1110,237	0,11
1110,649	0,1
1111,061	0,09
