Data from 18C-808nm-8A_Absorbance__1235__01235.txt Node

Date: Mon Jul 17 17:07:51 CEST 2023
User: Laser008
Spectrometer: MAYP115816
Trigger mode: 0
Integration Time (sec): 2,500000E-1
Scans to average: 10
Electric dark correction enabled: true
Nonlinearity correction enabled: true
Boxcar width: 5
XAxis mode: Wavelengths
Number of Pixels in Spectrum: 2068
>>>>>Begin Spectral Data<<<<<
198,914	-0,6
199,384	-0,41
199,855	-0,31
200,325	-0,24
200,796	-0,19
201,266	-0,15
201,737	-0,14
202,207	-0,14
202,677	-0,14
203,147	-0,12
203,618	-0,1
204,088	-0,09
204,558	-0,08
205,028	-0,07
205,498	-0,09
205,968	-0,1
206,439	-0,12
206,909	-0,11
207,379	-0,12
207,849	-0,12
208,319	-0,13
208,789	-0,14
209,258	-0,13
209,728	-0,15
210,198	-0,15
210,668	-0,15
211,138	-0,14
211,608	-0,14
212,077	-0,14
212,547	-0,14
213,017	-0,15
213,486	-0,15
213,956	-0,15
214,426	-0,16
214,895	-0,15
215,365	-0,16
215,834	-0,15
216,304	-0,17
216,773	-0,17
217,243	-0,19
217,712	-0,19
218,181	-0,19
218,651	-0,19
219,12	-0,18
219,589	-0,18
220,058	-0,17
220,528	-0,19
220,997	-0,19
221,466	-0,19
221,935	-0,19
222,404	-0,18
222,873	-0,17
223,342	-0,17
223,812	-0,17
224,281	-0,17
224,749	-0,17
225,218	-0,18
225,687	-0,18
226,156	-0,17
226,625	-0,16
227,094	-0,16
227,563	-0,17
228,031	-0,19
228,5	-0,18
228,969	-0,2
229,438	-0,18
229,906	-0,17
230,375	-0,16
230,844	-0,16
231,312	-0,16
231,781	-0,17
232,249	-0,16
232,718	-0,16
233,186	-0,14
233,655	-0,15
234,123	-0,14
234,591	-0,15
235,06	-0,16
235,528	-0,16
235,996	-0,15
236,465	-0,15
236,933	-0,15
237,401	-0,15
237,869	-0,14
238,337	-0,14
238,805	-0,12
239,274	-0,12
239,742	-0,11
240,21	-0,11
240,678	-0,11
241,146	-0,11
241,614	-0,1
242,081	-0,1
242,549	-0,1
243,017	-0,1
243,485	-0,11
243,953	-0,11
244,421	-0,11
244,888	-0,11
245,356	-0,11
245,824	-0,11
246,291	-0,12
246,759	-0,13
247,227	-0,13
247,694	-0,13
248,162	-0,12
248,629	-0,12
249,097	-0,12
249,564	-0,13
250,032	-0,14
250,499	-0,14
250,967	-0,14
251,434	-0,14
251,901	-0,14
252,369	-0,14
252,836	-0,15
253,303	-0,16
253,77	-0,17
254,237	-0,16
254,705	-0,16
255,172	-0,15
255,639	-0,16
256,106	-0,17
256,573	-0,17
257,04	-0,17
257,507	-0,18
257,974	-0,17
258,441	-0,16
258,908	-0,17
259,375	-0,18
259,841	-0,19
260,308	-0,19
260,775	-0,18
261,242	-0,17
261,709	-0,18
262,175	-0,19
262,642	-0,18
263,109	-0,17
263,575	-0,18
264,042	-0,17
264,508	-0,16
264,975	-0,18
265,441	-0,19
265,908	-0,19
266,374	-0,18
266,841	-0,19
267,307	-0,19
267,773	-0,19
268,24	-0,2
268,706	-0,19
269,172	-0,2
269,639	-0,21
270,105	-0,2
270,571	-0,2
271,037	-0,2
271,503	-0,21
271,969	-0,21
272,435	-0,21
272,902	-0,23
273,368	-0,24
273,834	-0,24
274,3	-0,24
274,765	-0,24
275,231	-0,24
275,697	-0,23
276,163	-0,23
276,629	-0,23
277,095	-0,23
277,56	-0,22
278,026	-0,23
278,492	-0,21
278,958	-0,21
279,423	-0,22
279,889	-0,21
280,354	-0,21
280,82	-0,22
281,286	-0,23
281,751	-0,23
282,217	-0,22
282,682	-0,22
283,147	-0,21
283,613	-0,23
284,078	-0,23
284,544	-0,24
285,009	-0,25
285,474	-0,24
285,939	-0,25
286,405	-0,23
286,87	-0,23
287,335	-0,23
287,8	-0,22
288,265	-0,21
288,73	-0,21
289,195	-0,24
289,66	-0,24
290,125	-0,22
290,59	-0,22
291,055	-0,21
291,52	-0,22
291,985	-0,23
292,45	-0,24
292,915	-0,24
293,38	-0,24
293,844	-0,22
294,309	-0,2
294,774	-0,19
295,239	-0,2
295,703	-0,21
296,168	-0,21
296,632	-0,2
297,097	-0,18
297,562	-0,17
298,026	-0,18
298,491	-0,18
298,955	-0,19
299,419	-0,18
299,884	-0,18
300,348	-0,17
300,813	-0,16
301,277	-0,17
301,741	-0,17
302,205	-0,17
302,67	-0,17
303,134	-0,16
303,598	-0,16
304,062	-0,14
304,526	-0,13
304,99	-0,15
305,454	-0,16
305,919	-0,15
306,383	-0,15
306,847	-0,15
307,31	-0,16
307,774	-0,17
308,238	-0,17
308,702	-0,17
309,166	-0,19
309,63	-0,2
310,094	-0,18
310,557	-0,17
311,021	-0,17
311,485	-0,16
311,948	-0,15
312,412	-0,14
312,876	-0,13
313,339	-0,13
313,803	-0,13
314,266	-0,12
314,73	-0,12
315,193	-0,12
315,657	-0,11
316,12	-0,11
316,584	-0,1
317,047	-0,1
317,51	-0,09
317,973	-0,09
318,437	-0,08
318,9	-0,07
319,363	-0,06
319,826	-0,06
320,29	-0,06
320,753	-0,06
321,216	-0,06
321,679	-0,07
322,142	-0,07
322,605	-0,08
323,068	-0,08
323,531	-0,08
323,994	-0,08
324,457	-0,08
324,92	-0,06
325,382	-0,06
325,845	-0,06
326,308	-0,06
326,771	-0,05
327,233	-0,05
327,696	-0,04
328,159	-0,04
328,622	-0,03
329,084	-0,03
329,547	-0,02
330,009	-0,02
330,472	-0,02
330,934	-0,02
331,397	-0,01
331,859	-0,01
332,322	-0
332,784	0
333,246	0,01
333,709	0
334,171	0,01
334,633	0,01
335,096	0,01
335,558	0,01
336,02	0,02
336,482	0,02
336,944	0,03
337,406	0,04
337,868	0,04
338,331	0,04
338,793	0,06
339,255	0,06
339,717	0,06
340,178	0,08
340,64	0,09
341,102	0,1
341,564	0,11
342,026	0,11
342,488	0,11
342,949	0,13
343,411	0,15
343,873	0,16
344,335	0,18
344,796	0,21
345,258	0,24
345,719	0,27
346,181	0,29
346,643	0,32
347,104	0,34
347,566	0,36
348,027	0,38
348,488	0,39
348,95	0,4
349,411	0,42
349,873	0,43
350,334	0,44
350,795	0,45
351,256	0,46
351,718	0,46
352,179	0,46
352,64	0,47
353,101	0,47
353,562	0,47
354,023	0,47
354,484	0,47
354,945	0,47
355,406	0,47
355,867	0,48
356,328	0,48
356,789	0,48
357,25	0,48
357,711	0,48
358,172	0,48
358,633	0,48
359,093	0,48
359,554	0,48
360,015	0,49
360,476	0,49
360,936	0,49
361,397	0,49
361,858	0,49
362,318	0,49
362,779	0,49
363,239	0,49
363,7	0,49
364,16	0,49
364,621	0,49
365,081	0,49
365,541	0,49
366,002	0,49
366,462	0,49
366,922	0,49
367,383	0,49
367,843	0,49
368,303	0,49
368,763	0,49
369,223	0,49
369,684	0,49
370,144	0,49
370,604	0,49
371,064	0,49
371,524	0,49
371,984	0,49
372,444	0,49
372,904	0,49
373,363	0,49
373,823	0,49
374,283	0,49
374,743	0,48
375,203	0,48
375,663	0,48
376,122	0,48
376,582	0,48
377,042	0,48
377,501	0,48
377,961	0,48
378,42	0,48
378,88	0,48
379,34	0,48
379,799	0,48
380,259	0,48
380,718	0,48
381,177	0,48
381,637	0,48
382,096	0,48
382,555	0,48
383,015	0,48
383,474	0,48
383,933	0,48
384,393	0,48
384,852	0,48
385,311	0,48
385,77	0,48
386,229	0,48
386,688	0,48
387,147	0,48
387,606	0,48
388,065	0,48
388,524	0,48
388,983	0,48
389,442	0,48
389,901	0,47
390,36	0,47
390,819	0,47
391,277	0,47
391,736	0,47
392,195	0,47
392,654	0,47
393,112	0,47
393,571	0,47
394,03	0,47
394,488	0,47
394,947	0,47
395,405	0,47
395,864	0,47
396,322	0,47
396,781	0,47
397,239	0,47
397,698	0,47
398,156	0,47
398,614	0,47
399,073	0,47
399,531	0,47
399,989	0,47
400,447	0,47
400,905	0,47
401,364	0,47
401,822	0,47
402,28	0,47
402,738	0,47
403,196	0,47
403,654	0,47
404,112	0,47
404,57	0,47
405,028	0,47
405,486	0,47
405,944	0,47
406,402	0,47
406,859	0,47
407,317	0,47
407,775	0,47
408,233	0,47
408,691	0,47
409,148	0,47
409,606	0,47
410,064	0,47
410,521	0,47
410,979	0,46
411,436	0,46
411,894	0,46
412,351	0,46
412,809	0,46
413,266	0,46
413,724	0,46
414,181	0,46
414,638	0,46
415,096	0,46
415,553	0,46
416,01	0,46
416,467	0,46
416,925	0,46
417,382	0,46
417,839	0,46
418,296	0,46
418,753	0,46
419,21	0,46
419,667	0,46
420,124	0,46
420,581	0,46
421,038	0,46
421,495	0,46
421,952	0,46
422,409	0,46
422,866	0,46
423,322	0,46
423,779	0,46
424,236	0,46
424,693	0,46
425,149	0,46
425,606	0,46
426,063	0,46
426,519	0,46
426,976	0,46
427,433	0,46
427,889	0,46
428,346	0,46
428,802	0,46
429,258	0,46
429,715	0,46
430,171	0,46
430,628	0,46
431,084	0,46
431,54	0,46
431,997	0,46
432,453	0,46
432,909	0,46
433,365	0,46
433,821	0,45
434,277	0,45
434,734	0,45
435,19	0,45
435,646	0,45
436,102	0,45
436,558	0,45
437,014	0,45
437,47	0,45
437,925	0,45
438,381	0,45
438,837	0,46
439,293	0,46
439,749	0,46
440,205	0,46
440,66	0,45
441,116	0,45
441,572	0,45
442,027	0,45
442,483	0,45
442,939	0,45
443,394	0,45
443,85	0,45
444,305	0,45
444,761	0,45
445,216	0,46
445,672	0,46
446,127	0,46
446,582	0,46
447,038	0,46
447,493	0,46
447,948	0,46
448,403	0,46
448,859	0,46
449,314	0,46
449,769	0,46
450,224	0,46
450,679	0,46
451,134	0,46
451,589	0,46
452,044	0,46
452,499	0,46
452,954	0,46
453,409	0,46
453,864	0,46
454,319	0,46
454,774	0,46
455,229	0,46
455,684	0,46
456,138	0,46
456,593	0,46
457,048	0,46
457,503	0,46
457,957	0,46
458,412	0,46
458,866	0,46
459,321	0,46
459,776	0,46
460,23	0,46
460,685	0,46
461,139	0,46
461,593	0,46
462,048	0,46
462,502	0,46
462,957	0,46
463,411	0,46
463,865	0,46
464,319	0,46
464,774	0,46
465,228	0,46
465,682	0,47
466,136	0,47
466,59	0,47
467,044	0,47
467,499	0,47
467,953	0,47
468,407	0,47
468,861	0,47
469,315	0,47
469,768	0,47
470,222	0,47
470,676	0,47
471,13	0,47
471,584	0,47
472,038	0,47
472,491	0,47
472,945	0,47
473,399	0,47
473,852	0,47
474,306	0,47
474,76	0,47
475,213	0,47
475,667	0,48
476,12	0,48
476,574	0,48
477,027	0,48
477,481	0,48
477,934	0,48
478,388	0,48
478,841	0,48
479,294	0,48
479,748	0,48
480,201	0,49
480,654	0,49
481,107	0,49
481,561	0,49
482,014	0,49
482,467	0,49
482,92	0,49
483,373	0,49
483,826	0,49
484,279	0,5
484,732	0,5
485,185	0,5
485,638	0,5
486,091	0,5
486,544	0,5
486,997	0,5
487,449	0,5
487,902	0,5
488,355	0,51
488,808	0,51
489,26	0,51
489,713	0,51
490,166	0,51
490,618	0,51
491,071	0,52
491,523	0,52
491,976	0,52
492,429	0,52
492,881	0,52
493,333	0,53
493,786	0,53
494,238	0,53
494,691	0,53
495,143	0,53
495,595	0,54
496,048	0,54
496,5	0,54
496,952	0,54
497,404	0,55
497,856	0,55
498,309	0,55
498,761	0,55
499,213	0,55
499,665	0,56
500,117	0,56
500,569	0,56
501,021	0,56
501,473	0,57
501,925	0,57
502,377	0,57
502,828	0,58
503,28	0,58
503,732	0,58
504,184	0,58
504,636	0,59
505,087	0,59
505,539	0,59
505,991	0,59
506,442	0,6
506,894	0,6
507,345	0,6
507,797	0,6
508,249	0,61
508,7	0,61
509,151	0,61
509,603	0,62
510,054	0,62
510,506	0,62
510,957	0,62
511,408	0,63
511,86	0,63
512,311	0,63
512,762	0,63
513,213	0,63
513,665	0,64
514,116	0,64
514,567	0,64
515,018	0,64
515,469	0,65
515,92	0,65
516,371	0,65
516,822	0,65
517,273	0,66
517,724	0,66
518,175	0,66
518,626	0,66
519,076	0,66
519,527	0,66
519,978	0,67
520,429	0,67
520,88	0,67
521,33	0,67
521,781	0,67
522,232	0,67
522,682	0,67
523,133	0,68
523,583	0,68
524,034	0,68
524,484	0,68
524,935	0,68
525,385	0,68
525,836	0,68
526,286	0,68
526,736	0,68
527,187	0,68
527,637	0,68
528,087	0,68
528,538	0,68
528,988	0,68
529,438	0,68
529,888	0,68
530,338	0,68
530,788	0,68
531,238	0,68
531,688	0,68
532,139	0,68
532,589	0,68
533,038	0,68
533,488	0,67
533,938	0,67
534,388	0,67
534,838	0,67
535,288	0,67
535,738	0,67
536,187	0,67
536,637	0,66
537,087	0,66
537,537	0,66
537,986	0,66
538,436	0,65
538,885	0,65
539,335	0,65
539,785	0,65
540,234	0,64
540,684	0,64
541,133	0,64
541,582	0,63
542,032	0,63
542,481	0,63
542,931	0,63
543,38	0,62
543,829	0,62
544,278	0,62
544,728	0,61
545,177	0,61
545,626	0,61
546,075	0,61
546,524	0,6
546,973	0,6
547,422	0,6
547,871	0,6
548,32	0,6
548,769	0,6
549,218	0,59
549,667	0,59
550,116	0,59
550,565	0,59
551,014	0,59
551,463	0,59
551,911	0,58
552,36	0,58
552,809	0,58
553,258	0,58
553,706	0,57
554,155	0,57
554,603	0,57
555,052	0,57
555,501	0,56
555,949	0,56
556,398	0,56
556,846	0,56
557,294	0,55
557,743	0,55
558,191	0,55
558,64	0,54
559,088	0,54
559,536	0,54
559,985	0,54
560,433	0,53
560,881	0,53
561,329	0,53
561,777	0,53
562,225	0,52
562,674	0,52
563,122	0,52
563,57	0,52
564,018	0,52
564,466	0,51
564,914	0,51
565,362	0,51
565,809	0,51
566,257	0,5
566,705	0,5
567,153	0,5
567,601	0,5
568,048	0,49
568,496	0,49
568,944	0,49
569,392	0,49
569,839	0,48
570,287	0,48
570,734	0,48
571,182	0,48
571,63	0,48
572,077	0,47
572,525	0,47
572,972	0,47
573,419	0,47
573,867	0,47
574,314	0,46
574,761	0,46
575,209	0,46
575,656	0,46
576,103	0,46
576,551	0,46
576,998	0,45
577,445	0,45
577,892	0,45
578,339	0,45
578,786	0,45
579,233	0,45
579,68	0,44
580,127	0,44
580,574	0,44
581,021	0,44
581,468	0,44
581,915	0,44
582,362	0,43
582,809	0,43
583,255	0,43
583,702	0,43
584,149	0,43
584,596	0,43
585,042	0,43
585,489	0,42
585,936	0,42
586,382	0,42
586,829	0,42
587,275	0,42
587,722	0,42
588,168	0,42
588,615	0,42
589,061	0,42
589,508	0,42
589,954	0,41
590,4	0,41
590,847	0,41
591,293	0,41
591,739	0,41
592,185	0,41
592,632	0,41
593,078	0,41
593,524	0,41
593,97	0,41
594,416	0,41
594,862	0,4
595,308	0,4
595,754	0,4
596,2	0,4
596,646	0,4
597,092	0,4
597,538	0,4
597,984	0,4
598,43	0,4
598,876	0,4
599,321	0,39
599,767	0,39
600,213	0,39
600,659	0,39
601,104	0,39
601,55	0,39
601,995	0,39
602,441	0,39
602,887	0,39
603,332	0,39
603,778	0,39
604,223	0,39
604,668	0,39
605,114	0,39
605,559	0,39
606,005	0,39
606,45	0,39
606,895	0,38
607,341	0,38
607,786	0,38
608,231	0,38
608,676	0,38
609,121	0,38
609,566	0,37
610,012	0,37
610,457	0,37
610,902	0,36
611,347	0,36
611,792	0,36
612,237	0,36
612,682	0,36
613,127	0,36
613,571	0,36
614,016	0,36
614,461	0,36
614,906	0,36
615,351	0,36
615,795	0,36
616,24	0,36
616,685	0,36
617,129	0,37
617,574	0,37
618,019	0,37
618,463	0,37
618,908	0,37
619,352	0,37
619,797	0,37
620,241	0,37
620,686	0,36
621,13	0,36
621,574	0,36
622,019	0,36
622,463	0,36
622,907	0,36
623,352	0,36
623,796	0,36
624,24	0,36
624,684	0,36
625,128	0,36
625,572	0,36
626,016	0,36
626,461	0,36
626,905	0,36
627,349	0,36
627,793	0,36
628,236	0,36
628,68	0,36
629,124	0,36
629,568	0,36
630,012	0,36
630,456	0,36
630,9	0,35
631,343	0,35
631,787	0,35
632,231	0,35
632,674	0,35
633,118	0,35
633,562	0,35
634,005	0,35
634,449	0,35
634,892	0,35
635,336	0,35
635,779	0,35
636,223	0,35
636,666	0,35
637,109	0,35
637,553	0,35
637,996	0,35
638,439	0,35
638,883	0,35
639,326	0,35
639,769	0,35
640,212	0,35
640,655	0,35
641,099	0,35
641,542	0,35
641,985	0,35
642,428	0,35
642,871	0,35
643,314	0,35
643,757	0,35
644,2	0,35
644,643	0,35
645,085	0,35
645,528	0,35
645,971	0,35
646,414	0,35
646,857	0,34
647,299	0,34
647,742	0,34
648,185	0,34
648,627	0,34
649,07	0,34
649,513	0,34
649,955	0,34
650,398	0,34
650,84	0,34
651,283	0,34
651,725	0,34
652,168	0,34
652,61	0,34
653,052	0,34
653,495	0,34
653,937	0,26
654,379	0,21
654,821	0,22
655,264	0,22
655,706	0,22
656,148	0,22
656,59	0,22
657,032	0,22
657,474	0,22
657,916	0,22
658,358	0,21
658,8	0,27
659,242	0,34
659,684	0,34
660,126	0,34
660,568	0,34
661,01	0,34
661,452	0,34
661,894	0,34
662,335	0,34
662,777	0,34
663,219	0,34
663,661	0,34
664,102	0,34
664,544	0,34
664,985	0,34
665,427	0,34
665,869	0,34
666,31	0,34
666,752	0,34
667,193	0,34
667,634	0,34
668,076	0,34
668,517	0,34
668,959	0,34
669,4	0,34
669,841	0,34
670,282	0,34
670,724	0,34
671,165	0,34
671,606	0,33
672,047	0,33
672,488	0,33
672,929	0,33
673,37	0,33
673,811	0,33
674,252	0,33
674,693	0,33
675,134	0,33
675,575	0,33
676,016	0,33
676,457	0,33
676,898	0,33
677,339	0,33
677,78	0,33
678,22	0,33
678,661	0,33
679,102	0,33
679,542	0,33
679,983	0,33
680,424	0,33
680,864	0,33
681,305	0,33
681,745	0,33
682,186	0,33
682,626	0,33
683,067	0,33
683,507	0,33
683,948	0,33
684,388	0,33
684,828	0,33
685,269	0,33
685,709	0,33
686,149	0,33
686,589	0,32
687,029	0,32
687,47	0,32
687,91	0,32
688,35	0,32
688,79	0,32
689,23	0,32
689,67	0,32
690,11	0,32
690,55	0,32
690,99	0,32
691,43	0,32
691,87	0,32
692,31	0,32
692,749	0,32
693,189	0,32
693,629	0,32
694,069	0,32
694,508	0,32
694,948	0,32
695,388	0,32
695,827	0,32
696,267	0,32
696,706	0,32
697,146	0,32
697,586	0,32
698,025	0,32
698,464	0,32
698,904	0,32
699,343	0,32
699,783	0,32
700,222	0,32
700,661	0,32
701,101	0,32
701,54	0,32
701,979	0,32
702,418	0,32
702,857	0,32
703,297	0,32
703,736	0,32
704,175	0,32
704,614	0,32
705,053	0,32
705,492	0,32
705,931	0,32
706,37	0,32
706,809	0,31
707,248	0,31
707,687	0,31
708,125	0,31
708,564	0,31
709,003	0,31
709,442	0,31
709,88	0,31
710,319	0,31
710,758	0,31
711,196	0,31
711,635	0,31
712,074	0,31
712,512	0,31
712,951	0,31
713,389	0,31
713,828	0,31
714,266	0,31
714,705	0,31
715,143	0,31
715,581	0,31
716,02	0,31
716,458	0,31
716,896	0,3
717,334	0,3
717,773	0,3
718,211	0,3
718,649	0,3
719,087	0,3
719,525	0,3
719,963	0,3
720,401	0,3
720,839	0,3
721,277	0,3
721,715	0,3
722,153	0,3
722,591	0,3
723,029	0,3
723,467	0,3
723,905	0,3
724,342	0,3
724,78	0,3
725,218	0,3
725,656	0,3
726,093	0,3
726,531	0,3
726,969	0,3
727,406	0,3
727,844	0,3
728,281	0,3
728,719	0,3
729,156	0,3
729,594	0,3
730,031	0,3
730,469	0,3
730,906	0,3
731,343	0,3
731,781	0,3
732,218	0,3
732,655	0,3
733,092	0,3
733,53	0,3
733,967	0,3
734,404	0,3
734,841	0,3
735,278	0,3
735,715	0,3
736,152	0,3
736,589	0,3
737,026	0,3
737,463	0,3
737,9	0,3
738,337	0,3
738,774	0,29
739,211	0,29
739,647	0,29
740,084	0,29
740,521	0,29
740,958	0,29
741,394	0,29
741,831	0,29
742,268	0,29
742,704	0,29
743,141	0,29
743,577	0,29
744,014	0,29
744,45	0,28
744,887	0,28
745,323	0,28
745,76	0,28
746,196	0,28
746,632	0,28
747,069	0,28
747,505	0,28
747,941	0,28
748,378	0,28
748,814	0,28
749,25	0,28
749,686	0,28
750,122	0,28
750,558	0,29
750,994	0,29
751,43	0,29
751,866	0,29
752,302	0,29
752,738	0,29
753,174	0,29
753,61	0,29
754,046	0,29
754,482	0,29
754,918	0,29
755,354	0,29
755,789	0,3
756,225	0,29
756,661	0,29
757,096	0,29
757,532	0,29
757,968	0,29
758,403	0,29
758,839	0,29
759,274	0,29
759,71	0,28
760,145	0,28
760,581	0,27
761,016	0,27
761,452	0,27
761,887	0,27
762,322	0,26
762,758	0,26
763,193	0,25
763,628	0,25
764,063	0,24
764,499	0,24
764,934	0,24
765,369	0,23
765,804	0,22
766,239	0,22
766,674	0,21
767,109	0,21
767,544	0,21
767,979	0,2
768,414	0,19
768,849	0,18
769,284	0,18
769,719	0,17
770,154	0,16
770,588	0,16
771,023	0,15
771,458	0,14
771,893	0,13
772,327	0,12
772,762	0,11
773,197	0,11
773,631	0,1
774,066	0,1
774,5	0,09
774,935	0,08
775,369	0,07
775,804	0,06
776,238	0,05
776,673	0,04
777,107	0,04
777,541	0,03
777,976	0,02
778,41	0,01
778,844	-0
779,279	-0,01
779,713	-0,02
780,147	-0,03
780,581	-0,03
781,015	-0,04
781,449	-0,06
781,883	-0,06
782,317	-0,08
782,751	-0,08
783,185	-0,09
783,619	-0,09
784,053	-0,1
784,487	-0,11
784,921	-0,11
785,355	-0,11
785,789	-0,11
786,223	-0,12
786,656	-0,13
787,09	-0,14
787,524	-0,15
787,957	-0,16
788,391	-0,18
788,825	-0,2
789,258	-0,22
789,692	-0,23
790,125	-0,25
790,559	-0,27
790,992	-0,29
791,426	-0,31
791,859	-0,32
792,293	-0,35
792,726	-0,36
793,159	-0,38
793,593	-0,4
794,026	-0,42
794,459	-0,45
794,892	-0,47
795,326	-0,5
795,759	-0,53
796,192	-0,58
796,625	-0,63
797,058	-0,65
797,491	-0,69
797,924	-0,73
798,357	-0,78
798,79	-0,83
799,223	-0,87
799,656	-0,92
800,089	-0,97
800,522	-1,01
800,955	-1,06
801,387	-1,11
801,82	-1,17
802,253	-1,23
802,686	-1,31
803,118	-1,36
803,551	-1,41
803,984	-1,46
804,416	-1,49
804,849	-1,53
805,281	-1,63
805,714	-1,96
806,146	-2,43
806,579	-2,7
807,011	-2,86
807,444	-2,96
807,876	-3,05
808,308	-3,09
808,741	-3,12
809,173	-3,17
809,605	-3,19
810,037	-3,27
810,47	-3,19
810,902	-3
811,334	-2,85
811,766	-2,7
812,198	-2,47
812,63	-2,05
813,062	-1,82
813,494	-1,72
813,926	-1,63
814,358	-1,58
814,79	-1,5
815,222	-1,44
815,654	-1,39
816,086	-1,32
816,518	-1,27
816,949	-1,21
817,381	-1,17
817,813	-1,15
818,245	-1,11
818,676	-1,07
819,108	-1,03
819,54	-1,02
819,971	-0,99
820,403	-0,94
820,834	-0,93
821,266	-0,88
821,697	-0,86
822,129	-0,84
822,56	-0,81
822,991	-0,79
823,423	-0,76
823,854	-0,75
824,286	-0,72
824,717	-0,71
825,148	-0,69
825,579	-0,69
826,01	-0,66
826,442	-0,66
826,873	-0,64
827,304	-0,6
827,735	-0,6
828,166	-0,6
828,597	-0,59
829,028	-0,59
829,459	-0,59
829,89	-0,59
830,321	-0,54
830,752	-0,56
831,183	-0,55
831,613	-0,54
832,044	-0,54
832,475	-0,53
832,906	-0,55
833,336	-0,54
833,767	-0,55
834,198	-0,55
834,628	-0,52
835,059	-0,55
835,49	-0,56
835,92	-0,53
836,351	-0,53
836,781	-0,53
837,212	-0,53
837,642	-0,53
838,072	-0,52
838,503	-0,53
838,933	-0,5
839,364	-0,51
839,794	-0,49
840,224	-0,48
840,654	-0,52
841,085	-0,53
841,515	-0,51
841,945	-0,51
842,375	-0,47
842,805	-0,45
843,235	-0,44
843,665	-0,45
844,095	-0,44
844,525	-0,47
844,955	-0,47
845,385	-0,44
845,815	-0,42
846,245	-0,44
846,675	-0,45
847,105	-0,47
847,534	-0,47
847,964	-0,45
848,394	-0,44
848,824	-0,47
849,253	-0,46
849,683	-0,46
850,112	-0,48
850,542	-0,52
850,972	-0,52
851,401	-0,5
851,831	-0,48
852,26	-0,49
852,69	-0,53
853,119	-0,52
853,548	-0,52
853,978	-0,52
854,407	-0,5
854,836	-0,5
855,266	-0,49
855,695	-0,5
856,124	-0,51
856,553	-0,52
856,983	-0,54
857,412	-0,53
857,841	-0,55
858,27	-0,56
858,699	-0,56
859,128	-0,59
859,557	-0,6
859,986	-0,61
860,415	-0,59
860,844	-0,57
861,273	-0,58
861,702	-0,58
862,13	-0,56
862,559	-0,58
862,988	-0,54
863,417	-0,54
863,845	-0,53
864,274	-0,54
864,703	-0,54
865,131	-0,55
865,56	-0,56
865,989	-0,57
866,417	-0,54
866,846	-0,55
867,274	-0,53
867,703	-0,55
868,131	-0,56
868,559	-0,56
868,988	-0,58
869,416	-0,57
869,844	-0,58
870,273	-0,61
870,701	-0,59
871,129	-0,63
871,557	-0,66
871,986	-0,66
872,414	-0,67
872,842	-0,64
873,27	-0,62
873,698	-0,6
874,126	-0,63
874,554	-0,62
874,982	-0,61
875,41	-0,64
875,838	-0,6
876,266	-0,58
876,694	-0,58
877,122	-0,58
877,549	-0,64
877,977	-0,61
878,405	-0,63
878,833	-0,6
879,26	-0,58
879,688	-0,59
880,116	-0,56
880,543	-0,54
880,971	-0,53
881,399	-0,57
881,826	-0,58
882,254	-0,55
882,681	-0,58
883,109	-0,54
883,536	-0,55
883,963	-0,58
884,391	-0,55
884,818	-0,54
885,245	-0,58
885,673	-0,59
886,1	-0,55
886,527	-0,54
886,954	-0,51
887,381	-0,53
887,809	-0,54
888,236	-0,55
888,663	-0,55
889,09	-0,59
889,517	-0,61
889,944	-0,61
890,371	-0,6
890,798	-0,61
891,225	-0,61
891,652	-0,64
892,078	-0,62
892,505	-0,65
892,932	-0,61
893,359	-0,62
893,786	-0,62
894,212	-0,59
894,639	-0,6
895,066	-0,62
895,492	-0,56
895,919	-0,57
896,346	-0,56
896,772	-0,56
897,199	-0,52
897,625	-0,55
898,052	-0,51
898,478	-0,49
898,904	-0,51
899,331	-0,5
899,757	-0,53
900,183	-0,55
900,61	-0,53
901,036	-0,53
901,462	-0,53
901,888	-0,53
902,315	-0,53
902,741	-0,58
903,167	-0,57
903,593	-0,59
904,019	-0,58
904,445	-0,54
904,871	-0,57
905,297	-0,59
905,723	-0,59
906,149	-0,57
906,575	-0,58
907,001	-0,57
907,427	-0,55
907,852	-0,54
908,278	-0,55
908,704	-0,53
909,13	-0,52
909,555	-0,52
909,981	-0,51
910,407	-0,51
910,832	-0,52
911,258	-0,52
911,684	-0,51
912,109	-0,52
912,535	-0,53
912,96	-0,48
913,386	-0,52
913,811	-0,51
914,236	-0,52
914,662	-0,5
915,087	-0,54
915,512	-0,53
915,938	-0,55
916,363	-0,55
916,788	-0,56
917,213	-0,54
917,639	-0,59
918,064	-0,56
918,489	-0,57
918,914	-0,58
919,339	-0,59
919,764	-0,55
920,189	-0,55
920,614	-0,57
921,039	-0,57
921,464	-0,53
921,889	-0,57
922,314	-0,58
922,738	-0,61
923,163	-0,63
923,588	-0,62
924,013	-0,62
924,437	-0,63
924,862	-0,65
925,287	-0,61
925,711	-0,61
926,136	-0,62
926,561	-0,59
926,985	-0,59
927,41	-0,55
927,834	-0,54
928,259	-0,52
928,683	-0,5
929,108	-0,47
929,532	-0,48
929,956	-0,47
930,381	-0,46
930,805	-0,46
931,229	-0,46
931,653	-0,44
932,078	-0,45
932,502	-0,46
932,926	-0,46
933,35	-0,46
933,774	-0,46
934,198	-0,43
934,622	-0,42
935,046	-0,43
935,47	-0,44
935,894	-0,43
936,318	-0,43
936,742	-0,42
937,166	-0,42
937,59	-0,42
938,014	-0,44
938,437	-0,44
938,861	-0,47
939,285	-0,48
939,709	-0,47
940,132	-0,48
940,556	-0,48
940,98	-0,49
941,403	-0,48
941,827	-0,48
942,25	-0,48
942,674	-0,46
943,097	-0,47
943,521	-0,46
943,944	-0,47
944,368	-0,46
944,791	-0,45
945,214	-0,46
945,638	-0,46
946,061	-0,49
946,484	-0,49
946,907	-0,48
947,331	-0,49
947,754	-0,52
948,177	-0,5
948,6	-0,51
949,023	-0,5
949,446	-0,5
949,869	-0,48
950,292	-0,48
950,715	-0,44
951,138	-0,44
951,561	-0,41
951,984	-0,42
952,407	-0,4
952,83	-0,38
953,252	-0,34
953,675	-0,34
954,098	-0,36
954,521	-0,35
954,943	-0,34
955,366	-0,37
955,789	-0,35
956,211	-0,37
956,634	-0,37
957,056	-0,35
957,479	-0,36
957,902	-0,38
958,324	-0,38
958,746	-0,37
959,169	-0,38
959,591	-0,38
960,014	-0,38
960,436	-0,38
960,858	-0,37
961,281	-0,38
961,703	-0,39
962,125	-0,39
962,547	-0,37
962,969	-0,38
963,391	-0,38
963,814	-0,39
964,236	-0,38
964,658	-0,34
965,08	-0,35
965,502	-0,34
965,924	-0,3
966,346	-0,31
966,768	-0,3
967,189	-0,32
967,611	-0,31
968,033	-0,31
968,455	-0,29
968,877	-0,3
969,298	-0,32
969,72	-0,33
970,142	-0,32
970,563	-0,32
970,985	-0,3
971,407	-0,29
971,828	-0,27
972,25	-0,27
972,671	-0,26
973,093	-0,26
973,514	-0,25
973,936	-0,23
974,357	-0,22
974,778	-0,23
975,2	-0,23
975,621	-0,23
976,042	-0,21
976,464	-0,21
976,885	-0,19
977,306	-0,19
977,727	-0,18
978,148	-0,17
978,57	-0,16
978,991	-0,14
979,412	-0,13
979,833	-0,12
980,254	-0,11
980,675	-0,12
981,096	-0,11
981,517	-0,09
981,937	-0,09
982,358	-0,07
982,779	-0,06
983,2	-0,07
983,621	-0,06
984,042	-0,05
984,462	-0,04
984,883	-0,03
985,304	-0,01
985,724	-0,01
986,145	-0
986,565	0,02
986,986	0,02
987,407	0,03
987,827	0,04
988,248	0,05
988,668	0,06
989,088	0,07
989,509	0,07
989,929	0,08
990,35	0,09
990,77	0,1
991,19	0,11
991,61	0,12
992,031	0,13
992,451	0,14
992,871	0,14
993,291	0,15
993,711	0,15
994,131	0,16
994,551	0,16
994,971	0,17
995,391	0,17
995,811	0,17
996,231	0,18
996,651	0,18
997,071	0,19
997,491	0,19
997,911	0,2
998,331	0,2
998,75	0,21
999,17	0,21
999,59	0,21
1000,009	0,22
1000,429	0,22
1000,849	0,22
1001,268	0,23
1001,688	0,23
1002,107	0,23
1002,527	0,23
1002,946	0,24
1003,366	0,24
1003,785	0,24
1004,205	0,24
1004,624	0,24
1005,044	0,25
1005,463	0,25
1005,882	0,25
1006,301	0,25
1006,721	0,25
1007,14	0,25
1007,559	0,25
1007,978	0,25
1008,397	0,25
1008,816	0,25
1009,235	0,25
1009,655	0,25
1010,074	0,25
1010,492	0,25
1010,911	0,25
1011,33	0,24
1011,749	0,24
1012,168	0,24
1012,587	0,24
1013,006	0,24
1013,425	0,24
1013,843	0,24
1014,262	0,24
1014,681	0,24
1015,099	0,24
1015,518	0,24
1015,937	0,24
1016,355	0,24
1016,774	0,24
1017,192	0,24
1017,611	0,24
1018,029	0,24
1018,448	0,24
1018,866	0,24
1019,285	0,24
1019,703	0,24
1020,121	0,24
1020,54	0,24
1020,958	0,25
1021,376	0,25
1021,794	0,25
1022,213	0,25
1022,631	0,25
1023,049	0,24
1023,467	0,24
1023,885	0,24
1024,303	0,24
1024,721	0,24
1025,139	0,24
1025,557	0,24
1025,975	0,24
1026,393	0,24
1026,811	0,24
1027,229	0,24
1027,647	0,24
1028,065	0,24
1028,482	0,24
1028,9	0,24
1029,318	0,24
1029,735	0,24
1030,153	0,24
1030,571	0,24
1030,988	0,24
1031,406	0,24
1031,823	0,24
1032,241	0,24
1032,659	0,24
1033,076	0,24
1033,493	0,24
1033,911	0,24
1034,328	0,24
1034,746	0,24
1035,163	0,24
1035,58	0,24
1035,997	0,24
1036,415	0,24
1036,832	0,24
1037,249	0,24
1037,666	0,23
1038,083	0,23
1038,501	0,23
1038,918	0,23
1039,335	0,23
1039,752	0,23
1040,169	0,23
1040,586	0,23
1041,003	0,23
1041,419	0,23
1041,836	0,23
1042,253	0,23
1042,67	0,23
1043,087	0,23
1043,504	0,23
1043,92	0,23
1044,337	0,23
1044,754	0,22
1045,17	0,22
1045,587	0,22
1046,004	0,22
1046,42	0,22
1046,837	0,22
1047,253	0,22
1047,67	0,22
1048,086	0,22
1048,503	0,22
1048,919	0,22
1049,335	0,22
1049,752	0,22
1050,168	0,22
1050,584	0,22
1051,001	0,22
1051,417	0,22
1051,833	0,22
1052,249	0,22
1052,665	0,22
1053,081	0,22
1053,497	0,22
1053,914	0,23
1054,33	0,23
1054,746	0,23
1055,162	0,23
1055,578	0,23
1055,993	0,23
1056,409	0,23
1056,825	0,23
1057,241	0,23
1057,657	0,23
1058,073	0,23
1058,488	0,23
1058,904	0,23
1059,32	0,23
1059,736	0,23
1060,151	0,23
1060,567	0,23
1060,982	0,23
1061,398	0,23
1061,813	0,23
1062,229	0,23
1062,644	0,23
1063,06	0,23
1063,475	0,23
1063,891	0,23
1064,306	0,23
1064,721	0,23
1065,137	0,23
1065,552	0,23
1065,967	0,23
1066,382	0,23
1066,798	0,23
1067,213	0,23
1067,628	0,23
1068,043	0,23
1068,458	0,23
1068,873	0,23
1069,288	0,23
1069,703	0,23
1070,118	0,23
1070,533	0,23
1070,948	0,23
1071,363	0,23
1071,778	0,23
1072,193	0,23
1072,607	0,23
1073,022	0,23
1073,437	0,23
1073,852	0,24
1074,266	0,24
1074,681	0,24
1075,096	0,24
1075,51	0,24
1075,925	0,24
1076,339	0,24
1076,754	0,23
1077,168	0,23
1077,583	0,23
1077,997	0,23
1078,412	0,23
1078,826	0,23
1079,24	0,23
1079,655	0,23
1080,069	0,23
1080,483	0,23
1080,897	0,23
1081,312	0,23
1081,726	0,23
1082,14	0,22
1082,554	0,22
1082,968	0,22
1083,382	0,22
1083,796	0,22
1084,21	0,22
1084,624	0,22
1085,038	0,22
1085,452	0,22
1085,866	0,22
1086,28	0,22
1086,694	0,22
1087,108	0,22
1087,521	0,21
1087,935	0,21
1088,349	0,21
1088,763	0,21
1089,176	0,21
1089,59	0,21
1090,004	0,21
1090,417	0,2
1090,831	0,2
1091,244	0,2
1091,658	0,2
1092,071	0,2
1092,485	0,19
1092,898	0,19
1093,312	0,19
1093,725	0,19
1094,138	0,19
1094,552	0,19
1094,965	0,19
1095,378	0,19
1095,791	0,19
1096,205	0,19
1096,618	0,19
1097,031	0,18
1097,444	0,18
1097,857	0,18
1098,27	0,18
1098,683	0,18
1099,096	0,17
1099,509	0,17
1099,922	0,17
1100,335	0,16
1100,748	0,16
1101,161	0,16
1101,574	0,15
1101,986	0,15
1102,399	0,15
1102,812	0,15
1103,225	0,14
1103,637	0,14
1104,05	0,14
1104,463	0,14
1104,875	0,13
1105,288	0,13
1105,7	0,12
1106,113	0,12
1106,525	0,12
1106,938	0,12
1107,35	0,11
1107,763	0,11
1108,175	0,11
1108,588	0,11
1109	0,1
1109,412	0,1
1109,824	0,1
1110,237	0,11
1110,649	0,11
1111,061	0,1
