Data from 18C-808nm-8A_Absorbance__493__00493.txt Node

Date: Mon Jul 17 16:36:56 CEST 2023
User: Laser008
Spectrometer: MAYP115816
Trigger mode: 0
Integration Time (sec): 2,500000E-1
Scans to average: 10
Electric dark correction enabled: true
Nonlinearity correction enabled: true
Boxcar width: 5
XAxis mode: Wavelengths
Number of Pixels in Spectrum: 2068
>>>>>Begin Spectral Data<<<<<
198,914	-0,64
199,384	-0,43
199,855	-0,33
200,325	-0,26
200,796	-0,25
201,266	-0,21
201,737	-0,2
202,207	-0,19
202,677	-0,17
203,147	-0,16
203,618	-0,13
204,088	-0,12
204,558	-0,12
205,028	-0,11
205,498	-0,11
205,968	-0,11
206,439	-0,12
206,909	-0,11
207,379	-0,12
207,849	-0,13
208,319	-0,14
208,789	-0,14
209,258	-0,14
209,728	-0,15
210,198	-0,15
210,668	-0,16
211,138	-0,15
211,608	-0,14
212,077	-0,14
212,547	-0,13
213,017	-0,14
213,486	-0,13
213,956	-0,14
214,426	-0,15
214,895	-0,14
215,365	-0,16
215,834	-0,14
216,304	-0,16
216,773	-0,15
217,243	-0,17
217,712	-0,18
218,181	-0,17
218,651	-0,18
219,12	-0,17
219,589	-0,16
220,058	-0,16
220,528	-0,17
220,997	-0,18
221,466	-0,18
221,935	-0,19
222,404	-0,19
222,873	-0,18
223,342	-0,18
223,812	-0,18
224,281	-0,18
224,749	-0,2
225,218	-0,21
225,687	-0,21
226,156	-0,19
226,625	-0,17
227,094	-0,17
227,563	-0,17
228,031	-0,19
228,5	-0,18
228,969	-0,19
229,438	-0,19
229,906	-0,17
230,375	-0,16
230,844	-0,16
231,312	-0,16
231,781	-0,18
232,249	-0,17
232,718	-0,17
233,186	-0,16
233,655	-0,16
234,123	-0,16
234,591	-0,16
235,06	-0,16
235,528	-0,16
235,996	-0,16
236,465	-0,16
236,933	-0,15
237,401	-0,16
237,869	-0,15
238,337	-0,15
238,805	-0,14
239,274	-0,13
239,742	-0,13
240,21	-0,13
240,678	-0,13
241,146	-0,13
241,614	-0,13
242,081	-0,13
242,549	-0,13
243,017	-0,14
243,485	-0,13
243,953	-0,14
244,421	-0,14
244,888	-0,13
245,356	-0,13
245,824	-0,12
246,291	-0,12
246,759	-0,12
247,227	-0,13
247,694	-0,13
248,162	-0,12
248,629	-0,11
249,097	-0,12
249,564	-0,12
250,032	-0,13
250,499	-0,14
250,967	-0,15
251,434	-0,15
251,901	-0,16
252,369	-0,16
252,836	-0,17
253,303	-0,19
253,77	-0,19
254,237	-0,18
254,705	-0,19
255,172	-0,17
255,639	-0,17
256,106	-0,17
256,573	-0,17
257,04	-0,17
257,507	-0,18
257,974	-0,18
258,441	-0,15
258,908	-0,16
259,375	-0,17
259,841	-0,17
260,308	-0,18
260,775	-0,19
261,242	-0,18
261,709	-0,18
262,175	-0,19
262,642	-0,19
263,109	-0,18
263,575	-0,2
264,042	-0,18
264,508	-0,18
264,975	-0,19
265,441	-0,19
265,908	-0,2
266,374	-0,19
266,841	-0,19
267,307	-0,19
267,773	-0,18
268,24	-0,18
268,706	-0,18
269,172	-0,19
269,639	-0,2
270,105	-0,18
270,571	-0,19
271,037	-0,18
271,503	-0,2
271,969	-0,19
272,435	-0,18
272,902	-0,19
273,368	-0,21
273,834	-0,2
274,3	-0,2
274,765	-0,2
275,231	-0,21
275,697	-0,2
276,163	-0,19
276,629	-0,19
277,095	-0,21
277,56	-0,2
278,026	-0,2
278,492	-0,18
278,958	-0,18
279,423	-0,18
279,889	-0,18
280,354	-0,17
280,82	-0,18
281,286	-0,2
281,751	-0,19
282,217	-0,18
282,682	-0,18
283,147	-0,18
283,613	-0,19
284,078	-0,19
284,544	-0,21
285,009	-0,22
285,474	-0,21
285,939	-0,22
286,405	-0,21
286,87	-0,21
287,335	-0,2
287,8	-0,2
288,265	-0,2
288,73	-0,22
289,195	-0,24
289,66	-0,23
290,125	-0,21
290,59	-0,21
291,055	-0,21
291,52	-0,21
291,985	-0,21
292,45	-0,23
292,915	-0,23
293,38	-0,23
293,844	-0,21
294,309	-0,2
294,774	-0,19
295,239	-0,2
295,703	-0,21
296,168	-0,2
296,632	-0,19
297,097	-0,18
297,562	-0,16
298,026	-0,16
298,491	-0,16
298,955	-0,16
299,419	-0,15
299,884	-0,16
300,348	-0,15
300,813	-0,14
301,277	-0,14
301,741	-0,14
302,205	-0,14
302,67	-0,14
303,134	-0,14
303,598	-0,14
304,062	-0,13
304,526	-0,13
304,99	-0,14
305,454	-0,14
305,919	-0,13
306,383	-0,14
306,847	-0,14
307,31	-0,15
307,774	-0,16
308,238	-0,15
308,702	-0,15
309,166	-0,16
309,63	-0,17
310,094	-0,14
310,557	-0,14
311,021	-0,14
311,485	-0,14
311,948	-0,14
312,412	-0,13
312,876	-0,13
313,339	-0,14
313,803	-0,14
314,266	-0,13
314,73	-0,13
315,193	-0,14
315,657	-0,13
316,12	-0,13
316,584	-0,12
317,047	-0,11
317,51	-0,1
317,973	-0,1
318,437	-0,09
318,9	-0,08
319,363	-0,07
319,826	-0,07
320,29	-0,07
320,753	-0,08
321,216	-0,07
321,679	-0,08
322,142	-0,07
322,605	-0,09
323,068	-0,09
323,531	-0,08
323,994	-0,07
324,457	-0,07
324,92	-0,06
325,382	-0,06
325,845	-0,06
326,308	-0,05
326,771	-0,04
327,233	-0,04
327,696	-0,03
328,159	-0,03
328,622	-0,03
329,084	-0,03
329,547	-0,03
330,009	-0,02
330,472	-0,02
330,934	-0,02
331,397	-0,02
331,859	-0,01
332,322	-0,02
332,784	-0,02
333,246	-0,01
333,709	-0,02
334,171	-0,01
334,633	-0,01
335,096	-0,02
335,558	-0,01
336,02	-0,02
336,482	-0,02
336,944	-0,01
337,406	-0,01
337,868	-0,01
338,331	-0,01
338,793	0,01
339,255	0,01
339,717	0,01
340,178	0,02
340,64	0,02
341,102	0,03
341,564	0,04
342,026	0,05
342,488	0,05
342,949	0,06
343,411	0,07
343,873	0,09
344,335	0,1
344,796	0,12
345,258	0,14
345,719	0,16
346,181	0,18
346,643	0,19
347,104	0,2
347,566	0,22
348,027	0,23
348,488	0,24
348,95	0,24
349,411	0,25
349,873	0,26
350,334	0,27
350,795	0,27
351,256	0,28
351,718	0,28
352,179	0,28
352,64	0,28
353,101	0,28
353,562	0,28
354,023	0,28
354,484	0,28
354,945	0,28
355,406	0,28
355,867	0,28
356,328	0,28
356,789	0,29
357,25	0,29
357,711	0,29
358,172	0,29
358,633	0,29
359,093	0,29
359,554	0,29
360,015	0,29
360,476	0,29
360,936	0,29
361,397	0,29
361,858	0,29
362,318	0,29
362,779	0,29
363,239	0,29
363,7	0,29
364,16	0,29
364,621	0,29
365,081	0,29
365,541	0,29
366,002	0,29
366,462	0,29
366,922	0,29
367,383	0,29
367,843	0,29
368,303	0,29
368,763	0,29
369,223	0,29
369,684	0,29
370,144	0,29
370,604	0,29
371,064	0,29
371,524	0,29
371,984	0,29
372,444	0,29
372,904	0,29
373,363	0,29
373,823	0,29
374,283	0,29
374,743	0,29
375,203	0,29
375,663	0,29
376,122	0,29
376,582	0,29
377,042	0,29
377,501	0,29
377,961	0,29
378,42	0,29
378,88	0,29
379,34	0,29
379,799	0,29
380,259	0,29
380,718	0,29
381,177	0,29
381,637	0,29
382,096	0,29
382,555	0,29
383,015	0,29
383,474	0,29
383,933	0,29
384,393	0,29
384,852	0,29
385,311	0,29
385,77	0,29
386,229	0,29
386,688	0,28
387,147	0,28
387,606	0,28
388,065	0,28
388,524	0,28
388,983	0,28
389,442	0,28
389,901	0,28
390,36	0,28
390,819	0,28
391,277	0,28
391,736	0,28
392,195	0,28
392,654	0,28
393,112	0,28
393,571	0,28
394,03	0,28
394,488	0,28
394,947	0,28
395,405	0,28
395,864	0,28
396,322	0,28
396,781	0,28
397,239	0,28
397,698	0,28
398,156	0,28
398,614	0,28
399,073	0,28
399,531	0,28
399,989	0,28
400,447	0,28
400,905	0,28
401,364	0,28
401,822	0,28
402,28	0,28
402,738	0,28
403,196	0,28
403,654	0,28
404,112	0,28
404,57	0,28
405,028	0,28
405,486	0,28
405,944	0,28
406,402	0,28
406,859	0,28
407,317	0,28
407,775	0,28
408,233	0,28
408,691	0,28
409,148	0,28
409,606	0,28
410,064	0,28
410,521	0,28
410,979	0,28
411,436	0,28
411,894	0,28
412,351	0,27
412,809	0,27
413,266	0,27
413,724	0,27
414,181	0,27
414,638	0,27
415,096	0,27
415,553	0,27
416,01	0,27
416,467	0,27
416,925	0,27
417,382	0,27
417,839	0,27
418,296	0,27
418,753	0,27
419,21	0,27
419,667	0,27
420,124	0,27
420,581	0,27
421,038	0,27
421,495	0,27
421,952	0,27
422,409	0,27
422,866	0,27
423,322	0,27
423,779	0,27
424,236	0,27
424,693	0,27
425,149	0,27
425,606	0,27
426,063	0,27
426,519	0,27
426,976	0,27
427,433	0,27
427,889	0,27
428,346	0,27
428,802	0,27
429,258	0,27
429,715	0,27
430,171	0,27
430,628	0,27
431,084	0,27
431,54	0,27
431,997	0,27
432,453	0,27
432,909	0,27
433,365	0,27
433,821	0,27
434,277	0,27
434,734	0,27
435,19	0,27
435,646	0,27
436,102	0,27
436,558	0,27
437,014	0,27
437,47	0,27
437,925	0,27
438,381	0,27
438,837	0,27
439,293	0,27
439,749	0,27
440,205	0,27
440,66	0,27
441,116	0,26
441,572	0,26
442,027	0,26
442,483	0,26
442,939	0,26
443,394	0,26
443,85	0,26
444,305	0,26
444,761	0,26
445,216	0,27
445,672	0,27
446,127	0,27
446,582	0,27
447,038	0,27
447,493	0,27
447,948	0,27
448,403	0,27
448,859	0,27
449,314	0,27
449,769	0,27
450,224	0,27
450,679	0,27
451,134	0,27
451,589	0,27
452,044	0,27
452,499	0,27
452,954	0,27
453,409	0,27
453,864	0,27
454,319	0,27
454,774	0,27
455,229	0,27
455,684	0,27
456,138	0,27
456,593	0,26
457,048	0,26
457,503	0,26
457,957	0,26
458,412	0,26
458,866	0,26
459,321	0,26
459,776	0,26
460,23	0,26
460,685	0,27
461,139	0,27
461,593	0,27
462,048	0,27
462,502	0,27
462,957	0,27
463,411	0,27
463,865	0,27
464,319	0,27
464,774	0,27
465,228	0,27
465,682	0,27
466,136	0,27
466,59	0,27
467,044	0,27
467,499	0,27
467,953	0,27
468,407	0,27
468,861	0,27
469,315	0,27
469,768	0,27
470,222	0,27
470,676	0,27
471,13	0,27
471,584	0,27
472,038	0,27
472,491	0,27
472,945	0,27
473,399	0,27
473,852	0,27
474,306	0,27
474,76	0,27
475,213	0,27
475,667	0,27
476,12	0,27
476,574	0,27
477,027	0,27
477,481	0,27
477,934	0,28
478,388	0,28
478,841	0,28
479,294	0,28
479,748	0,28
480,201	0,28
480,654	0,28
481,107	0,28
481,561	0,28
482,014	0,28
482,467	0,28
482,92	0,28
483,373	0,28
483,826	0,28
484,279	0,28
484,732	0,28
485,185	0,29
485,638	0,29
486,091	0,29
486,544	0,29
486,997	0,29
487,449	0,29
487,902	0,29
488,355	0,29
488,808	0,29
489,26	0,29
489,713	0,29
490,166	0,3
490,618	0,3
491,071	0,3
491,523	0,3
491,976	0,3
492,429	0,3
492,881	0,3
493,333	0,3
493,786	0,31
494,238	0,31
494,691	0,31
495,143	0,31
495,595	0,31
496,048	0,31
496,5	0,31
496,952	0,31
497,404	0,32
497,856	0,32
498,309	0,32
498,761	0,32
499,213	0,32
499,665	0,32
500,117	0,33
500,569	0,33
501,021	0,33
501,473	0,33
501,925	0,33
502,377	0,33
502,828	0,34
503,28	0,34
503,732	0,34
504,184	0,34
504,636	0,34
505,087	0,35
505,539	0,35
505,991	0,35
506,442	0,35
506,894	0,35
507,345	0,35
507,797	0,36
508,249	0,36
508,7	0,36
509,151	0,36
509,603	0,36
510,054	0,36
510,506	0,37
510,957	0,37
511,408	0,37
511,86	0,37
512,311	0,37
512,762	0,37
513,213	0,38
513,665	0,38
514,116	0,38
514,567	0,38
515,018	0,38
515,469	0,38
515,92	0,38
516,371	0,39
516,822	0,39
517,273	0,39
517,724	0,39
518,175	0,39
518,626	0,39
519,076	0,39
519,527	0,4
519,978	0,4
520,429	0,4
520,88	0,4
521,33	0,4
521,781	0,4
522,232	0,4
522,682	0,4
523,133	0,41
523,583	0,41
524,034	0,41
524,484	0,41
524,935	0,41
525,385	0,41
525,836	0,41
526,286	0,41
526,736	0,41
527,187	0,41
527,637	0,41
528,087	0,41
528,538	0,41
528,988	0,41
529,438	0,41
529,888	0,41
530,338	0,41
530,788	0,41
531,238	0,41
531,688	0,41
532,139	0,41
532,589	0,41
533,038	0,41
533,488	0,41
533,938	0,41
534,388	0,41
534,838	0,41
535,288	0,41
535,738	0,41
536,187	0,41
536,637	0,41
537,087	0,4
537,537	0,4
537,986	0,4
538,436	0,4
538,885	0,4
539,335	0,4
539,785	0,4
540,234	0,39
540,684	0,39
541,133	0,39
541,582	0,39
542,032	0,39
542,481	0,39
542,931	0,39
543,38	0,38
543,829	0,38
544,278	0,38
544,728	0,38
545,177	0,38
545,626	0,38
546,075	0,38
546,524	0,38
546,973	0,38
547,422	0,38
547,871	0,37
548,32	0,37
548,769	0,37
549,218	0,37
549,667	0,37
550,116	0,37
550,565	0,37
551,014	0,37
551,463	0,37
551,911	0,37
552,36	0,37
552,809	0,36
553,258	0,36
553,706	0,36
554,155	0,36
554,603	0,36
555,052	0,36
555,501	0,36
555,949	0,36
556,398	0,36
556,846	0,35
557,294	0,35
557,743	0,35
558,191	0,35
558,64	0,35
559,088	0,35
559,536	0,34
559,985	0,34
560,433	0,34
560,881	0,34
561,329	0,34
561,777	0,34
562,225	0,34
562,674	0,34
563,122	0,34
563,57	0,34
564,018	0,33
564,466	0,33
564,914	0,33
565,362	0,33
565,809	0,33
566,257	0,33
566,705	0,33
567,153	0,32
567,601	0,32
568,048	0,32
568,496	0,32
568,944	0,32
569,392	0,32
569,839	0,32
570,287	0,32
570,734	0,32
571,182	0,32
571,63	0,31
572,077	0,31
572,525	0,31
572,972	0,31
573,419	0,31
573,867	0,31
574,314	0,31
574,761	0,31
575,209	0,3
575,656	0,3
576,103	0,3
576,551	0,3
576,998	0,3
577,445	0,3
577,892	0,3
578,339	0,3
578,786	0,3
579,233	0,3
579,68	0,3
580,127	0,3
580,574	0,3
581,021	0,3
581,468	0,3
581,915	0,29
582,362	0,29
582,809	0,29
583,255	0,29
583,702	0,29
584,149	0,29
584,596	0,29
585,042	0,29
585,489	0,29
585,936	0,29
586,382	0,29
586,829	0,29
587,275	0,29
587,722	0,29
588,168	0,28
588,615	0,28
589,061	0,28
589,508	0,28
589,954	0,28
590,4	0,28
590,847	0,28
591,293	0,28
591,739	0,28
592,185	0,28
592,632	0,28
593,078	0,28
593,524	0,28
593,97	0,28
594,416	0,28
594,862	0,28
595,308	0,28
595,754	0,28
596,2	0,28
596,646	0,28
597,092	0,27
597,538	0,27
597,984	0,27
598,43	0,27
598,876	0,27
599,321	0,27
599,767	0,27
600,213	0,27
600,659	0,27
601,104	0,27
601,55	0,27
601,995	0,27
602,441	0,27
602,887	0,27
603,332	0,27
603,778	0,27
604,223	0,27
604,668	0,27
605,114	0,27
605,559	0,27
606,005	0,27
606,45	0,27
606,895	0,27
607,341	0,27
607,786	0,27
608,231	0,27
608,676	0,26
609,121	0,26
609,566	0,26
610,012	0,26
610,457	0,25
610,902	0,25
611,347	0,25
611,792	0,25
612,237	0,25
612,682	0,25
613,127	0,25
613,571	0,25
614,016	0,25
614,461	0,25
614,906	0,25
615,351	0,25
615,795	0,25
616,24	0,25
616,685	0,25
617,129	0,25
617,574	0,25
618,019	0,25
618,463	0,25
618,908	0,25
619,352	0,25
619,797	0,25
620,241	0,25
620,686	0,25
621,13	0,25
621,574	0,25
622,019	0,25
622,463	0,25
622,907	0,25
623,352	0,25
623,796	0,25
624,24	0,25
624,684	0,25
625,128	0,25
625,572	0,25
626,016	0,25
626,461	0,25
626,905	0,25
627,349	0,25
627,793	0,25
628,236	0,25
628,68	0,25
629,124	0,25
629,568	0,25
630,012	0,25
630,456	0,25
630,9	0,25
631,343	0,25
631,787	0,25
632,231	0,25
632,674	0,25
633,118	0,25
633,562	0,25
634,005	0,25
634,449	0,25
634,892	0,25
635,336	0,25
635,779	0,25
636,223	0,25
636,666	0,25
637,109	0,25
637,553	0,25
637,996	0,25
638,439	0,25
638,883	0,25
639,326	0,25
639,769	0,25
640,212	0,25
640,655	0,25
641,099	0,24
641,542	0,24
641,985	0,24
642,428	0,24
642,871	0,24
643,314	0,24
643,757	0,24
644,2	0,24
644,643	0,24
645,085	0,24
645,528	0,24
645,971	0,24
646,414	0,24
646,857	0,24
647,299	0,24
647,742	0,24
648,185	0,24
648,627	0,24
649,07	0,24
649,513	0,24
649,955	0,24
650,398	0,24
650,84	0,24
651,283	0,24
651,725	0,24
652,168	0,24
652,61	0,24
653,052	0,24
653,495	0,24
653,937	0,19
654,379	0,15
654,821	0,16
655,264	0,16
655,706	0,16
656,148	0,16
656,59	0,16
657,032	0,16
657,474	0,16
657,916	0,16
658,358	0,15
658,8	0,19
659,242	0,24
659,684	0,24
660,126	0,24
660,568	0,24
661,01	0,24
661,452	0,24
661,894	0,24
662,335	0,24
662,777	0,24
663,219	0,24
663,661	0,24
664,102	0,24
664,544	0,24
664,985	0,24
665,427	0,24
665,869	0,24
666,31	0,24
666,752	0,24
667,193	0,24
667,634	0,24
668,076	0,24
668,517	0,24
668,959	0,24
669,4	0,24
669,841	0,24
670,282	0,24
670,724	0,24
671,165	0,23
671,606	0,23
672,047	0,23
672,488	0,23
672,929	0,23
673,37	0,23
673,811	0,23
674,252	0,23
674,693	0,23
675,134	0,23
675,575	0,23
676,016	0,23
676,457	0,23
676,898	0,23
677,339	0,23
677,78	0,23
678,22	0,23
678,661	0,23
679,102	0,23
679,542	0,23
679,983	0,23
680,424	0,23
680,864	0,23
681,305	0,23
681,745	0,23
682,186	0,23
682,626	0,23
683,067	0,23
683,507	0,23
683,948	0,23
684,388	0,23
684,828	0,23
685,269	0,23
685,709	0,23
686,149	0,23
686,589	0,23
687,029	0,23
687,47	0,23
687,91	0,23
688,35	0,23
688,79	0,23
689,23	0,23
689,67	0,22
690,11	0,22
690,55	0,22
690,99	0,22
691,43	0,22
691,87	0,22
692,31	0,22
692,749	0,22
693,189	0,22
693,629	0,22
694,069	0,22
694,508	0,22
694,948	0,22
695,388	0,22
695,827	0,22
696,267	0,22
696,706	0,22
697,146	0,22
697,586	0,22
698,025	0,22
698,464	0,22
698,904	0,22
699,343	0,22
699,783	0,22
700,222	0,22
700,661	0,22
701,101	0,22
701,54	0,22
701,979	0,22
702,418	0,22
702,857	0,22
703,297	0,22
703,736	0,22
704,175	0,22
704,614	0,22
705,053	0,22
705,492	0,22
705,931	0,22
706,37	0,22
706,809	0,21
707,248	0,21
707,687	0,21
708,125	0,21
708,564	0,21
709,003	0,21
709,442	0,21
709,88	0,21
710,319	0,21
710,758	0,21
711,196	0,21
711,635	0,21
712,074	0,21
712,512	0,21
712,951	0,21
713,389	0,21
713,828	0,21
714,266	0,21
714,705	0,21
715,143	0,21
715,581	0,21
716,02	0,21
716,458	0,21
716,896	0,21
717,334	0,2
717,773	0,2
718,211	0,2
718,649	0,2
719,087	0,2
719,525	0,21
719,963	0,21
720,401	0,21
720,839	0,21
721,277	0,21
721,715	0,21
722,153	0,21
722,591	0,21
723,029	0,21
723,467	0,21
723,905	0,21
724,342	0,21
724,78	0,21
725,218	0,21
725,656	0,2
726,093	0,2
726,531	0,2
726,969	0,2
727,406	0,2
727,844	0,2
728,281	0,2
728,719	0,2
729,156	0,2
729,594	0,2
730,031	0,2
730,469	0,2
730,906	0,2
731,343	0,2
731,781	0,2
732,218	0,2
732,655	0,2
733,092	0,2
733,53	0,2
733,967	0,2
734,404	0,2
734,841	0,2
735,278	0,2
735,715	0,2
736,152	0,2
736,589	0,2
737,026	0,2
737,463	0,19
737,9	0,19
738,337	0,19
738,774	0,19
739,211	0,19
739,647	0,19
740,084	0,19
740,521	0,19
740,958	0,19
741,394	0,19
741,831	0,19
742,268	0,19
742,704	0,19
743,141	0,19
743,577	0,19
744,014	0,19
744,45	0,19
744,887	0,19
745,323	0,19
745,76	0,19
746,196	0,19
746,632	0,18
747,069	0,18
747,505	0,18
747,941	0,18
748,378	0,18
748,814	0,18
749,25	0,18
749,686	0,19
750,122	0,19
750,558	0,19
750,994	0,19
751,43	0,19
751,866	0,19
752,302	0,19
752,738	0,19
753,174	0,2
753,61	0,2
754,046	0,2
754,482	0,2
754,918	0,2
755,354	0,2
755,789	0,2
756,225	0,2
756,661	0,2
757,096	0,2
757,532	0,2
757,968	0,2
758,403	0,19
758,839	0,19
759,274	0,19
759,71	0,19
760,145	0,18
760,581	0,18
761,016	0,18
761,452	0,18
761,887	0,17
762,322	0,17
762,758	0,17
763,193	0,16
763,628	0,16
764,063	0,16
764,499	0,15
764,934	0,15
765,369	0,14
765,804	0,14
766,239	0,14
766,674	0,13
767,109	0,13
767,544	0,12
767,979	0,12
768,414	0,11
768,849	0,11
769,284	0,1
769,719	0,1
770,154	0,09
770,588	0,09
771,023	0,08
771,458	0,08
771,893	0,07
772,327	0,06
772,762	0,05
773,197	0,05
773,631	0,04
774,066	0,04
774,5	0,03
774,935	0,02
775,369	0,01
775,804	0,01
776,238	0
776,673	-0
777,107	-0,01
777,541	-0,01
777,976	-0,03
778,41	-0,03
778,844	-0,04
779,279	-0,04
779,713	-0,05
780,147	-0,06
780,581	-0,06
781,015	-0,07
781,449	-0,08
781,883	-0,09
782,317	-0,1
782,751	-0,1
783,185	-0,11
783,619	-0,11
784,053	-0,12
784,487	-0,13
784,921	-0,13
785,355	-0,14
785,789	-0,14
786,223	-0,15
786,656	-0,16
787,09	-0,16
787,524	-0,17
787,957	-0,18
788,391	-0,2
788,825	-0,21
789,258	-0,23
789,692	-0,25
790,125	-0,26
790,559	-0,28
790,992	-0,3
791,426	-0,33
791,859	-0,35
792,293	-0,38
792,726	-0,4
793,159	-0,42
793,593	-0,45
794,026	-0,47
794,459	-0,5
794,892	-0,53
795,326	-0,56
795,759	-0,6
796,192	-0,64
796,625	-0,69
797,058	-0,72
797,491	-0,76
797,924	-0,81
798,357	-0,86
798,79	-0,91
799,223	-0,95
799,656	-1,01
800,089	-1,07
800,522	-1,11
800,955	-1,16
801,387	-1,22
801,82	-1,27
802,253	-1,34
802,686	-1,42
803,118	-1,48
803,551	-1,53
803,984	-1,58
804,416	-1,64
804,849	-1,75
805,281	-2,04
805,714	-2,4
806,146	-2,67
806,579	-2,86
807,011	-2,98
807,444	-3,05
807,876	-3,09
808,308	-3,11
808,741	-3,14
809,173	-3,19
809,605	-3,2
810,037	-3,26
810,47	-3,12
810,902	-2,9
811,334	-2,73
811,766	-2,52
812,198	-2,11
812,63	-1,87
813,062	-1,77
813,494	-1,69
813,926	-1,61
814,358	-1,56
814,79	-1,48
815,222	-1,42
815,654	-1,37
816,086	-1,31
816,518	-1,25
816,949	-1,2
817,381	-1,16
817,813	-1,14
818,245	-1,1
818,676	-1,06
819,108	-1,02
819,54	-1,01
819,971	-0,98
820,403	-0,93
820,834	-0,92
821,266	-0,88
821,697	-0,85
822,129	-0,83
822,56	-0,81
822,991	-0,78
823,423	-0,75
823,854	-0,74
824,286	-0,71
824,717	-0,7
825,148	-0,68
825,579	-0,67
826,01	-0,65
826,442	-0,64
826,873	-0,63
827,304	-0,6
827,735	-0,59
828,166	-0,6
828,597	-0,59
829,028	-0,59
829,459	-0,6
829,89	-0,59
830,321	-0,55
830,752	-0,56
831,183	-0,55
831,613	-0,54
832,044	-0,54
832,475	-0,52
832,906	-0,53
833,336	-0,53
833,767	-0,54
834,198	-0,53
834,628	-0,51
835,059	-0,53
835,49	-0,54
835,92	-0,51
836,351	-0,51
836,781	-0,5
837,212	-0,52
837,642	-0,52
838,072	-0,5
838,503	-0,5
838,933	-0,48
839,364	-0,48
839,794	-0,47
840,224	-0,46
840,654	-0,5
841,085	-0,51
841,515	-0,48
841,945	-0,49
842,375	-0,45
842,805	-0,44
843,235	-0,43
843,665	-0,45
844,095	-0,43
844,525	-0,44
844,955	-0,45
845,385	-0,43
845,815	-0,41
846,245	-0,44
846,675	-0,45
847,105	-0,47
847,534	-0,47
847,964	-0,45
848,394	-0,43
848,824	-0,47
849,253	-0,46
849,683	-0,46
850,112	-0,47
850,542	-0,5
850,972	-0,5
851,401	-0,48
851,831	-0,45
852,26	-0,46
852,69	-0,51
853,119	-0,5
853,548	-0,51
853,978	-0,51
854,407	-0,49
854,836	-0,48
855,266	-0,47
855,695	-0,48
856,124	-0,49
856,553	-0,5
856,983	-0,52
857,412	-0,5
857,841	-0,51
858,27	-0,51
858,699	-0,51
859,128	-0,54
859,557	-0,55
859,986	-0,56
860,415	-0,54
860,844	-0,52
861,273	-0,52
861,702	-0,53
862,13	-0,5
862,559	-0,5
862,988	-0,47
863,417	-0,47
863,845	-0,46
864,274	-0,47
864,703	-0,47
865,131	-0,48
865,56	-0,48
865,989	-0,52
866,417	-0,48
866,846	-0,49
867,274	-0,49
867,703	-0,51
868,131	-0,53
868,559	-0,53
868,988	-0,56
869,416	-0,54
869,844	-0,56
870,273	-0,59
870,701	-0,55
871,129	-0,59
871,557	-0,61
871,986	-0,62
872,414	-0,63
872,842	-0,6
873,27	-0,58
873,698	-0,55
874,126	-0,59
874,554	-0,56
874,982	-0,57
875,41	-0,6
875,838	-0,55
876,266	-0,52
876,694	-0,53
877,122	-0,52
877,549	-0,57
877,977	-0,54
878,405	-0,56
878,833	-0,53
879,26	-0,52
879,688	-0,52
880,116	-0,5
880,543	-0,5
880,971	-0,5
881,399	-0,52
881,826	-0,52
882,254	-0,51
882,681	-0,54
883,109	-0,5
883,536	-0,51
883,963	-0,53
884,391	-0,51
884,818	-0,49
885,245	-0,51
885,673	-0,53
886,1	-0,5
886,527	-0,5
886,954	-0,46
887,381	-0,48
887,809	-0,5
888,236	-0,5
888,663	-0,51
889,09	-0,54
889,517	-0,57
889,944	-0,57
890,371	-0,55
890,798	-0,56
891,225	-0,56
891,652	-0,58
892,078	-0,54
892,505	-0,57
892,932	-0,52
893,359	-0,53
893,786	-0,53
894,212	-0,5
894,639	-0,51
895,066	-0,53
895,492	-0,48
895,919	-0,48
896,346	-0,49
896,772	-0,5
897,199	-0,47
897,625	-0,5
898,052	-0,47
898,478	-0,46
898,904	-0,48
899,331	-0,47
899,757	-0,49
900,183	-0,5
900,61	-0,48
901,036	-0,49
901,462	-0,49
901,888	-0,48
902,315	-0,47
902,741	-0,53
903,167	-0,51
903,593	-0,54
904,019	-0,53
904,445	-0,51
904,871	-0,54
905,297	-0,56
905,723	-0,56
906,149	-0,54
906,575	-0,56
907,001	-0,56
907,427	-0,51
907,852	-0,5
908,278	-0,51
908,704	-0,5
909,13	-0,48
909,555	-0,47
909,981	-0,47
910,407	-0,46
910,832	-0,46
911,258	-0,46
911,684	-0,46
912,109	-0,47
912,535	-0,49
912,96	-0,43
913,386	-0,47
913,811	-0,47
914,236	-0,49
914,662	-0,47
915,087	-0,51
915,512	-0,5
915,938	-0,52
916,363	-0,51
916,788	-0,53
917,213	-0,5
917,639	-0,56
918,064	-0,53
918,489	-0,53
918,914	-0,53
919,339	-0,54
919,764	-0,52
920,189	-0,52
920,614	-0,54
921,039	-0,56
921,464	-0,51
921,889	-0,53
922,314	-0,54
922,738	-0,57
923,163	-0,59
923,588	-0,58
924,013	-0,58
924,437	-0,58
924,862	-0,6
925,287	-0,56
925,711	-0,56
926,136	-0,59
926,561	-0,57
926,985	-0,56
927,41	-0,54
927,834	-0,52
928,259	-0,49
928,683	-0,47
929,108	-0,45
929,532	-0,46
929,956	-0,45
930,381	-0,44
930,805	-0,45
931,229	-0,44
931,653	-0,43
932,078	-0,42
932,502	-0,43
932,926	-0,43
933,35	-0,43
933,774	-0,42
934,198	-0,4
934,622	-0,38
935,046	-0,39
935,47	-0,39
935,894	-0,38
936,318	-0,39
936,742	-0,39
937,166	-0,39
937,59	-0,39
938,014	-0,41
938,437	-0,41
938,861	-0,44
939,285	-0,45
939,709	-0,43
940,132	-0,44
940,556	-0,45
940,98	-0,44
941,403	-0,44
941,827	-0,43
942,25	-0,44
942,674	-0,43
943,097	-0,43
943,521	-0,42
943,944	-0,43
944,368	-0,42
944,791	-0,42
945,214	-0,43
945,638	-0,43
946,061	-0,46
946,484	-0,47
946,907	-0,46
947,331	-0,46
947,754	-0,51
948,177	-0,49
948,6	-0,49
949,023	-0,48
949,446	-0,49
949,869	-0,46
950,292	-0,47
950,715	-0,43
951,138	-0,41
951,561	-0,4
951,984	-0,4
952,407	-0,38
952,83	-0,36
953,252	-0,32
953,675	-0,32
954,098	-0,32
954,521	-0,31
954,943	-0,31
955,366	-0,32
955,789	-0,3
956,211	-0,32
956,634	-0,32
957,056	-0,3
957,479	-0,33
957,902	-0,35
958,324	-0,35
958,746	-0,33
959,169	-0,33
959,591	-0,33
960,014	-0,34
960,436	-0,35
960,858	-0,34
961,281	-0,34
961,703	-0,34
962,125	-0,33
962,547	-0,31
962,969	-0,32
963,391	-0,34
963,814	-0,35
964,236	-0,34
964,658	-0,32
965,08	-0,32
965,502	-0,32
965,924	-0,29
966,346	-0,3
966,768	-0,3
967,189	-0,32
967,611	-0,3
968,033	-0,29
968,455	-0,27
968,877	-0,29
969,298	-0,31
969,72	-0,32
970,142	-0,31
970,563	-0,32
970,985	-0,31
971,407	-0,3
971,828	-0,28
972,25	-0,28
972,671	-0,27
973,093	-0,27
973,514	-0,25
973,936	-0,24
974,357	-0,23
974,778	-0,23
975,2	-0,23
975,621	-0,22
976,042	-0,2
976,464	-0,2
976,885	-0,19
977,306	-0,18
977,727	-0,17
978,148	-0,17
978,57	-0,16
978,991	-0,14
979,412	-0,13
979,833	-0,12
980,254	-0,12
980,675	-0,13
981,096	-0,12
981,517	-0,1
981,937	-0,1
982,358	-0,08
982,779	-0,07
983,2	-0,07
983,621	-0,07
984,042	-0,06
984,462	-0,06
984,883	-0,05
985,304	-0,04
985,724	-0,03
986,145	-0,03
986,565	-0,02
986,986	-0,02
987,407	-0,02
987,827	-0,01
988,248	0,01
988,668	0,01
989,088	0,02
989,509	0,02
989,929	0,03
990,35	0,04
990,77	0,04
991,19	0,05
991,61	0,05
992,031	0,06
992,451	0,06
992,871	0,06
993,291	0,06
993,711	0,07
994,131	0,07
994,551	0,07
994,971	0,07
995,391	0,07
995,811	0,08
996,231	0,08
996,651	0,08
997,071	0,08
997,491	0,09
997,911	0,09
998,331	0,09
998,75	0,1
999,17	0,1
999,59	0,1
1000,009	0,1
1000,429	0,11
1000,849	0,11
1001,268	0,11
1001,688	0,11
1002,107	0,11
1002,527	0,11
1002,946	0,12
1003,366	0,12
1003,785	0,12
1004,205	0,12
1004,624	0,12
1005,044	0,12
1005,463	0,12
1005,882	0,12
1006,301	0,12
1006,721	0,12
1007,14	0,12
1007,559	0,12
1007,978	0,12
1008,397	0,12
1008,816	0,12
1009,235	0,12
1009,655	0,12
1010,074	0,12
1010,492	0,12
1010,911	0,12
1011,33	0,12
1011,749	0,12
1012,168	0,12
1012,587	0,12
1013,006	0,12
1013,425	0,12
1013,843	0,11
1014,262	0,11
1014,681	0,11
1015,099	0,11
1015,518	0,11
1015,937	0,11
1016,355	0,11
1016,774	0,11
1017,192	0,12
1017,611	0,12
1018,029	0,12
1018,448	0,12
1018,866	0,12
1019,285	0,12
1019,703	0,12
1020,121	0,12
1020,54	0,12
1020,958	0,12
1021,376	0,12
1021,794	0,12
1022,213	0,12
1022,631	0,12
1023,049	0,12
1023,467	0,12
1023,885	0,12
1024,303	0,12
1024,721	0,12
1025,139	0,12
1025,557	0,12
1025,975	0,12
1026,393	0,12
1026,811	0,11
1027,229	0,11
1027,647	0,11
1028,065	0,11
1028,482	0,11
1028,9	0,11
1029,318	0,11
1029,735	0,11
1030,153	0,11
1030,571	0,11
1030,988	0,11
1031,406	0,11
1031,823	0,11
1032,241	0,11
1032,659	0,11
1033,076	0,12
1033,493	0,12
1033,911	0,11
1034,328	0,12
1034,746	0,11
1035,163	0,12
1035,58	0,12
1035,997	0,12
1036,415	0,12
1036,832	0,12
1037,249	0,12
1037,666	0,11
1038,083	0,11
1038,501	0,11
1038,918	0,11
1039,335	0,11
1039,752	0,11
1040,169	0,11
1040,586	0,11
1041,003	0,11
1041,419	0,11
1041,836	0,11
1042,253	0,11
1042,67	0,11
1043,087	0,11
1043,504	0,11
1043,92	0,11
1044,337	0,11
1044,754	0,11
1045,17	0,11
1045,587	0,11
1046,004	0,11
1046,42	0,11
1046,837	0,11
1047,253	0,11
1047,67	0,11
1048,086	0,11
1048,503	0,11
1048,919	0,11
1049,335	0,11
1049,752	0,1
1050,168	0,1
1050,584	0,1
1051,001	0,1
1051,417	0,1
1051,833	0,1
1052,249	0,1
1052,665	0,1
1053,081	0,1
1053,497	0,1
1053,914	0,1
1054,33	0,1
1054,746	0,1
1055,162	0,1
1055,578	0,1
1055,993	0,1
1056,409	0,1
1056,825	0,1
1057,241	0,1
1057,657	0,1
1058,073	0,1
1058,488	0,1
1058,904	0,1
1059,32	0,1
1059,736	0,1
1060,151	0,1
1060,567	0,1
1060,982	0,1
1061,398	0,1
1061,813	0,1
1062,229	0,1
1062,644	0,1
1063,06	0,1
1063,475	0,1
1063,891	0,1
1064,306	0,1
1064,721	0,1
1065,137	0,1
1065,552	0,1
1065,967	0,1
1066,382	0,1
1066,798	0,1
1067,213	0,1
1067,628	0,1
1068,043	0,1
1068,458	0,1
1068,873	0,1
1069,288	0,1
1069,703	0,1
1070,118	0,1
1070,533	0,11
1070,948	0,11
1071,363	0,11
1071,778	0,11
1072,193	0,11
1072,607	0,11
1073,022	0,11
1073,437	0,11
1073,852	0,11
1074,266	0,11
1074,681	0,11
1075,096	0,11
1075,51	0,11
1075,925	0,11
1076,339	0,11
1076,754	0,11
1077,168	0,11
1077,583	0,1
1077,997	0,1
1078,412	0,1
1078,826	0,1
1079,24	0,1
1079,655	0,1
1080,069	0,1
1080,483	0,1
1080,897	0,1
1081,312	0,1
1081,726	0,1
1082,14	0,1
1082,554	0,1
1082,968	0,1
1083,382	0,1
1083,796	0,1
1084,21	0,1
1084,624	0,1
1085,038	0,1
1085,452	0,1
1085,866	0,1
1086,28	0,09
1086,694	0,09
1087,108	0,09
1087,521	0,09
1087,935	0,09
1088,349	0,09
1088,763	0,09
1089,176	0,09
1089,59	0,09
1090,004	0,09
1090,417	0,09
1090,831	0,09
1091,244	0,08
1091,658	0,08
1092,071	0,08
1092,485	0,08
1092,898	0,08
1093,312	0,08
1093,725	0,08
1094,138	0,08
1094,552	0,08
1094,965	0,08
1095,378	0,08
1095,791	0,08
1096,205	0,07
1096,618	0,07
1097,031	0,07
1097,444	0,07
1097,857	0,07
1098,27	0,07
1098,683	0,07
1099,096	0,07
1099,509	0,07
1099,922	0,07
1100,335	0,07
1100,748	0,07
1101,161	0,06
1101,574	0,06
1101,986	0,06
1102,399	0,06
1102,812	0,05
1103,225	0,05
1103,637	0,05
1104,05	0,05
1104,463	0,05
1104,875	0,04
1105,288	0,04
1105,7	0,04
1106,113	0,04
1106,525	0,03
1106,938	0,03
1107,35	0,03
1107,763	0,03
1108,175	0,03
1108,588	0,02
1109	0,02
1109,412	0,02
1109,824	0,02
1110,237	0,02
1110,649	0,02
1111,061	0,03
