Data from 18C-808nm-8A_Absorbance__871__00871.txt Node

Date: Mon Jul 17 16:52:41 CEST 2023
User: Laser008
Spectrometer: MAYP115816
Trigger mode: 0
Integration Time (sec): 2,500000E-1
Scans to average: 10
Electric dark correction enabled: true
Nonlinearity correction enabled: true
Boxcar width: 5
XAxis mode: Wavelengths
Number of Pixels in Spectrum: 2068
>>>>>Begin Spectral Data<<<<<
198,914	-0,65
199,384	-0,46
199,855	-0,33
200,325	-0,27
200,796	-0,24
201,266	-0,2
201,737	-0,19
202,207	-0,18
202,677	-0,18
203,147	-0,17
203,618	-0,15
204,088	-0,13
204,558	-0,12
205,028	-0,12
205,498	-0,12
205,968	-0,12
206,439	-0,13
206,909	-0,13
207,379	-0,13
207,849	-0,13
208,319	-0,13
208,789	-0,14
209,258	-0,13
209,728	-0,14
210,198	-0,14
210,668	-0,15
211,138	-0,15
211,608	-0,15
212,077	-0,15
212,547	-0,14
213,017	-0,15
213,486	-0,15
213,956	-0,15
214,426	-0,16
214,895	-0,16
215,365	-0,16
215,834	-0,16
216,304	-0,17
216,773	-0,16
217,243	-0,18
217,712	-0,2
218,181	-0,2
218,651	-0,2
219,12	-0,2
219,589	-0,2
220,058	-0,2
220,528	-0,21
220,997	-0,22
221,466	-0,22
221,935	-0,23
222,404	-0,22
222,873	-0,2
223,342	-0,19
223,812	-0,19
224,281	-0,2
224,749	-0,2
225,218	-0,21
225,687	-0,21
226,156	-0,19
226,625	-0,18
227,094	-0,18
227,563	-0,18
228,031	-0,2
228,5	-0,2
228,969	-0,21
229,438	-0,2
229,906	-0,19
230,375	-0,18
230,844	-0,18
231,312	-0,18
231,781	-0,19
232,249	-0,18
232,718	-0,18
233,186	-0,17
233,655	-0,18
234,123	-0,17
234,591	-0,17
235,06	-0,17
235,528	-0,18
235,996	-0,17
236,465	-0,17
236,933	-0,17
237,401	-0,17
237,869	-0,17
238,337	-0,17
238,805	-0,15
239,274	-0,15
239,742	-0,14
240,21	-0,14
240,678	-0,13
241,146	-0,13
241,614	-0,13
242,081	-0,11
242,549	-0,12
243,017	-0,12
243,485	-0,12
243,953	-0,12
244,421	-0,12
244,888	-0,13
245,356	-0,13
245,824	-0,13
246,291	-0,13
246,759	-0,13
247,227	-0,15
247,694	-0,14
248,162	-0,13
248,629	-0,12
249,097	-0,12
249,564	-0,13
250,032	-0,14
250,499	-0,14
250,967	-0,14
251,434	-0,15
251,901	-0,15
252,369	-0,15
252,836	-0,16
253,303	-0,18
253,77	-0,19
254,237	-0,19
254,705	-0,19
255,172	-0,18
255,639	-0,17
256,106	-0,19
256,573	-0,19
257,04	-0,2
257,507	-0,2
257,974	-0,19
258,441	-0,18
258,908	-0,19
259,375	-0,2
259,841	-0,2
260,308	-0,21
260,775	-0,21
261,242	-0,2
261,709	-0,2
262,175	-0,2
262,642	-0,19
263,109	-0,19
263,575	-0,2
264,042	-0,19
264,508	-0,19
264,975	-0,2
265,441	-0,21
265,908	-0,22
266,374	-0,21
266,841	-0,22
267,307	-0,23
267,773	-0,22
268,24	-0,23
268,706	-0,23
269,172	-0,24
269,639	-0,24
270,105	-0,22
270,571	-0,23
271,037	-0,22
271,503	-0,23
271,969	-0,23
272,435	-0,22
272,902	-0,23
273,368	-0,24
273,834	-0,24
274,3	-0,23
274,765	-0,24
275,231	-0,25
275,697	-0,23
276,163	-0,23
276,629	-0,23
277,095	-0,23
277,56	-0,23
278,026	-0,23
278,492	-0,21
278,958	-0,21
279,423	-0,21
279,889	-0,2
280,354	-0,21
280,82	-0,21
281,286	-0,22
281,751	-0,23
282,217	-0,22
282,682	-0,21
283,147	-0,21
283,613	-0,22
284,078	-0,22
284,544	-0,24
285,009	-0,24
285,474	-0,24
285,939	-0,26
286,405	-0,24
286,87	-0,24
287,335	-0,24
287,8	-0,23
288,265	-0,22
288,73	-0,24
289,195	-0,25
289,66	-0,25
290,125	-0,24
290,59	-0,24
291,055	-0,23
291,52	-0,23
291,985	-0,24
292,45	-0,25
292,915	-0,25
293,38	-0,26
293,844	-0,23
294,309	-0,22
294,774	-0,22
295,239	-0,22
295,703	-0,23
296,168	-0,22
296,632	-0,22
297,097	-0,21
297,562	-0,2
298,026	-0,2
298,491	-0,2
298,955	-0,2
299,419	-0,19
299,884	-0,19
300,348	-0,18
300,813	-0,17
301,277	-0,18
301,741	-0,17
302,205	-0,17
302,67	-0,17
303,134	-0,17
303,598	-0,17
304,062	-0,16
304,526	-0,15
304,99	-0,17
305,454	-0,17
305,919	-0,17
306,383	-0,17
306,847	-0,17
307,31	-0,18
307,774	-0,18
308,238	-0,18
308,702	-0,17
309,166	-0,19
309,63	-0,19
310,094	-0,16
310,557	-0,16
311,021	-0,15
311,485	-0,15
311,948	-0,16
312,412	-0,15
312,876	-0,14
313,339	-0,15
313,803	-0,16
314,266	-0,15
314,73	-0,16
315,193	-0,16
315,657	-0,15
316,12	-0,16
316,584	-0,14
317,047	-0,13
317,51	-0,12
317,973	-0,11
318,437	-0,1
318,9	-0,09
319,363	-0,08
319,826	-0,08
320,29	-0,08
320,753	-0,08
321,216	-0,09
321,679	-0,09
322,142	-0,08
322,605	-0,1
323,068	-0,09
323,531	-0,1
323,994	-0,1
324,457	-0,09
324,92	-0,08
325,382	-0,08
325,845	-0,09
326,308	-0,08
326,771	-0,07
327,233	-0,07
327,696	-0,06
328,159	-0,06
328,622	-0,04
329,084	-0,05
329,547	-0,04
330,009	-0,05
330,472	-0,03
330,934	-0,02
331,397	-0,02
331,859	-0,02
332,322	-0,02
332,784	-0,02
333,246	-0,01
333,709	-0,02
334,171	-0,01
334,633	-0,01
335,096	-0
335,558	-0,01
336,02	-0
336,482	0
336,944	0,01
337,406	0,01
337,868	0,02
338,331	0,02
338,793	0,02
339,255	0,02
339,717	0,03
340,178	0,03
340,64	0,03
341,102	0,04
341,564	0,04
342,026	0,05
342,488	0,06
342,949	0,07
343,411	0,09
343,873	0,11
344,335	0,13
344,796	0,14
345,258	0,17
345,719	0,2
346,181	0,22
346,643	0,24
347,104	0,26
347,566	0,27
348,027	0,28
348,488	0,29
348,95	0,3
349,411	0,31
349,873	0,31
350,334	0,32
350,795	0,33
351,256	0,33
351,718	0,34
352,179	0,34
352,64	0,34
353,101	0,34
353,562	0,34
354,023	0,35
354,484	0,35
354,945	0,35
355,406	0,35
355,867	0,35
356,328	0,35
356,789	0,35
357,25	0,35
357,711	0,35
358,172	0,35
358,633	0,35
359,093	0,35
359,554	0,35
360,015	0,35
360,476	0,35
360,936	0,36
361,397	0,36
361,858	0,36
362,318	0,36
362,779	0,36
363,239	0,36
363,7	0,36
364,16	0,36
364,621	0,36
365,081	0,36
365,541	0,36
366,002	0,36
366,462	0,36
366,922	0,36
367,383	0,36
367,843	0,36
368,303	0,36
368,763	0,36
369,223	0,36
369,684	0,36
370,144	0,36
370,604	0,36
371,064	0,36
371,524	0,36
371,984	0,36
372,444	0,36
372,904	0,36
373,363	0,36
373,823	0,35
374,283	0,35
374,743	0,35
375,203	0,35
375,663	0,35
376,122	0,35
376,582	0,35
377,042	0,35
377,501	0,35
377,961	0,35
378,42	0,35
378,88	0,35
379,34	0,35
379,799	0,35
380,259	0,35
380,718	0,35
381,177	0,35
381,637	0,35
382,096	0,35
382,555	0,35
383,015	0,35
383,474	0,35
383,933	0,35
384,393	0,35
384,852	0,35
385,311	0,35
385,77	0,35
386,229	0,35
386,688	0,35
387,147	0,35
387,606	0,35
388,065	0,35
388,524	0,35
388,983	0,35
389,442	0,35
389,901	0,35
390,36	0,35
390,819	0,35
391,277	0,35
391,736	0,35
392,195	0,34
392,654	0,34
393,112	0,34
393,571	0,34
394,03	0,34
394,488	0,34
394,947	0,34
395,405	0,34
395,864	0,34
396,322	0,34
396,781	0,34
397,239	0,34
397,698	0,34
398,156	0,34
398,614	0,34
399,073	0,34
399,531	0,34
399,989	0,34
400,447	0,34
400,905	0,34
401,364	0,34
401,822	0,34
402,28	0,34
402,738	0,34
403,196	0,34
403,654	0,34
404,112	0,34
404,57	0,34
405,028	0,34
405,486	0,34
405,944	0,34
406,402	0,34
406,859	0,34
407,317	0,34
407,775	0,34
408,233	0,34
408,691	0,34
409,148	0,34
409,606	0,34
410,064	0,34
410,521	0,34
410,979	0,34
411,436	0,34
411,894	0,34
412,351	0,34
412,809	0,34
413,266	0,34
413,724	0,34
414,181	0,34
414,638	0,34
415,096	0,34
415,553	0,34
416,01	0,34
416,467	0,34
416,925	0,34
417,382	0,33
417,839	0,33
418,296	0,33
418,753	0,33
419,21	0,33
419,667	0,33
420,124	0,33
420,581	0,33
421,038	0,33
421,495	0,33
421,952	0,33
422,409	0,33
422,866	0,33
423,322	0,33
423,779	0,33
424,236	0,33
424,693	0,33
425,149	0,33
425,606	0,33
426,063	0,33
426,519	0,33
426,976	0,33
427,433	0,33
427,889	0,33
428,346	0,33
428,802	0,33
429,258	0,33
429,715	0,33
430,171	0,33
430,628	0,33
431,084	0,33
431,54	0,33
431,997	0,33
432,453	0,33
432,909	0,33
433,365	0,33
433,821	0,33
434,277	0,33
434,734	0,33
435,19	0,33
435,646	0,33
436,102	0,33
436,558	0,33
437,014	0,33
437,47	0,33
437,925	0,33
438,381	0,33
438,837	0,33
439,293	0,33
439,749	0,33
440,205	0,33
440,66	0,33
441,116	0,33
441,572	0,33
442,027	0,33
442,483	0,33
442,939	0,33
443,394	0,33
443,85	0,33
444,305	0,33
444,761	0,33
445,216	0,33
445,672	0,33
446,127	0,33
446,582	0,33
447,038	0,33
447,493	0,33
447,948	0,33
448,403	0,33
448,859	0,33
449,314	0,33
449,769	0,33
450,224	0,33
450,679	0,33
451,134	0,33
451,589	0,33
452,044	0,33
452,499	0,33
452,954	0,33
453,409	0,33
453,864	0,33
454,319	0,33
454,774	0,33
455,229	0,33
455,684	0,33
456,138	0,33
456,593	0,33
457,048	0,33
457,503	0,33
457,957	0,33
458,412	0,33
458,866	0,33
459,321	0,33
459,776	0,33
460,23	0,33
460,685	0,33
461,139	0,33
461,593	0,33
462,048	0,33
462,502	0,33
462,957	0,33
463,411	0,33
463,865	0,33
464,319	0,33
464,774	0,33
465,228	0,33
465,682	0,33
466,136	0,33
466,59	0,34
467,044	0,34
467,499	0,34
467,953	0,34
468,407	0,34
468,861	0,34
469,315	0,34
469,768	0,34
470,222	0,34
470,676	0,34
471,13	0,34
471,584	0,34
472,038	0,34
472,491	0,34
472,945	0,34
473,399	0,34
473,852	0,34
474,306	0,34
474,76	0,34
475,213	0,34
475,667	0,34
476,12	0,34
476,574	0,34
477,027	0,34
477,481	0,34
477,934	0,34
478,388	0,34
478,841	0,34
479,294	0,34
479,748	0,35
480,201	0,35
480,654	0,35
481,107	0,35
481,561	0,35
482,014	0,35
482,467	0,35
482,92	0,35
483,373	0,35
483,826	0,35
484,279	0,35
484,732	0,35
485,185	0,35
485,638	0,35
486,091	0,36
486,544	0,36
486,997	0,36
487,449	0,36
487,902	0,36
488,355	0,36
488,808	0,36
489,26	0,36
489,713	0,36
490,166	0,36
490,618	0,37
491,071	0,37
491,523	0,37
491,976	0,37
492,429	0,37
492,881	0,37
493,333	0,38
493,786	0,38
494,238	0,38
494,691	0,38
495,143	0,38
495,595	0,38
496,048	0,38
496,5	0,39
496,952	0,39
497,404	0,39
497,856	0,39
498,309	0,39
498,761	0,39
499,213	0,4
499,665	0,4
500,117	0,4
500,569	0,4
501,021	0,4
501,473	0,4
501,925	0,41
502,377	0,41
502,828	0,41
503,28	0,41
503,732	0,41
504,184	0,42
504,636	0,42
505,087	0,42
505,539	0,42
505,991	0,42
506,442	0,43
506,894	0,43
507,345	0,43
507,797	0,43
508,249	0,43
508,7	0,44
509,151	0,44
509,603	0,44
510,054	0,44
510,506	0,44
510,957	0,44
511,408	0,45
511,86	0,45
512,311	0,45
512,762	0,45
513,213	0,45
513,665	0,45
514,116	0,46
514,567	0,46
515,018	0,46
515,469	0,46
515,92	0,46
516,371	0,46
516,822	0,47
517,273	0,47
517,724	0,47
518,175	0,47
518,626	0,47
519,076	0,47
519,527	0,47
519,978	0,48
520,429	0,48
520,88	0,48
521,33	0,48
521,781	0,48
522,232	0,48
522,682	0,48
523,133	0,48
523,583	0,48
524,034	0,49
524,484	0,49
524,935	0,49
525,385	0,49
525,836	0,49
526,286	0,49
526,736	0,49
527,187	0,49
527,637	0,49
528,087	0,49
528,538	0,49
528,988	0,49
529,438	0,49
529,888	0,49
530,338	0,49
530,788	0,49
531,238	0,49
531,688	0,49
532,139	0,49
532,589	0,49
533,038	0,49
533,488	0,49
533,938	0,49
534,388	0,49
534,838	0,49
535,288	0,49
535,738	0,48
536,187	0,48
536,637	0,48
537,087	0,48
537,537	0,48
537,986	0,48
538,436	0,48
538,885	0,47
539,335	0,47
539,785	0,47
540,234	0,47
540,684	0,47
541,133	0,47
541,582	0,46
542,032	0,46
542,481	0,46
542,931	0,46
543,38	0,46
543,829	0,45
544,278	0,45
544,728	0,45
545,177	0,45
545,626	0,45
546,075	0,44
546,524	0,44
546,973	0,44
547,422	0,44
547,871	0,44
548,32	0,44
548,769	0,44
549,218	0,44
549,667	0,44
550,116	0,44
550,565	0,44
551,014	0,44
551,463	0,43
551,911	0,43
552,36	0,43
552,809	0,43
553,258	0,43
553,706	0,43
554,155	0,43
554,603	0,42
555,052	0,42
555,501	0,42
555,949	0,42
556,398	0,42
556,846	0,42
557,294	0,42
557,743	0,41
558,191	0,41
558,64	0,41
559,088	0,41
559,536	0,41
559,985	0,41
560,433	0,4
560,881	0,4
561,329	0,4
561,777	0,4
562,225	0,4
562,674	0,4
563,122	0,4
563,57	0,39
564,018	0,39
564,466	0,39
564,914	0,39
565,362	0,39
565,809	0,39
566,257	0,39
566,705	0,38
567,153	0,38
567,601	0,38
568,048	0,38
568,496	0,38
568,944	0,38
569,392	0,37
569,839	0,37
570,287	0,37
570,734	0,37
571,182	0,37
571,63	0,37
572,077	0,37
572,525	0,37
572,972	0,36
573,419	0,36
573,867	0,36
574,314	0,36
574,761	0,36
575,209	0,36
575,656	0,36
576,103	0,36
576,551	0,36
576,998	0,36
577,445	0,35
577,892	0,35
578,339	0,35
578,786	0,35
579,233	0,35
579,68	0,35
580,127	0,35
580,574	0,35
581,021	0,35
581,468	0,35
581,915	0,35
582,362	0,34
582,809	0,34
583,255	0,34
583,702	0,34
584,149	0,34
584,596	0,34
585,042	0,34
585,489	0,34
585,936	0,34
586,382	0,34
586,829	0,34
587,275	0,34
587,722	0,33
588,168	0,33
588,615	0,33
589,061	0,33
589,508	0,33
589,954	0,33
590,4	0,33
590,847	0,33
591,293	0,33
591,739	0,33
592,185	0,33
592,632	0,33
593,078	0,33
593,524	0,33
593,97	0,33
594,416	0,33
594,862	0,33
595,308	0,32
595,754	0,32
596,2	0,32
596,646	0,32
597,092	0,32
597,538	0,32
597,984	0,32
598,43	0,32
598,876	0,32
599,321	0,32
599,767	0,32
600,213	0,32
600,659	0,32
601,104	0,32
601,55	0,32
601,995	0,32
602,441	0,32
602,887	0,31
603,332	0,31
603,778	0,31
604,223	0,31
604,668	0,31
605,114	0,31
605,559	0,31
606,005	0,31
606,45	0,31
606,895	0,31
607,341	0,31
607,786	0,31
608,231	0,31
608,676	0,31
609,121	0,31
609,566	0,3
610,012	0,3
610,457	0,3
610,902	0,3
611,347	0,29
611,792	0,29
612,237	0,29
612,682	0,29
613,127	0,29
613,571	0,29
614,016	0,3
614,461	0,3
614,906	0,3
615,351	0,3
615,795	0,3
616,24	0,3
616,685	0,3
617,129	0,3
617,574	0,3
618,019	0,3
618,463	0,3
618,908	0,3
619,352	0,3
619,797	0,3
620,241	0,3
620,686	0,3
621,13	0,3
621,574	0,3
622,019	0,3
622,463	0,3
622,907	0,3
623,352	0,3
623,796	0,3
624,24	0,3
624,684	0,3
625,128	0,3
625,572	0,3
626,016	0,3
626,461	0,3
626,905	0,3
627,349	0,3
627,793	0,3
628,236	0,3
628,68	0,3
629,124	0,3
629,568	0,3
630,012	0,29
630,456	0,29
630,9	0,29
631,343	0,29
631,787	0,29
632,231	0,29
632,674	0,29
633,118	0,29
633,562	0,29
634,005	0,29
634,449	0,3
634,892	0,3
635,336	0,3
635,779	0,3
636,223	0,3
636,666	0,29
637,109	0,29
637,553	0,29
637,996	0,29
638,439	0,29
638,883	0,29
639,326	0,29
639,769	0,29
640,212	0,29
640,655	0,29
641,099	0,29
641,542	0,29
641,985	0,29
642,428	0,29
642,871	0,29
643,314	0,29
643,757	0,29
644,2	0,29
644,643	0,29
645,085	0,29
645,528	0,29
645,971	0,29
646,414	0,29
646,857	0,29
647,299	0,29
647,742	0,29
648,185	0,29
648,627	0,29
649,07	0,29
649,513	0,29
649,955	0,29
650,398	0,29
650,84	0,29
651,283	0,29
651,725	0,29
652,168	0,29
652,61	0,29
653,052	0,29
653,495	0,28
653,937	0,22
654,379	0,18
654,821	0,18
655,264	0,19
655,706	0,19
656,148	0,19
656,59	0,19
657,032	0,19
657,474	0,19
657,916	0,19
658,358	0,18
658,8	0,22
659,242	0,28
659,684	0,29
660,126	0,29
660,568	0,29
661,01	0,29
661,452	0,28
661,894	0,28
662,335	0,28
662,777	0,28
663,219	0,28
663,661	0,28
664,102	0,28
664,544	0,28
664,985	0,28
665,427	0,28
665,869	0,28
666,31	0,28
666,752	0,28
667,193	0,28
667,634	0,28
668,076	0,28
668,517	0,28
668,959	0,28
669,4	0,28
669,841	0,28
670,282	0,28
670,724	0,28
671,165	0,28
671,606	0,28
672,047	0,28
672,488	0,28
672,929	0,28
673,37	0,28
673,811	0,28
674,252	0,28
674,693	0,28
675,134	0,28
675,575	0,28
676,016	0,28
676,457	0,28
676,898	0,28
677,339	0,28
677,78	0,28
678,22	0,28
678,661	0,28
679,102	0,28
679,542	0,28
679,983	0,28
680,424	0,28
680,864	0,28
681,305	0,28
681,745	0,28
682,186	0,28
682,626	0,28
683,067	0,28
683,507	0,28
683,948	0,28
684,388	0,28
684,828	0,28
685,269	0,28
685,709	0,28
686,149	0,28
686,589	0,28
687,029	0,27
687,47	0,27
687,91	0,27
688,35	0,27
688,79	0,27
689,23	0,27
689,67	0,27
690,11	0,27
690,55	0,27
690,99	0,27
691,43	0,27
691,87	0,27
692,31	0,27
692,749	0,27
693,189	0,27
693,629	0,27
694,069	0,26
694,508	0,26
694,948	0,26
695,388	0,27
695,827	0,27
696,267	0,27
696,706	0,27
697,146	0,27
697,586	0,27
698,025	0,27
698,464	0,27
698,904	0,27
699,343	0,27
699,783	0,27
700,222	0,27
700,661	0,27
701,101	0,27
701,54	0,27
701,979	0,27
702,418	0,27
702,857	0,27
703,297	0,27
703,736	0,27
704,175	0,27
704,614	0,27
705,053	0,27
705,492	0,27
705,931	0,27
706,37	0,27
706,809	0,26
707,248	0,26
707,687	0,26
708,125	0,26
708,564	0,26
709,003	0,26
709,442	0,26
709,88	0,26
710,319	0,26
710,758	0,26
711,196	0,26
711,635	0,26
712,074	0,26
712,512	0,26
712,951	0,26
713,389	0,26
713,828	0,26
714,266	0,26
714,705	0,26
715,143	0,26
715,581	0,26
716,02	0,26
716,458	0,26
716,896	0,26
717,334	0,25
717,773	0,25
718,211	0,25
718,649	0,25
719,087	0,25
719,525	0,25
719,963	0,25
720,401	0,25
720,839	0,25
721,277	0,26
721,715	0,26
722,153	0,26
722,591	0,26
723,029	0,26
723,467	0,26
723,905	0,26
724,342	0,25
724,78	0,25
725,218	0,25
725,656	0,25
726,093	0,25
726,531	0,25
726,969	0,25
727,406	0,25
727,844	0,25
728,281	0,25
728,719	0,25
729,156	0,25
729,594	0,25
730,031	0,25
730,469	0,25
730,906	0,25
731,343	0,25
731,781	0,25
732,218	0,25
732,655	0,25
733,092	0,25
733,53	0,25
733,967	0,25
734,404	0,25
734,841	0,25
735,278	0,25
735,715	0,25
736,152	0,25
736,589	0,25
737,026	0,25
737,463	0,25
737,9	0,24
738,337	0,24
738,774	0,24
739,211	0,24
739,647	0,24
740,084	0,24
740,521	0,24
740,958	0,24
741,394	0,24
741,831	0,24
742,268	0,24
742,704	0,24
743,141	0,24
743,577	0,24
744,014	0,24
744,45	0,23
744,887	0,23
745,323	0,23
745,76	0,23
746,196	0,23
746,632	0,23
747,069	0,23
747,505	0,23
747,941	0,23
748,378	0,23
748,814	0,23
749,25	0,23
749,686	0,23
750,122	0,24
750,558	0,24
750,994	0,24
751,43	0,24
751,866	0,24
752,302	0,24
752,738	0,24
753,174	0,24
753,61	0,24
754,046	0,24
754,482	0,24
754,918	0,24
755,354	0,24
755,789	0,24
756,225	0,24
756,661	0,24
757,096	0,24
757,532	0,24
757,968	0,24
758,403	0,24
758,839	0,24
759,274	0,24
759,71	0,23
760,145	0,23
760,581	0,22
761,016	0,22
761,452	0,22
761,887	0,22
762,322	0,21
762,758	0,21
763,193	0,21
763,628	0,2
764,063	0,2
764,499	0,19
764,934	0,19
765,369	0,19
765,804	0,18
766,239	0,18
766,674	0,17
767,109	0,17
767,544	0,16
767,979	0,15
768,414	0,14
768,849	0,14
769,284	0,13
769,719	0,13
770,154	0,12
770,588	0,12
771,023	0,11
771,458	0,1
771,893	0,09
772,327	0,08
772,762	0,08
773,197	0,07
773,631	0,06
774,066	0,06
774,5	0,05
774,935	0,04
775,369	0,03
775,804	0,02
776,238	0,01
776,673	0,01
777,107	0
777,541	-0
777,976	-0,01
778,41	-0,02
778,844	-0,03
779,279	-0,03
779,713	-0,04
780,147	-0,05
780,581	-0,05
781,015	-0,06
781,449	-0,07
781,883	-0,08
782,317	-0,09
782,751	-0,1
783,185	-0,1
783,619	-0,11
784,053	-0,12
784,487	-0,13
784,921	-0,14
785,355	-0,14
785,789	-0,15
786,223	-0,16
786,656	-0,17
787,09	-0,18
787,524	-0,18
787,957	-0,2
788,391	-0,21
788,825	-0,22
789,258	-0,24
789,692	-0,25
790,125	-0,26
790,559	-0,28
790,992	-0,3
791,426	-0,33
791,859	-0,34
792,293	-0,37
792,726	-0,38
793,159	-0,4
793,593	-0,42
794,026	-0,44
794,459	-0,47
794,892	-0,5
795,326	-0,52
795,759	-0,56
796,192	-0,6
796,625	-0,65
797,058	-0,68
797,491	-0,72
797,924	-0,76
798,357	-0,82
798,79	-0,86
799,223	-0,91
799,656	-0,96
800,089	-1,01
800,522	-1,05
800,955	-1,1
801,387	-1,16
801,82	-1,21
802,253	-1,27
802,686	-1,35
803,118	-1,41
803,551	-1,46
803,984	-1,51
804,416	-1,55
804,849	-1,6
805,281	-1,74
805,714	-2,12
806,146	-2,51
806,579	-2,75
807,011	-2,9
807,444	-2,99
807,876	-3,06
808,308	-3,09
808,741	-3,12
809,173	-3,17
809,605	-3,19
810,037	-3,26
810,47	-3,17
810,902	-2,97
811,334	-2,81
811,766	-2,65
812,198	-2,39
812,63	-2
813,062	-1,82
813,494	-1,73
813,926	-1,64
814,358	-1,59
814,79	-1,51
815,222	-1,45
815,654	-1,4
816,086	-1,34
816,518	-1,28
816,949	-1,23
817,381	-1,18
817,813	-1,17
818,245	-1,13
818,676	-1,09
819,108	-1,05
819,54	-1,04
819,971	-1,01
820,403	-0,96
820,834	-0,95
821,266	-0,9
821,697	-0,88
822,129	-0,86
822,56	-0,83
822,991	-0,81
823,423	-0,78
823,854	-0,77
824,286	-0,74
824,717	-0,73
825,148	-0,7
825,579	-0,69
826,01	-0,67
826,442	-0,67
826,873	-0,65
827,304	-0,61
827,735	-0,6
828,166	-0,6
828,597	-0,59
829,028	-0,58
829,459	-0,6
829,89	-0,6
830,321	-0,56
830,752	-0,57
831,183	-0,55
831,613	-0,54
832,044	-0,54
832,475	-0,54
832,906	-0,56
833,336	-0,55
833,767	-0,56
834,198	-0,54
834,628	-0,52
835,059	-0,55
835,49	-0,55
835,92	-0,52
836,351	-0,53
836,781	-0,53
837,212	-0,53
837,642	-0,53
838,072	-0,51
838,503	-0,52
838,933	-0,49
839,364	-0,5
839,794	-0,47
840,224	-0,47
840,654	-0,5
841,085	-0,51
841,515	-0,48
841,945	-0,49
842,375	-0,44
842,805	-0,44
843,235	-0,42
843,665	-0,44
844,095	-0,42
844,525	-0,45
844,955	-0,45
845,385	-0,44
845,815	-0,43
846,245	-0,45
846,675	-0,46
847,105	-0,48
847,534	-0,48
847,964	-0,46
848,394	-0,45
848,824	-0,48
849,253	-0,48
849,683	-0,47
850,112	-0,49
850,542	-0,51
850,972	-0,52
851,401	-0,48
851,831	-0,47
852,26	-0,47
852,69	-0,51
853,119	-0,51
853,548	-0,52
853,978	-0,52
854,407	-0,51
854,836	-0,52
855,266	-0,5
855,695	-0,52
856,124	-0,54
856,553	-0,55
856,983	-0,57
857,412	-0,57
857,841	-0,58
858,27	-0,58
858,699	-0,58
859,128	-0,62
859,557	-0,62
859,986	-0,65
860,415	-0,62
860,844	-0,59
861,273	-0,59
861,702	-0,6
862,13	-0,57
862,559	-0,58
862,988	-0,55
863,417	-0,54
863,845	-0,52
864,274	-0,53
864,703	-0,52
865,131	-0,52
865,56	-0,54
865,989	-0,56
866,417	-0,53
866,846	-0,54
867,274	-0,53
867,703	-0,56
868,131	-0,57
868,559	-0,58
868,988	-0,6
869,416	-0,59
869,844	-0,61
870,273	-0,62
870,701	-0,6
871,129	-0,63
871,557	-0,65
871,986	-0,66
872,414	-0,67
872,842	-0,64
873,27	-0,62
873,698	-0,59
874,126	-0,63
874,554	-0,62
874,982	-0,62
875,41	-0,64
875,838	-0,6
876,266	-0,57
876,694	-0,57
877,122	-0,55
877,549	-0,61
877,977	-0,58
878,405	-0,6
878,833	-0,56
879,26	-0,53
879,688	-0,53
880,116	-0,51
880,543	-0,5
880,971	-0,49
881,399	-0,52
881,826	-0,53
882,254	-0,51
882,681	-0,54
883,109	-0,51
883,536	-0,53
883,963	-0,55
884,391	-0,54
884,818	-0,53
885,245	-0,57
885,673	-0,59
886,1	-0,55
886,527	-0,55
886,954	-0,51
887,381	-0,54
887,809	-0,54
888,236	-0,56
888,663	-0,56
889,09	-0,6
889,517	-0,61
889,944	-0,61
890,371	-0,59
890,798	-0,61
891,225	-0,61
891,652	-0,64
892,078	-0,61
892,505	-0,65
892,932	-0,6
893,359	-0,61
893,786	-0,61
894,212	-0,57
894,639	-0,59
895,066	-0,62
895,492	-0,55
895,919	-0,55
896,346	-0,54
896,772	-0,55
897,199	-0,52
897,625	-0,55
898,052	-0,51
898,478	-0,5
898,904	-0,52
899,331	-0,51
899,757	-0,52
900,183	-0,54
900,61	-0,52
901,036	-0,53
901,462	-0,53
901,888	-0,52
902,315	-0,5
902,741	-0,55
903,167	-0,54
903,593	-0,57
904,019	-0,56
904,445	-0,53
904,871	-0,56
905,297	-0,58
905,723	-0,57
906,149	-0,57
906,575	-0,57
907,001	-0,58
907,427	-0,54
907,852	-0,54
908,278	-0,54
908,704	-0,52
909,13	-0,52
909,555	-0,51
909,981	-0,5
910,407	-0,5
910,832	-0,49
911,258	-0,5
911,684	-0,5
912,109	-0,5
912,535	-0,52
912,96	-0,47
913,386	-0,51
913,811	-0,51
914,236	-0,52
914,662	-0,5
915,087	-0,54
915,512	-0,54
915,938	-0,55
916,363	-0,55
916,788	-0,56
917,213	-0,54
917,639	-0,6
918,064	-0,57
918,489	-0,57
918,914	-0,59
919,339	-0,6
919,764	-0,57
920,189	-0,57
920,614	-0,59
921,039	-0,59
921,464	-0,55
921,889	-0,58
922,314	-0,58
922,738	-0,61
923,163	-0,63
923,588	-0,62
924,013	-0,62
924,437	-0,62
924,862	-0,64
925,287	-0,59
925,711	-0,61
926,136	-0,62
926,561	-0,6
926,985	-0,59
927,41	-0,56
927,834	-0,53
928,259	-0,5
928,683	-0,48
929,108	-0,45
929,532	-0,45
929,956	-0,45
930,381	-0,44
930,805	-0,44
931,229	-0,44
931,653	-0,43
932,078	-0,43
932,502	-0,44
932,926	-0,45
933,35	-0,45
933,774	-0,45
934,198	-0,43
934,622	-0,42
935,046	-0,44
935,47	-0,44
935,894	-0,43
936,318	-0,43
936,742	-0,44
937,166	-0,44
937,59	-0,44
938,014	-0,46
938,437	-0,46
938,861	-0,49
939,285	-0,5
939,709	-0,49
940,132	-0,49
940,556	-0,5
940,98	-0,49
941,403	-0,47
941,827	-0,47
942,25	-0,48
942,674	-0,46
943,097	-0,47
943,521	-0,46
943,944	-0,47
944,368	-0,46
944,791	-0,45
945,214	-0,46
945,638	-0,47
946,061	-0,5
946,484	-0,52
946,907	-0,51
947,331	-0,51
947,754	-0,54
948,177	-0,51
948,6	-0,5
949,023	-0,5
949,446	-0,5
949,869	-0,49
950,292	-0,48
950,715	-0,45
951,138	-0,43
951,561	-0,4
951,984	-0,41
952,407	-0,4
952,83	-0,39
953,252	-0,35
953,675	-0,36
954,098	-0,36
954,521	-0,35
954,943	-0,34
955,366	-0,36
955,789	-0,34
956,211	-0,36
956,634	-0,36
957,056	-0,33
957,479	-0,35
957,902	-0,37
958,324	-0,37
958,746	-0,36
959,169	-0,36
959,591	-0,37
960,014	-0,37
960,436	-0,37
960,858	-0,37
961,281	-0,37
961,703	-0,38
962,125	-0,38
962,547	-0,36
962,969	-0,37
963,391	-0,37
963,814	-0,39
964,236	-0,38
964,658	-0,36
965,08	-0,37
965,502	-0,36
965,924	-0,33
966,346	-0,33
966,768	-0,32
967,189	-0,34
967,611	-0,34
968,033	-0,33
968,455	-0,32
968,877	-0,33
969,298	-0,34
969,72	-0,35
970,142	-0,34
970,563	-0,34
970,985	-0,33
971,407	-0,33
971,828	-0,3
972,25	-0,3
972,671	-0,29
973,093	-0,28
973,514	-0,27
973,936	-0,25
974,357	-0,24
974,778	-0,25
975,2	-0,24
975,621	-0,24
976,042	-0,23
976,464	-0,22
976,885	-0,21
977,306	-0,2
977,727	-0,19
978,148	-0,19
978,57	-0,17
978,991	-0,16
979,412	-0,14
979,833	-0,14
980,254	-0,13
980,675	-0,14
981,096	-0,13
981,517	-0,11
981,937	-0,11
982,358	-0,09
982,779	-0,08
983,2	-0,08
983,621	-0,09
984,042	-0,07
984,462	-0,07
984,883	-0,05
985,304	-0,04
985,724	-0,03
986,145	-0,03
986,565	-0,02
986,986	-0,02
987,407	-0,01
987,827	-0
988,248	0,01
988,668	0,02
989,088	0,03
989,509	0,03
989,929	0,04
990,35	0,05
990,77	0,06
991,19	0,06
991,61	0,07
992,031	0,08
992,451	0,09
992,871	0,09
993,291	0,1
993,711	0,11
994,131	0,11
994,551	0,11
994,971	0,12
995,391	0,12
995,811	0,13
996,231	0,13
996,651	0,13
997,071	0,13
997,491	0,14
997,911	0,14
998,331	0,15
998,75	0,15
999,17	0,15
999,59	0,16
1000,009	0,16
1000,429	0,16
1000,849	0,16
1001,268	0,17
1001,688	0,17
1002,107	0,17
1002,527	0,17
1002,946	0,17
1003,366	0,18
1003,785	0,18
1004,205	0,18
1004,624	0,18
1005,044	0,18
1005,463	0,18
1005,882	0,19
1006,301	0,19
1006,721	0,19
1007,14	0,19
1007,559	0,19
1007,978	0,19
1008,397	0,19
1008,816	0,19
1009,235	0,19
1009,655	0,19
1010,074	0,19
1010,492	0,18
1010,911	0,18
1011,33	0,18
1011,749	0,18
1012,168	0,18
1012,587	0,18
1013,006	0,18
1013,425	0,18
1013,843	0,18
1014,262	0,18
1014,681	0,18
1015,099	0,18
1015,518	0,18
1015,937	0,18
1016,355	0,18
1016,774	0,18
1017,192	0,18
1017,611	0,18
1018,029	0,18
1018,448	0,18
1018,866	0,18
1019,285	0,18
1019,703	0,18
1020,121	0,18
1020,54	0,18
1020,958	0,18
1021,376	0,18
1021,794	0,18
1022,213	0,18
1022,631	0,18
1023,049	0,18
1023,467	0,18
1023,885	0,18
1024,303	0,18
1024,721	0,18
1025,139	0,18
1025,557	0,18
1025,975	0,18
1026,393	0,18
1026,811	0,17
1027,229	0,17
1027,647	0,17
1028,065	0,17
1028,482	0,17
1028,9	0,17
1029,318	0,17
1029,735	0,17
1030,153	0,17
1030,571	0,17
1030,988	0,17
1031,406	0,17
1031,823	0,17
1032,241	0,17
1032,659	0,17
1033,076	0,17
1033,493	0,17
1033,911	0,17
1034,328	0,17
1034,746	0,17
1035,163	0,17
1035,58	0,17
1035,997	0,17
1036,415	0,17
1036,832	0,17
1037,249	0,17
1037,666	0,17
1038,083	0,17
1038,501	0,17
1038,918	0,17
1039,335	0,17
1039,752	0,17
1040,169	0,17
1040,586	0,17
1041,003	0,17
1041,419	0,17
1041,836	0,17
1042,253	0,16
1042,67	0,17
1043,087	0,16
1043,504	0,16
1043,92	0,16
1044,337	0,16
1044,754	0,16
1045,17	0,16
1045,587	0,16
1046,004	0,16
1046,42	0,16
1046,837	0,16
1047,253	0,16
1047,67	0,16
1048,086	0,16
1048,503	0,16
1048,919	0,16
1049,335	0,16
1049,752	0,16
1050,168	0,16
1050,584	0,16
1051,001	0,16
1051,417	0,16
1051,833	0,16
1052,249	0,16
1052,665	0,16
1053,081	0,16
1053,497	0,16
1053,914	0,16
1054,33	0,16
1054,746	0,16
1055,162	0,16
1055,578	0,16
1055,993	0,16
1056,409	0,16
1056,825	0,16
1057,241	0,16
1057,657	0,16
1058,073	0,16
1058,488	0,16
1058,904	0,16
1059,32	0,16
1059,736	0,16
1060,151	0,16
1060,567	0,16
1060,982	0,16
1061,398	0,16
1061,813	0,16
1062,229	0,16
1062,644	0,16
1063,06	0,16
1063,475	0,16
1063,891	0,16
1064,306	0,16
1064,721	0,16
1065,137	0,16
1065,552	0,16
1065,967	0,16
1066,382	0,16
1066,798	0,16
1067,213	0,16
1067,628	0,16
1068,043	0,16
1068,458	0,16
1068,873	0,16
1069,288	0,16
1069,703	0,16
1070,118	0,16
1070,533	0,16
1070,948	0,16
1071,363	0,17
1071,778	0,17
1072,193	0,17
1072,607	0,17
1073,022	0,17
1073,437	0,17
1073,852	0,17
1074,266	0,17
1074,681	0,17
1075,096	0,17
1075,51	0,17
1075,925	0,17
1076,339	0,17
1076,754	0,17
1077,168	0,17
1077,583	0,17
1077,997	0,17
1078,412	0,17
1078,826	0,17
1079,24	0,17
1079,655	0,16
1080,069	0,16
1080,483	0,16
1080,897	0,16
1081,312	0,16
1081,726	0,16
1082,14	0,16
1082,554	0,16
1082,968	0,16
1083,382	0,16
1083,796	0,16
1084,21	0,16
1084,624	0,16
1085,038	0,16
1085,452	0,15
1085,866	0,15
1086,28	0,15
1086,694	0,15
1087,108	0,15
1087,521	0,15
1087,935	0,15
1088,349	0,15
1088,763	0,15
1089,176	0,15
1089,59	0,15
1090,004	0,14
1090,417	0,14
1090,831	0,14
1091,244	0,14
1091,658	0,14
1092,071	0,14
1092,485	0,13
1092,898	0,13
1093,312	0,13
1093,725	0,13
1094,138	0,13
1094,552	0,13
1094,965	0,13
1095,378	0,13
1095,791	0,13
1096,205	0,13
1096,618	0,13
1097,031	0,12
1097,444	0,12
1097,857	0,12
1098,27	0,12
1098,683	0,12
1099,096	0,12
1099,509	0,12
1099,922	0,11
1100,335	0,11
1100,748	0,11
1101,161	0,11
1101,574	0,1
1101,986	0,1
1102,399	0,1
1102,812	0,1
1103,225	0,09
1103,637	0,09
1104,05	0,09
1104,463	0,09
1104,875	0,09
1105,288	0,09
1105,7	0,08
1106,113	0,08
1106,525	0,08
1106,938	0,08
1107,35	0,07
1107,763	0,07
1108,175	0,07
1108,588	0,06
1109	0,06
1109,412	0,05
1109,824	0,05
1110,237	0,05
1110,649	0,05
1111,061	0,04
