Data from 18C-808nm-8A_Absorbance__1013__01013.txt Node

Date: Mon Jul 17 16:58:36 CEST 2023
User: Laser008
Spectrometer: MAYP115816
Trigger mode: 0
Integration Time (sec): 2,500000E-1
Scans to average: 10
Electric dark correction enabled: true
Nonlinearity correction enabled: true
Boxcar width: 5
XAxis mode: Wavelengths
Number of Pixels in Spectrum: 2068
>>>>>Begin Spectral Data<<<<<
198,914	-0,69
199,384	-0,48
199,855	-0,36
200,325	-0,29
200,796	-0,26
201,266	-0,22
201,737	-0,2
202,207	-0,19
202,677	-0,18
203,147	-0,16
203,618	-0,14
204,088	-0,13
204,558	-0,13
205,028	-0,12
205,498	-0,12
205,968	-0,12
206,439	-0,14
206,909	-0,13
207,379	-0,14
207,849	-0,15
208,319	-0,15
208,789	-0,16
209,258	-0,15
209,728	-0,16
210,198	-0,16
210,668	-0,16
211,138	-0,15
211,608	-0,15
212,077	-0,15
212,547	-0,15
213,017	-0,15
213,486	-0,15
213,956	-0,16
214,426	-0,16
214,895	-0,16
215,365	-0,16
215,834	-0,17
216,304	-0,18
216,773	-0,18
217,243	-0,19
217,712	-0,2
218,181	-0,2
218,651	-0,2
219,12	-0,19
219,589	-0,19
220,058	-0,18
220,528	-0,2
220,997	-0,2
221,466	-0,21
221,935	-0,22
222,404	-0,21
222,873	-0,2
223,342	-0,2
223,812	-0,2
224,281	-0,2
224,749	-0,21
225,218	-0,23
225,687	-0,23
226,156	-0,21
226,625	-0,2
227,094	-0,19
227,563	-0,19
228,031	-0,21
228,5	-0,21
228,969	-0,21
229,438	-0,2
229,906	-0,19
230,375	-0,18
230,844	-0,19
231,312	-0,18
231,781	-0,19
232,249	-0,19
232,718	-0,19
233,186	-0,18
233,655	-0,18
234,123	-0,18
234,591	-0,19
235,06	-0,19
235,528	-0,2
235,996	-0,19
236,465	-0,19
236,933	-0,19
237,401	-0,19
237,869	-0,19
238,337	-0,18
238,805	-0,17
239,274	-0,17
239,742	-0,17
240,21	-0,16
240,678	-0,14
241,146	-0,13
241,614	-0,13
242,081	-0,12
242,549	-0,12
243,017	-0,12
243,485	-0,12
243,953	-0,12
244,421	-0,12
244,888	-0,12
245,356	-0,12
245,824	-0,12
246,291	-0,13
246,759	-0,14
247,227	-0,15
247,694	-0,14
248,162	-0,13
248,629	-0,12
249,097	-0,12
249,564	-0,13
250,032	-0,14
250,499	-0,14
250,967	-0,15
251,434	-0,15
251,901	-0,15
252,369	-0,15
252,836	-0,16
253,303	-0,17
253,77	-0,2
254,237	-0,2
254,705	-0,2
255,172	-0,18
255,639	-0,19
256,106	-0,2
256,573	-0,2
257,04	-0,2
257,507	-0,21
257,974	-0,21
258,441	-0,19
258,908	-0,19
259,375	-0,21
259,841	-0,21
260,308	-0,22
260,775	-0,21
261,242	-0,2
261,709	-0,2
262,175	-0,21
262,642	-0,21
263,109	-0,2
263,575	-0,21
264,042	-0,2
264,508	-0,2
264,975	-0,21
265,441	-0,22
265,908	-0,23
266,374	-0,22
266,841	-0,22
267,307	-0,23
267,773	-0,22
268,24	-0,22
268,706	-0,23
269,172	-0,23
269,639	-0,23
270,105	-0,22
270,571	-0,22
271,037	-0,22
271,503	-0,23
271,969	-0,23
272,435	-0,23
272,902	-0,24
273,368	-0,25
273,834	-0,24
274,3	-0,24
274,765	-0,25
275,231	-0,25
275,697	-0,25
276,163	-0,24
276,629	-0,23
277,095	-0,24
277,56	-0,23
278,026	-0,24
278,492	-0,22
278,958	-0,23
279,423	-0,23
279,889	-0,22
280,354	-0,22
280,82	-0,22
281,286	-0,23
281,751	-0,24
282,217	-0,23
282,682	-0,23
283,147	-0,22
283,613	-0,23
284,078	-0,23
284,544	-0,24
285,009	-0,24
285,474	-0,24
285,939	-0,25
286,405	-0,24
286,87	-0,23
287,335	-0,23
287,8	-0,23
288,265	-0,21
288,73	-0,23
289,195	-0,25
289,66	-0,25
290,125	-0,23
290,59	-0,24
291,055	-0,23
291,52	-0,23
291,985	-0,23
292,45	-0,25
292,915	-0,25
293,38	-0,25
293,844	-0,23
294,309	-0,21
294,774	-0,2
295,239	-0,22
295,703	-0,22
296,168	-0,22
296,632	-0,21
297,097	-0,2
297,562	-0,18
298,026	-0,19
298,491	-0,19
298,955	-0,18
299,419	-0,18
299,884	-0,18
300,348	-0,17
300,813	-0,16
301,277	-0,16
301,741	-0,16
302,205	-0,16
302,67	-0,16
303,134	-0,16
303,598	-0,16
304,062	-0,15
304,526	-0,15
304,99	-0,16
305,454	-0,16
305,919	-0,16
306,383	-0,17
306,847	-0,16
307,31	-0,17
307,774	-0,17
308,238	-0,17
308,702	-0,17
309,166	-0,19
309,63	-0,19
310,094	-0,16
310,557	-0,16
311,021	-0,15
311,485	-0,15
311,948	-0,14
312,412	-0,14
312,876	-0,13
313,339	-0,12
313,803	-0,13
314,266	-0,13
314,73	-0,13
315,193	-0,15
315,657	-0,14
316,12	-0,14
316,584	-0,13
317,047	-0,13
317,51	-0,12
317,973	-0,12
318,437	-0,12
318,9	-0,1
319,363	-0,1
319,826	-0,09
320,29	-0,09
320,753	-0,09
321,216	-0,09
321,679	-0,1
322,142	-0,08
322,605	-0,1
323,068	-0,1
323,531	-0,1
323,994	-0,09
324,457	-0,09
324,92	-0,09
325,382	-0,08
325,845	-0,08
326,308	-0,07
326,771	-0,07
327,233	-0,06
327,696	-0,05
328,159	-0,05
328,622	-0,04
329,084	-0,04
329,547	-0,03
330,009	-0,03
330,472	-0,02
330,934	-0,02
331,397	-0,02
331,859	-0,01
332,322	-0,01
332,784	-0,01
333,246	0
333,709	-0
334,171	0
334,633	0,01
335,096	-0
335,558	0,01
336,02	-0
336,482	0
336,944	0,01
337,406	0,01
337,868	0,01
338,331	0,01
338,793	0,02
339,255	0,02
339,717	0,02
340,178	0,03
340,64	0,03
341,102	0,04
341,564	0,05
342,026	0,06
342,488	0,07
342,949	0,07
343,411	0,09
343,873	0,12
344,335	0,13
344,796	0,16
345,258	0,19
345,719	0,21
346,181	0,24
346,643	0,26
347,104	0,28
347,566	0,3
348,027	0,31
348,488	0,32
348,95	0,33
349,411	0,34
349,873	0,35
350,334	0,36
350,795	0,37
351,256	0,37
351,718	0,38
352,179	0,38
352,64	0,38
353,101	0,38
353,562	0,38
354,023	0,38
354,484	0,38
354,945	0,39
355,406	0,39
355,867	0,39
356,328	0,39
356,789	0,39
357,25	0,39
357,711	0,39
358,172	0,39
358,633	0,39
359,093	0,39
359,554	0,39
360,015	0,39
360,476	0,4
360,936	0,4
361,397	0,4
361,858	0,4
362,318	0,4
362,779	0,4
363,239	0,4
363,7	0,4
364,16	0,4
364,621	0,4
365,081	0,4
365,541	0,4
366,002	0,4
366,462	0,4
366,922	0,4
367,383	0,4
367,843	0,4
368,303	0,4
368,763	0,4
369,223	0,4
369,684	0,4
370,144	0,4
370,604	0,4
371,064	0,4
371,524	0,4
371,984	0,4
372,444	0,4
372,904	0,4
373,363	0,39
373,823	0,39
374,283	0,39
374,743	0,39
375,203	0,39
375,663	0,39
376,122	0,39
376,582	0,39
377,042	0,39
377,501	0,39
377,961	0,39
378,42	0,39
378,88	0,39
379,34	0,39
379,799	0,39
380,259	0,39
380,718	0,39
381,177	0,39
381,637	0,39
382,096	0,39
382,555	0,39
383,015	0,39
383,474	0,39
383,933	0,39
384,393	0,39
384,852	0,39
385,311	0,39
385,77	0,39
386,229	0,39
386,688	0,39
387,147	0,39
387,606	0,39
388,065	0,39
388,524	0,39
388,983	0,39
389,442	0,39
389,901	0,38
390,36	0,38
390,819	0,38
391,277	0,38
391,736	0,38
392,195	0,38
392,654	0,38
393,112	0,38
393,571	0,38
394,03	0,38
394,488	0,38
394,947	0,38
395,405	0,38
395,864	0,38
396,322	0,38
396,781	0,38
397,239	0,38
397,698	0,38
398,156	0,38
398,614	0,38
399,073	0,38
399,531	0,38
399,989	0,38
400,447	0,38
400,905	0,38
401,364	0,38
401,822	0,38
402,28	0,38
402,738	0,38
403,196	0,38
403,654	0,38
404,112	0,38
404,57	0,38
405,028	0,38
405,486	0,38
405,944	0,38
406,402	0,38
406,859	0,38
407,317	0,38
407,775	0,38
408,233	0,38
408,691	0,38
409,148	0,38
409,606	0,38
410,064	0,38
410,521	0,38
410,979	0,38
411,436	0,38
411,894	0,38
412,351	0,38
412,809	0,38
413,266	0,37
413,724	0,37
414,181	0,37
414,638	0,37
415,096	0,37
415,553	0,37
416,01	0,37
416,467	0,37
416,925	0,37
417,382	0,37
417,839	0,37
418,296	0,37
418,753	0,37
419,21	0,37
419,667	0,37
420,124	0,37
420,581	0,37
421,038	0,37
421,495	0,37
421,952	0,37
422,409	0,37
422,866	0,37
423,322	0,37
423,779	0,37
424,236	0,37
424,693	0,37
425,149	0,37
425,606	0,37
426,063	0,37
426,519	0,37
426,976	0,37
427,433	0,37
427,889	0,37
428,346	0,37
428,802	0,37
429,258	0,37
429,715	0,37
430,171	0,37
430,628	0,37
431,084	0,37
431,54	0,37
431,997	0,37
432,453	0,37
432,909	0,37
433,365	0,37
433,821	0,37
434,277	0,37
434,734	0,37
435,19	0,37
435,646	0,37
436,102	0,37
436,558	0,37
437,014	0,37
437,47	0,37
437,925	0,37
438,381	0,37
438,837	0,37
439,293	0,37
439,749	0,37
440,205	0,37
440,66	0,37
441,116	0,37
441,572	0,37
442,027	0,37
442,483	0,37
442,939	0,37
443,394	0,37
443,85	0,37
444,305	0,37
444,761	0,37
445,216	0,37
445,672	0,37
446,127	0,37
446,582	0,37
447,038	0,37
447,493	0,37
447,948	0,37
448,403	0,37
448,859	0,37
449,314	0,37
449,769	0,37
450,224	0,37
450,679	0,37
451,134	0,37
451,589	0,37
452,044	0,37
452,499	0,37
452,954	0,37
453,409	0,37
453,864	0,37
454,319	0,37
454,774	0,37
455,229	0,37
455,684	0,37
456,138	0,37
456,593	0,37
457,048	0,37
457,503	0,37
457,957	0,37
458,412	0,37
458,866	0,37
459,321	0,37
459,776	0,37
460,23	0,37
460,685	0,37
461,139	0,37
461,593	0,37
462,048	0,37
462,502	0,37
462,957	0,37
463,411	0,37
463,865	0,37
464,319	0,37
464,774	0,37
465,228	0,37
465,682	0,37
466,136	0,37
466,59	0,37
467,044	0,37
467,499	0,38
467,953	0,38
468,407	0,38
468,861	0,38
469,315	0,38
469,768	0,38
470,222	0,38
470,676	0,38
471,13	0,38
471,584	0,38
472,038	0,38
472,491	0,38
472,945	0,38
473,399	0,38
473,852	0,38
474,306	0,38
474,76	0,38
475,213	0,38
475,667	0,38
476,12	0,38
476,574	0,38
477,027	0,38
477,481	0,38
477,934	0,38
478,388	0,38
478,841	0,39
479,294	0,39
479,748	0,39
480,201	0,39
480,654	0,39
481,107	0,39
481,561	0,39
482,014	0,39
482,467	0,39
482,92	0,39
483,373	0,39
483,826	0,39
484,279	0,4
484,732	0,4
485,185	0,4
485,638	0,4
486,091	0,4
486,544	0,4
486,997	0,4
487,449	0,4
487,902	0,4
488,355	0,4
488,808	0,41
489,26	0,41
489,713	0,41
490,166	0,41
490,618	0,41
491,071	0,41
491,523	0,41
491,976	0,42
492,429	0,42
492,881	0,42
493,333	0,42
493,786	0,42
494,238	0,42
494,691	0,43
495,143	0,43
495,595	0,43
496,048	0,43
496,5	0,43
496,952	0,43
497,404	0,44
497,856	0,44
498,309	0,44
498,761	0,44
499,213	0,44
499,665	0,45
500,117	0,45
500,569	0,45
501,021	0,45
501,473	0,45
501,925	0,46
502,377	0,46
502,828	0,46
503,28	0,46
503,732	0,47
504,184	0,47
504,636	0,47
505,087	0,47
505,539	0,47
505,991	0,48
506,442	0,48
506,894	0,48
507,345	0,48
507,797	0,49
508,249	0,49
508,7	0,49
509,151	0,49
509,603	0,49
510,054	0,5
510,506	0,5
510,957	0,5
511,408	0,5
511,86	0,5
512,311	0,51
512,762	0,51
513,213	0,51
513,665	0,51
514,116	0,51
514,567	0,51
515,018	0,52
515,469	0,52
515,92	0,52
516,371	0,52
516,822	0,52
517,273	0,53
517,724	0,53
518,175	0,53
518,626	0,53
519,076	0,53
519,527	0,53
519,978	0,53
520,429	0,54
520,88	0,54
521,33	0,54
521,781	0,54
522,232	0,54
522,682	0,54
523,133	0,54
523,583	0,54
524,034	0,55
524,484	0,55
524,935	0,55
525,385	0,55
525,836	0,55
526,286	0,55
526,736	0,55
527,187	0,55
527,637	0,55
528,087	0,55
528,538	0,55
528,988	0,55
529,438	0,55
529,888	0,55
530,338	0,55
530,788	0,55
531,238	0,55
531,688	0,55
532,139	0,55
532,589	0,55
533,038	0,55
533,488	0,55
533,938	0,55
534,388	0,54
534,838	0,54
535,288	0,54
535,738	0,54
536,187	0,54
536,637	0,54
537,087	0,54
537,537	0,53
537,986	0,53
538,436	0,53
538,885	0,53
539,335	0,53
539,785	0,52
540,234	0,52
540,684	0,52
541,133	0,52
541,582	0,52
542,032	0,51
542,481	0,51
542,931	0,51
543,38	0,51
543,829	0,5
544,278	0,5
544,728	0,5
545,177	0,5
545,626	0,5
546,075	0,49
546,524	0,49
546,973	0,49
547,422	0,49
547,871	0,49
548,32	0,49
548,769	0,49
549,218	0,49
549,667	0,49
550,116	0,48
550,565	0,48
551,014	0,48
551,463	0,48
551,911	0,48
552,36	0,48
552,809	0,48
553,258	0,47
553,706	0,47
554,155	0,47
554,603	0,47
555,052	0,47
555,501	0,46
555,949	0,46
556,398	0,46
556,846	0,46
557,294	0,46
557,743	0,46
558,191	0,45
558,64	0,45
559,088	0,45
559,536	0,45
559,985	0,44
560,433	0,44
560,881	0,44
561,329	0,44
561,777	0,44
562,225	0,44
562,674	0,43
563,122	0,43
563,57	0,43
564,018	0,43
564,466	0,43
564,914	0,43
565,362	0,42
565,809	0,42
566,257	0,42
566,705	0,42
567,153	0,42
567,601	0,41
568,048	0,41
568,496	0,41
568,944	0,41
569,392	0,41
569,839	0,41
570,287	0,41
570,734	0,4
571,182	0,4
571,63	0,4
572,077	0,4
572,525	0,4
572,972	0,4
573,419	0,39
573,867	0,39
574,314	0,39
574,761	0,39
575,209	0,39
575,656	0,39
576,103	0,39
576,551	0,38
576,998	0,38
577,445	0,38
577,892	0,38
578,339	0,38
578,786	0,38
579,233	0,38
579,68	0,38
580,127	0,38
580,574	0,38
581,021	0,37
581,468	0,37
581,915	0,37
582,362	0,37
582,809	0,37
583,255	0,37
583,702	0,37
584,149	0,37
584,596	0,36
585,042	0,36
585,489	0,36
585,936	0,36
586,382	0,36
586,829	0,36
587,275	0,36
587,722	0,36
588,168	0,36
588,615	0,36
589,061	0,36
589,508	0,35
589,954	0,35
590,4	0,35
590,847	0,35
591,293	0,35
591,739	0,35
592,185	0,35
592,632	0,35
593,078	0,35
593,524	0,35
593,97	0,35
594,416	0,35
594,862	0,35
595,308	0,35
595,754	0,35
596,2	0,35
596,646	0,34
597,092	0,34
597,538	0,34
597,984	0,34
598,43	0,34
598,876	0,34
599,321	0,34
599,767	0,34
600,213	0,34
600,659	0,34
601,104	0,34
601,55	0,34
601,995	0,34
602,441	0,34
602,887	0,34
603,332	0,33
603,778	0,33
604,223	0,33
604,668	0,33
605,114	0,33
605,559	0,33
606,005	0,33
606,45	0,33
606,895	0,33
607,341	0,33
607,786	0,33
608,231	0,33
608,676	0,33
609,121	0,32
609,566	0,32
610,012	0,32
610,457	0,32
610,902	0,31
611,347	0,31
611,792	0,31
612,237	0,31
612,682	0,31
613,127	0,31
613,571	0,31
614,016	0,31
614,461	0,31
614,906	0,32
615,351	0,32
615,795	0,32
616,24	0,32
616,685	0,32
617,129	0,32
617,574	0,32
618,019	0,32
618,463	0,32
618,908	0,32
619,352	0,32
619,797	0,32
620,241	0,32
620,686	0,32
621,13	0,32
621,574	0,32
622,019	0,32
622,463	0,32
622,907	0,31
623,352	0,31
623,796	0,31
624,24	0,31
624,684	0,31
625,128	0,31
625,572	0,31
626,016	0,31
626,461	0,31
626,905	0,31
627,349	0,31
627,793	0,31
628,236	0,31
628,68	0,31
629,124	0,31
629,568	0,31
630,012	0,31
630,456	0,31
630,9	0,31
631,343	0,31
631,787	0,31
632,231	0,31
632,674	0,31
633,118	0,31
633,562	0,31
634,005	0,31
634,449	0,31
634,892	0,31
635,336	0,31
635,779	0,31
636,223	0,31
636,666	0,31
637,109	0,31
637,553	0,31
637,996	0,31
638,439	0,31
638,883	0,31
639,326	0,31
639,769	0,31
640,212	0,31
640,655	0,31
641,099	0,3
641,542	0,31
641,985	0,31
642,428	0,31
642,871	0,31
643,314	0,31
643,757	0,31
644,2	0,31
644,643	0,31
645,085	0,31
645,528	0,3
645,971	0,3
646,414	0,3
646,857	0,3
647,299	0,3
647,742	0,3
648,185	0,3
648,627	0,3
649,07	0,3
649,513	0,3
649,955	0,3
650,398	0,3
650,84	0,3
651,283	0,3
651,725	0,3
652,168	0,3
652,61	0,3
653,052	0,3
653,495	0,3
653,937	0,23
654,379	0,19
654,821	0,19
655,264	0,19
655,706	0,19
656,148	0,19
656,59	0,19
657,032	0,19
657,474	0,19
657,916	0,19
658,358	0,19
658,8	0,23
659,242	0,3
659,684	0,3
660,126	0,3
660,568	0,3
661,01	0,3
661,452	0,3
661,894	0,3
662,335	0,3
662,777	0,3
663,219	0,3
663,661	0,3
664,102	0,3
664,544	0,3
664,985	0,3
665,427	0,3
665,869	0,3
666,31	0,3
666,752	0,3
667,193	0,3
667,634	0,3
668,076	0,3
668,517	0,3
668,959	0,3
669,4	0,3
669,841	0,3
670,282	0,29
670,724	0,29
671,165	0,29
671,606	0,29
672,047	0,29
672,488	0,29
672,929	0,29
673,37	0,29
673,811	0,29
674,252	0,29
674,693	0,29
675,134	0,29
675,575	0,29
676,016	0,29
676,457	0,29
676,898	0,29
677,339	0,29
677,78	0,29
678,22	0,29
678,661	0,29
679,102	0,29
679,542	0,29
679,983	0,29
680,424	0,29
680,864	0,29
681,305	0,29
681,745	0,29
682,186	0,29
682,626	0,29
683,067	0,29
683,507	0,29
683,948	0,29
684,388	0,29
684,828	0,29
685,269	0,29
685,709	0,29
686,149	0,29
686,589	0,29
687,029	0,29
687,47	0,29
687,91	0,28
688,35	0,28
688,79	0,28
689,23	0,28
689,67	0,28
690,11	0,28
690,55	0,28
690,99	0,28
691,43	0,28
691,87	0,28
692,31	0,28
692,749	0,28
693,189	0,28
693,629	0,28
694,069	0,28
694,508	0,28
694,948	0,28
695,388	0,28
695,827	0,28
696,267	0,28
696,706	0,28
697,146	0,28
697,586	0,28
698,025	0,28
698,464	0,28
698,904	0,29
699,343	0,29
699,783	0,29
700,222	0,29
700,661	0,29
701,101	0,29
701,54	0,28
701,979	0,28
702,418	0,28
702,857	0,28
703,297	0,28
703,736	0,28
704,175	0,28
704,614	0,28
705,053	0,28
705,492	0,28
705,931	0,28
706,37	0,28
706,809	0,28
707,248	0,28
707,687	0,27
708,125	0,27
708,564	0,27
709,003	0,27
709,442	0,27
709,88	0,27
710,319	0,27
710,758	0,27
711,196	0,27
711,635	0,27
712,074	0,27
712,512	0,27
712,951	0,27
713,389	0,27
713,828	0,27
714,266	0,27
714,705	0,27
715,143	0,27
715,581	0,27
716,02	0,27
716,458	0,27
716,896	0,27
717,334	0,27
717,773	0,27
718,211	0,27
718,649	0,27
719,087	0,27
719,525	0,27
719,963	0,27
720,401	0,27
720,839	0,27
721,277	0,27
721,715	0,27
722,153	0,27
722,591	0,27
723,029	0,27
723,467	0,27
723,905	0,27
724,342	0,27
724,78	0,27
725,218	0,27
725,656	0,27
726,093	0,27
726,531	0,27
726,969	0,27
727,406	0,27
727,844	0,27
728,281	0,27
728,719	0,27
729,156	0,27
729,594	0,27
730,031	0,27
730,469	0,26
730,906	0,26
731,343	0,26
731,781	0,26
732,218	0,26
732,655	0,26
733,092	0,26
733,53	0,26
733,967	0,26
734,404	0,26
734,841	0,26
735,278	0,26
735,715	0,26
736,152	0,26
736,589	0,26
737,026	0,26
737,463	0,26
737,9	0,26
738,337	0,26
738,774	0,26
739,211	0,26
739,647	0,25
740,084	0,25
740,521	0,25
740,958	0,25
741,394	0,25
741,831	0,25
742,268	0,25
742,704	0,25
743,141	0,25
743,577	0,25
744,014	0,25
744,45	0,25
744,887	0,25
745,323	0,24
745,76	0,24
746,196	0,24
746,632	0,24
747,069	0,24
747,505	0,24
747,941	0,24
748,378	0,24
748,814	0,24
749,25	0,24
749,686	0,25
750,122	0,25
750,558	0,25
750,994	0,25
751,43	0,25
751,866	0,25
752,302	0,25
752,738	0,25
753,174	0,25
753,61	0,25
754,046	0,25
754,482	0,26
754,918	0,26
755,354	0,26
755,789	0,26
756,225	0,26
756,661	0,26
757,096	0,25
757,532	0,25
757,968	0,25
758,403	0,25
758,839	0,25
759,274	0,25
759,71	0,25
760,145	0,24
760,581	0,24
761,016	0,24
761,452	0,23
761,887	0,23
762,322	0,23
762,758	0,22
763,193	0,22
763,628	0,22
764,063	0,21
764,499	0,21
764,934	0,2
765,369	0,2
765,804	0,19
766,239	0,19
766,674	0,18
767,109	0,18
767,544	0,17
767,979	0,16
768,414	0,16
768,849	0,15
769,284	0,14
769,719	0,14
770,154	0,13
770,588	0,13
771,023	0,12
771,458	0,11
771,893	0,1
772,327	0,09
772,762	0,08
773,197	0,07
773,631	0,07
774,066	0,06
774,5	0,06
774,935	0,05
775,369	0,04
775,804	0,03
776,238	0,02
776,673	0,01
777,107	0,01
777,541	0
777,976	-0,01
778,41	-0,01
778,844	-0,02
779,279	-0,03
779,713	-0,03
780,147	-0,04
780,581	-0,04
781,015	-0,05
781,449	-0,06
781,883	-0,06
782,317	-0,08
782,751	-0,09
783,185	-0,1
783,619	-0,1
784,053	-0,11
784,487	-0,12
784,921	-0,12
785,355	-0,13
785,789	-0,14
786,223	-0,15
786,656	-0,16
787,09	-0,17
787,524	-0,17
787,957	-0,18
788,391	-0,2
788,825	-0,22
789,258	-0,23
789,692	-0,24
790,125	-0,26
790,559	-0,27
790,992	-0,29
791,426	-0,31
791,859	-0,33
792,293	-0,36
792,726	-0,37
793,159	-0,39
793,593	-0,41
794,026	-0,44
794,459	-0,47
794,892	-0,49
795,326	-0,52
795,759	-0,56
796,192	-0,6
796,625	-0,65
797,058	-0,67
797,491	-0,72
797,924	-0,76
798,357	-0,81
798,79	-0,85
799,223	-0,89
799,656	-0,95
800,089	-1
800,522	-1,04
800,955	-1,09
801,387	-1,14
801,82	-1,2
802,253	-1,26
802,686	-1,34
803,118	-1,39
803,551	-1,45
803,984	-1,49
804,416	-1,53
804,849	-1,57
805,281	-1,71
805,714	-2,09
806,146	-2,5
806,579	-2,74
807,011	-2,89
807,444	-2,98
807,876	-3,06
808,308	-3,09
808,741	-3,12
809,173	-3,17
809,605	-3,19
810,037	-3,26
810,47	-3,17
810,902	-2,97
811,334	-2,82
811,766	-2,66
812,198	-2,4
812,63	-2
813,062	-1,81
813,494	-1,72
813,926	-1,63
814,358	-1,58
814,79	-1,5
815,222	-1,44
815,654	-1,39
816,086	-1,32
816,518	-1,27
816,949	-1,21
817,381	-1,17
817,813	-1,15
818,245	-1,11
818,676	-1,07
819,108	-1,04
819,54	-1,03
819,971	-1
820,403	-0,95
820,834	-0,94
821,266	-0,89
821,697	-0,87
822,129	-0,86
822,56	-0,83
822,991	-0,81
823,423	-0,78
823,854	-0,77
824,286	-0,74
824,717	-0,72
825,148	-0,71
825,579	-0,7
826,01	-0,69
826,442	-0,68
826,873	-0,66
827,304	-0,62
827,735	-0,61
828,166	-0,61
828,597	-0,6
829,028	-0,59
829,459	-0,6
829,89	-0,59
830,321	-0,55
830,752	-0,56
831,183	-0,55
831,613	-0,54
832,044	-0,54
832,475	-0,53
832,906	-0,55
833,336	-0,55
833,767	-0,56
834,198	-0,55
834,628	-0,53
835,059	-0,56
835,49	-0,58
835,92	-0,55
836,351	-0,55
836,781	-0,55
837,212	-0,56
837,642	-0,56
838,072	-0,54
838,503	-0,55
838,933	-0,53
839,364	-0,54
839,794	-0,51
840,224	-0,49
840,654	-0,53
841,085	-0,53
841,515	-0,51
841,945	-0,51
842,375	-0,46
842,805	-0,46
843,235	-0,45
843,665	-0,47
844,095	-0,45
844,525	-0,48
844,955	-0,49
845,385	-0,47
845,815	-0,44
846,245	-0,46
846,675	-0,46
847,105	-0,49
847,534	-0,49
847,964	-0,48
848,394	-0,46
848,824	-0,49
849,253	-0,48
849,683	-0,49
850,112	-0,49
850,542	-0,53
850,972	-0,54
851,401	-0,52
851,831	-0,5
852,26	-0,5
852,69	-0,54
853,119	-0,53
853,548	-0,53
853,978	-0,53
854,407	-0,51
854,836	-0,51
855,266	-0,5
855,695	-0,51
856,124	-0,52
856,553	-0,53
856,983	-0,55
857,412	-0,54
857,841	-0,55
858,27	-0,55
858,699	-0,56
859,128	-0,59
859,557	-0,6
859,986	-0,61
860,415	-0,6
860,844	-0,57
861,273	-0,57
861,702	-0,57
862,13	-0,56
862,559	-0,58
862,988	-0,56
863,417	-0,55
863,845	-0,54
864,274	-0,54
864,703	-0,53
865,131	-0,54
865,56	-0,55
865,989	-0,58
866,417	-0,56
866,846	-0,56
867,274	-0,55
867,703	-0,57
868,131	-0,58
868,559	-0,59
868,988	-0,61
869,416	-0,6
869,844	-0,61
870,273	-0,63
870,701	-0,61
871,129	-0,65
871,557	-0,67
871,986	-0,67
872,414	-0,68
872,842	-0,65
873,27	-0,63
873,698	-0,6
874,126	-0,63
874,554	-0,62
874,982	-0,61
875,41	-0,63
875,838	-0,59
876,266	-0,57
876,694	-0,56
877,122	-0,55
877,549	-0,6
877,977	-0,57
878,405	-0,61
878,833	-0,58
879,26	-0,56
879,688	-0,57
880,116	-0,54
880,543	-0,53
880,971	-0,53
881,399	-0,56
881,826	-0,56
882,254	-0,55
882,681	-0,58
883,109	-0,54
883,536	-0,55
883,963	-0,57
884,391	-0,55
884,818	-0,53
885,245	-0,57
885,673	-0,58
886,1	-0,55
886,527	-0,56
886,954	-0,53
887,381	-0,55
887,809	-0,56
888,236	-0,57
888,663	-0,59
889,09	-0,63
889,517	-0,66
889,944	-0,65
890,371	-0,64
890,798	-0,65
891,225	-0,64
891,652	-0,66
892,078	-0,63
892,505	-0,66
892,932	-0,62
893,359	-0,61
893,786	-0,61
894,212	-0,57
894,639	-0,58
895,066	-0,6
895,492	-0,54
895,919	-0,54
896,346	-0,54
896,772	-0,55
897,199	-0,52
897,625	-0,55
898,052	-0,51
898,478	-0,5
898,904	-0,52
899,331	-0,51
899,757	-0,53
900,183	-0,56
900,61	-0,54
901,036	-0,55
901,462	-0,54
901,888	-0,54
902,315	-0,53
902,741	-0,58
903,167	-0,57
903,593	-0,6
904,019	-0,59
904,445	-0,55
904,871	-0,58
905,297	-0,59
905,723	-0,59
906,149	-0,58
906,575	-0,59
907,001	-0,59
907,427	-0,56
907,852	-0,55
908,278	-0,55
908,704	-0,53
909,13	-0,52
909,555	-0,51
909,981	-0,5
910,407	-0,5
910,832	-0,51
911,258	-0,5
911,684	-0,5
912,109	-0,51
912,535	-0,53
912,96	-0,48
913,386	-0,52
913,811	-0,51
914,236	-0,53
914,662	-0,52
915,087	-0,55
915,512	-0,55
915,938	-0,57
916,363	-0,57
916,788	-0,58
917,213	-0,56
917,639	-0,61
918,064	-0,6
918,489	-0,6
918,914	-0,6
919,339	-0,62
919,764	-0,59
920,189	-0,58
920,614	-0,6
921,039	-0,6
921,464	-0,56
921,889	-0,59
922,314	-0,6
922,738	-0,62
923,163	-0,64
923,588	-0,64
924,013	-0,64
924,437	-0,64
924,862	-0,65
925,287	-0,6
925,711	-0,61
926,136	-0,63
926,561	-0,6
926,985	-0,59
927,41	-0,57
927,834	-0,55
928,259	-0,52
928,683	-0,49
929,108	-0,46
929,532	-0,48
929,956	-0,48
930,381	-0,47
930,805	-0,47
931,229	-0,47
931,653	-0,46
932,078	-0,46
932,502	-0,47
932,926	-0,47
933,35	-0,47
933,774	-0,47
934,198	-0,45
934,622	-0,44
935,046	-0,44
935,47	-0,44
935,894	-0,43
936,318	-0,43
936,742	-0,43
937,166	-0,43
937,59	-0,42
938,014	-0,45
938,437	-0,46
938,861	-0,48
939,285	-0,49
939,709	-0,49
940,132	-0,49
940,556	-0,49
940,98	-0,49
941,403	-0,48
941,827	-0,48
942,25	-0,5
942,674	-0,48
943,097	-0,47
943,521	-0,46
943,944	-0,47
944,368	-0,46
944,791	-0,45
945,214	-0,48
945,638	-0,48
946,061	-0,51
946,484	-0,52
946,907	-0,51
947,331	-0,51
947,754	-0,55
948,177	-0,53
948,6	-0,54
949,023	-0,54
949,446	-0,54
949,869	-0,51
950,292	-0,51
950,715	-0,48
951,138	-0,46
951,561	-0,43
951,984	-0,43
952,407	-0,42
952,83	-0,4
953,252	-0,35
953,675	-0,35
954,098	-0,35
954,521	-0,34
954,943	-0,33
955,366	-0,34
955,789	-0,33
956,211	-0,35
956,634	-0,35
957,056	-0,33
957,479	-0,34
957,902	-0,37
958,324	-0,36
958,746	-0,35
959,169	-0,36
959,591	-0,36
960,014	-0,37
960,436	-0,37
960,858	-0,36
961,281	-0,37
961,703	-0,37
962,125	-0,38
962,547	-0,35
962,969	-0,36
963,391	-0,37
963,814	-0,39
964,236	-0,38
964,658	-0,35
965,08	-0,35
965,502	-0,34
965,924	-0,32
966,346	-0,32
966,768	-0,31
967,189	-0,33
967,611	-0,33
968,033	-0,33
968,455	-0,31
968,877	-0,31
969,298	-0,33
969,72	-0,34
970,142	-0,33
970,563	-0,34
970,985	-0,33
971,407	-0,32
971,828	-0,31
972,25	-0,3
972,671	-0,28
973,093	-0,28
973,514	-0,27
973,936	-0,25
974,357	-0,25
974,778	-0,25
975,2	-0,24
975,621	-0,24
976,042	-0,22
976,464	-0,21
976,885	-0,2
977,306	-0,19
977,727	-0,19
978,148	-0,18
978,57	-0,17
978,991	-0,16
979,412	-0,15
979,833	-0,14
980,254	-0,13
980,675	-0,14
981,096	-0,13
981,517	-0,12
981,937	-0,12
982,358	-0,1
982,779	-0,09
983,2	-0,1
983,621	-0,1
984,042	-0,08
984,462	-0,08
984,883	-0,06
985,304	-0,05
985,724	-0,04
986,145	-0,03
986,565	-0,01
986,986	-0,01
987,407	-0
987,827	0,01
988,248	0,02
988,668	0,03
989,088	0,04
989,509	0,05
989,929	0,05
990,35	0,06
990,77	0,07
991,19	0,07
991,61	0,09
992,031	0,09
992,451	0,1
992,871	0,11
993,291	0,12
993,711	0,12
994,131	0,13
994,551	0,13
994,971	0,13
995,391	0,13
995,811	0,14
996,231	0,14
996,651	0,14
997,071	0,15
997,491	0,15
997,911	0,15
998,331	0,16
998,75	0,16
999,17	0,17
999,59	0,17
1000,009	0,17
1000,429	0,18
1000,849	0,18
1001,268	0,18
1001,688	0,19
1002,107	0,19
1002,527	0,19
1002,946	0,19
1003,366	0,19
1003,785	0,2
1004,205	0,2
1004,624	0,2
1005,044	0,2
1005,463	0,2
1005,882	0,2
1006,301	0,2
1006,721	0,2
1007,14	0,21
1007,559	0,21
1007,978	0,21
1008,397	0,21
1008,816	0,2
1009,235	0,2
1009,655	0,2
1010,074	0,2
1010,492	0,2
1010,911	0,2
1011,33	0,2
1011,749	0,2
1012,168	0,2
1012,587	0,19
1013,006	0,19
1013,425	0,19
1013,843	0,19
1014,262	0,19
1014,681	0,19
1015,099	0,19
1015,518	0,19
1015,937	0,19
1016,355	0,19
1016,774	0,19
1017,192	0,19
1017,611	0,19
1018,029	0,19
1018,448	0,19
1018,866	0,19
1019,285	0,2
1019,703	0,2
1020,121	0,2
1020,54	0,2
1020,958	0,2
1021,376	0,2
1021,794	0,2
1022,213	0,2
1022,631	0,2
1023,049	0,2
1023,467	0,2
1023,885	0,2
1024,303	0,2
1024,721	0,19
1025,139	0,19
1025,557	0,19
1025,975	0,19
1026,393	0,19
1026,811	0,19
1027,229	0,19
1027,647	0,19
1028,065	0,19
1028,482	0,19
1028,9	0,19
1029,318	0,19
1029,735	0,19
1030,153	0,19
1030,571	0,19
1030,988	0,19
1031,406	0,19
1031,823	0,19
1032,241	0,19
1032,659	0,19
1033,076	0,19
1033,493	0,19
1033,911	0,19
1034,328	0,19
1034,746	0,19
1035,163	0,19
1035,58	0,19
1035,997	0,19
1036,415	0,19
1036,832	0,19
1037,249	0,19
1037,666	0,19
1038,083	0,19
1038,501	0,19
1038,918	0,18
1039,335	0,18
1039,752	0,18
1040,169	0,18
1040,586	0,18
1041,003	0,18
1041,419	0,18
1041,836	0,18
1042,253	0,18
1042,67	0,18
1043,087	0,18
1043,504	0,18
1043,92	0,18
1044,337	0,18
1044,754	0,18
1045,17	0,18
1045,587	0,18
1046,004	0,18
1046,42	0,17
1046,837	0,17
1047,253	0,17
1047,67	0,17
1048,086	0,17
1048,503	0,17
1048,919	0,17
1049,335	0,17
1049,752	0,17
1050,168	0,17
1050,584	0,17
1051,001	0,17
1051,417	0,17
1051,833	0,17
1052,249	0,17
1052,665	0,18
1053,081	0,18
1053,497	0,18
1053,914	0,18
1054,33	0,18
1054,746	0,18
1055,162	0,18
1055,578	0,18
1055,993	0,18
1056,409	0,18
1056,825	0,18
1057,241	0,18
1057,657	0,18
1058,073	0,18
1058,488	0,18
1058,904	0,18
1059,32	0,18
1059,736	0,18
1060,151	0,18
1060,567	0,18
1060,982	0,18
1061,398	0,18
1061,813	0,18
1062,229	0,18
1062,644	0,18
1063,06	0,18
1063,475	0,18
1063,891	0,18
1064,306	0,18
1064,721	0,18
1065,137	0,18
1065,552	0,18
1065,967	0,18
1066,382	0,18
1066,798	0,18
1067,213	0,18
1067,628	0,18
1068,043	0,18
1068,458	0,18
1068,873	0,18
1069,288	0,18
1069,703	0,18
1070,118	0,18
1070,533	0,18
1070,948	0,18
1071,363	0,18
1071,778	0,18
1072,193	0,18
1072,607	0,18
1073,022	0,19
1073,437	0,19
1073,852	0,19
1074,266	0,19
1074,681	0,19
1075,096	0,19
1075,51	0,19
1075,925	0,19
1076,339	0,19
1076,754	0,19
1077,168	0,19
1077,583	0,18
1077,997	0,18
1078,412	0,18
1078,826	0,18
1079,24	0,18
1079,655	0,18
1080,069	0,18
1080,483	0,18
1080,897	0,18
1081,312	0,18
1081,726	0,18
1082,14	0,18
1082,554	0,18
1082,968	0,18
1083,382	0,18
1083,796	0,18
1084,21	0,18
1084,624	0,17
1085,038	0,17
1085,452	0,17
1085,866	0,17
1086,28	0,17
1086,694	0,17
1087,108	0,17
1087,521	0,17
1087,935	0,16
1088,349	0,16
1088,763	0,16
1089,176	0,16
1089,59	0,16
1090,004	0,16
1090,417	0,16
1090,831	0,15
1091,244	0,15
1091,658	0,15
1092,071	0,15
1092,485	0,15
1092,898	0,15
1093,312	0,15
1093,725	0,15
1094,138	0,15
1094,552	0,14
1094,965	0,14
1095,378	0,14
1095,791	0,14
1096,205	0,14
1096,618	0,14
1097,031	0,14
1097,444	0,13
1097,857	0,13
1098,27	0,13
1098,683	0,13
1099,096	0,13
1099,509	0,13
1099,922	0,13
1100,335	0,13
1100,748	0,12
1101,161	0,12
1101,574	0,12
1101,986	0,12
1102,399	0,12
1102,812	0,11
1103,225	0,11
1103,637	0,11
1104,05	0,11
1104,463	0,11
1104,875	0,1
1105,288	0,1
1105,7	0,09
1106,113	0,09
1106,525	0,09
1106,938	0,08
1107,35	0,08
1107,763	0,08
1108,175	0,07
1108,588	0,07
1109	0,07
1109,412	0,06
1109,824	0,06
1110,237	0,06
1110,649	0,06
1111,061	0,07
