Data from 18C-808nm-8A_Absorbance__1309__01309.txt Node

Date: Mon Jul 17 17:10:55 CEST 2023
User: Laser008
Spectrometer: MAYP115816
Trigger mode: 0
Integration Time (sec): 2,500000E-1
Scans to average: 10
Electric dark correction enabled: true
Nonlinearity correction enabled: true
Boxcar width: 5
XAxis mode: Wavelengths
Number of Pixels in Spectrum: 2068
>>>>>Begin Spectral Data<<<<<
198,914	-0,71
199,384	-0,51
199,855	-0,39
200,325	-0,31
200,796	-0,27
201,266	-0,23
201,737	-0,21
202,207	-0,19
202,677	-0,19
203,147	-0,17
203,618	-0,14
204,088	-0,12
204,558	-0,1
205,028	-0,09
205,498	-0,1
205,968	-0,1
206,439	-0,11
206,909	-0,1
207,379	-0,11
207,849	-0,11
208,319	-0,11
208,789	-0,12
209,258	-0,12
209,728	-0,14
210,198	-0,15
210,668	-0,15
211,138	-0,14
211,608	-0,14
212,077	-0,15
212,547	-0,15
213,017	-0,15
213,486	-0,16
213,956	-0,17
214,426	-0,18
214,895	-0,17
215,365	-0,18
215,834	-0,17
216,304	-0,18
216,773	-0,18
217,243	-0,2
217,712	-0,21
218,181	-0,2
218,651	-0,2
219,12	-0,19
219,589	-0,19
220,058	-0,18
220,528	-0,18
220,997	-0,19
221,466	-0,2
221,935	-0,2
222,404	-0,19
222,873	-0,19
223,342	-0,19
223,812	-0,19
224,281	-0,19
224,749	-0,2
225,218	-0,21
225,687	-0,22
226,156	-0,21
226,625	-0,19
227,094	-0,2
227,563	-0,2
228,031	-0,21
228,5	-0,22
228,969	-0,22
229,438	-0,21
229,906	-0,2
230,375	-0,2
230,844	-0,19
231,312	-0,2
231,781	-0,2
232,249	-0,19
232,718	-0,19
233,186	-0,17
233,655	-0,17
234,123	-0,16
234,591	-0,17
235,06	-0,18
235,528	-0,18
235,996	-0,18
236,465	-0,18
236,933	-0,17
237,401	-0,17
237,869	-0,16
238,337	-0,17
238,805	-0,16
239,274	-0,15
239,742	-0,15
240,21	-0,14
240,678	-0,14
241,146	-0,13
241,614	-0,13
242,081	-0,13
242,549	-0,13
243,017	-0,13
243,485	-0,13
243,953	-0,14
244,421	-0,13
244,888	-0,13
245,356	-0,14
245,824	-0,14
246,291	-0,14
246,759	-0,14
247,227	-0,14
247,694	-0,14
248,162	-0,13
248,629	-0,12
249,097	-0,12
249,564	-0,14
250,032	-0,14
250,499	-0,13
250,967	-0,14
251,434	-0,14
251,901	-0,14
252,369	-0,14
252,836	-0,15
253,303	-0,16
253,77	-0,18
254,237	-0,17
254,705	-0,16
255,172	-0,16
255,639	-0,16
256,106	-0,17
256,573	-0,18
257,04	-0,18
257,507	-0,19
257,974	-0,2
258,441	-0,18
258,908	-0,19
259,375	-0,2
259,841	-0,2
260,308	-0,21
260,775	-0,2
261,242	-0,18
261,709	-0,19
262,175	-0,2
262,642	-0,19
263,109	-0,19
263,575	-0,2
264,042	-0,19
264,508	-0,18
264,975	-0,2
265,441	-0,21
265,908	-0,22
266,374	-0,22
266,841	-0,22
267,307	-0,22
267,773	-0,21
268,24	-0,21
268,706	-0,21
269,172	-0,21
269,639	-0,23
270,105	-0,21
270,571	-0,21
271,037	-0,21
271,503	-0,23
271,969	-0,22
272,435	-0,22
272,902	-0,24
273,368	-0,26
273,834	-0,25
274,3	-0,26
274,765	-0,26
275,231	-0,27
275,697	-0,25
276,163	-0,25
276,629	-0,25
277,095	-0,26
277,56	-0,25
278,026	-0,25
278,492	-0,23
278,958	-0,23
279,423	-0,23
279,889	-0,22
280,354	-0,22
280,82	-0,22
281,286	-0,23
281,751	-0,23
282,217	-0,22
282,682	-0,22
283,147	-0,23
283,613	-0,23
284,078	-0,23
284,544	-0,24
285,009	-0,24
285,474	-0,25
285,939	-0,26
286,405	-0,25
286,87	-0,25
287,335	-0,24
287,8	-0,24
288,265	-0,22
288,73	-0,23
289,195	-0,25
289,66	-0,25
290,125	-0,23
290,59	-0,23
291,055	-0,23
291,52	-0,23
291,985	-0,23
292,45	-0,25
292,915	-0,25
293,38	-0,26
293,844	-0,24
294,309	-0,22
294,774	-0,21
295,239	-0,22
295,703	-0,23
296,168	-0,21
296,632	-0,2
297,097	-0,19
297,562	-0,17
298,026	-0,17
298,491	-0,17
298,955	-0,17
299,419	-0,17
299,884	-0,17
300,348	-0,16
300,813	-0,16
301,277	-0,17
301,741	-0,17
302,205	-0,17
302,67	-0,16
303,134	-0,15
303,598	-0,16
304,062	-0,15
304,526	-0,14
304,99	-0,15
305,454	-0,15
305,919	-0,15
306,383	-0,14
306,847	-0,13
307,31	-0,15
307,774	-0,16
308,238	-0,16
308,702	-0,16
309,166	-0,17
309,63	-0,18
310,094	-0,15
310,557	-0,15
311,021	-0,15
311,485	-0,16
311,948	-0,15
312,412	-0,14
312,876	-0,14
313,339	-0,14
313,803	-0,15
314,266	-0,14
314,73	-0,14
315,193	-0,14
315,657	-0,13
316,12	-0,13
316,584	-0,12
317,047	-0,12
317,51	-0,11
317,973	-0,1
318,437	-0,1
318,9	-0,09
319,363	-0,08
319,826	-0,07
320,29	-0,07
320,753	-0,08
321,216	-0,08
321,679	-0,08
322,142	-0,08
322,605	-0,1
323,068	-0,09
323,531	-0,09
323,994	-0,08
324,457	-0,08
324,92	-0,07
325,382	-0,07
325,845	-0,06
326,308	-0,06
326,771	-0,06
327,233	-0,05
327,696	-0,04
328,159	-0,04
328,622	-0,04
329,084	-0,04
329,547	-0,03
330,009	-0,03
330,472	-0,02
330,934	-0,01
331,397	-0,01
331,859	-0,01
332,322	-0,01
332,784	-0,01
333,246	-0,01
333,709	-0
334,171	-0,01
334,633	-0
335,096	-0
335,558	-0
336,02	-0
336,482	0,01
336,944	0,02
337,406	0,03
337,868	0,04
338,331	0,04
338,793	0,04
339,255	0,05
339,717	0,05
340,178	0,06
340,64	0,06
341,102	0,07
341,564	0,07
342,026	0,08
342,488	0,08
342,949	0,09
343,411	0,11
343,873	0,14
344,335	0,16
344,796	0,19
345,258	0,22
345,719	0,26
346,181	0,29
346,643	0,32
347,104	0,35
347,566	0,37
348,027	0,39
348,488	0,4
348,95	0,41
349,411	0,43
349,873	0,44
350,334	0,45
350,795	0,46
351,256	0,47
351,718	0,47
352,179	0,48
352,64	0,48
353,101	0,48
353,562	0,48
354,023	0,48
354,484	0,48
354,945	0,48
355,406	0,49
355,867	0,49
356,328	0,49
356,789	0,49
357,25	0,49
357,711	0,49
358,172	0,49
358,633	0,49
359,093	0,49
359,554	0,49
360,015	0,5
360,476	0,5
360,936	0,5
361,397	0,5
361,858	0,5
362,318	0,5
362,779	0,5
363,239	0,5
363,7	0,5
364,16	0,5
364,621	0,5
365,081	0,5
365,541	0,5
366,002	0,5
366,462	0,5
366,922	0,5
367,383	0,5
367,843	0,5
368,303	0,5
368,763	0,5
369,223	0,5
369,684	0,5
370,144	0,5
370,604	0,5
371,064	0,5
371,524	0,5
371,984	0,5
372,444	0,5
372,904	0,5
373,363	0,5
373,823	0,5
374,283	0,5
374,743	0,5
375,203	0,5
375,663	0,49
376,122	0,49
376,582	0,49
377,042	0,49
377,501	0,49
377,961	0,49
378,42	0,49
378,88	0,49
379,34	0,49
379,799	0,49
380,259	0,49
380,718	0,49
381,177	0,49
381,637	0,49
382,096	0,49
382,555	0,49
383,015	0,49
383,474	0,49
383,933	0,49
384,393	0,49
384,852	0,49
385,311	0,49
385,77	0,49
386,229	0,49
386,688	0,49
387,147	0,49
387,606	0,49
388,065	0,49
388,524	0,49
388,983	0,49
389,442	0,48
389,901	0,48
390,36	0,48
390,819	0,48
391,277	0,48
391,736	0,48
392,195	0,48
392,654	0,48
393,112	0,48
393,571	0,48
394,03	0,48
394,488	0,48
394,947	0,48
395,405	0,48
395,864	0,48
396,322	0,48
396,781	0,48
397,239	0,48
397,698	0,48
398,156	0,48
398,614	0,48
399,073	0,48
399,531	0,48
399,989	0,48
400,447	0,48
400,905	0,48
401,364	0,48
401,822	0,48
402,28	0,48
402,738	0,48
403,196	0,48
403,654	0,48
404,112	0,48
404,57	0,48
405,028	0,48
405,486	0,48
405,944	0,48
406,402	0,47
406,859	0,47
407,317	0,47
407,775	0,47
408,233	0,47
408,691	0,47
409,148	0,47
409,606	0,47
410,064	0,47
410,521	0,47
410,979	0,47
411,436	0,47
411,894	0,47
412,351	0,47
412,809	0,47
413,266	0,47
413,724	0,47
414,181	0,47
414,638	0,47
415,096	0,47
415,553	0,47
416,01	0,47
416,467	0,47
416,925	0,47
417,382	0,47
417,839	0,47
418,296	0,47
418,753	0,47
419,21	0,47
419,667	0,47
420,124	0,47
420,581	0,47
421,038	0,47
421,495	0,47
421,952	0,47
422,409	0,47
422,866	0,47
423,322	0,47
423,779	0,47
424,236	0,47
424,693	0,47
425,149	0,47
425,606	0,47
426,063	0,47
426,519	0,47
426,976	0,47
427,433	0,47
427,889	0,47
428,346	0,47
428,802	0,47
429,258	0,47
429,715	0,47
430,171	0,47
430,628	0,47
431,084	0,47
431,54	0,47
431,997	0,47
432,453	0,47
432,909	0,46
433,365	0,46
433,821	0,46
434,277	0,46
434,734	0,46
435,19	0,46
435,646	0,46
436,102	0,46
436,558	0,46
437,014	0,46
437,47	0,46
437,925	0,46
438,381	0,46
438,837	0,46
439,293	0,46
439,749	0,46
440,205	0,46
440,66	0,46
441,116	0,46
441,572	0,46
442,027	0,46
442,483	0,46
442,939	0,46
443,394	0,46
443,85	0,46
444,305	0,46
444,761	0,46
445,216	0,46
445,672	0,46
446,127	0,46
446,582	0,46
447,038	0,46
447,493	0,46
447,948	0,46
448,403	0,46
448,859	0,47
449,314	0,47
449,769	0,47
450,224	0,47
450,679	0,47
451,134	0,47
451,589	0,47
452,044	0,47
452,499	0,47
452,954	0,47
453,409	0,47
453,864	0,47
454,319	0,47
454,774	0,47
455,229	0,47
455,684	0,47
456,138	0,47
456,593	0,47
457,048	0,47
457,503	0,47
457,957	0,47
458,412	0,47
458,866	0,47
459,321	0,47
459,776	0,47
460,23	0,47
460,685	0,47
461,139	0,47
461,593	0,47
462,048	0,47
462,502	0,47
462,957	0,47
463,411	0,47
463,865	0,47
464,319	0,47
464,774	0,47
465,228	0,47
465,682	0,47
466,136	0,47
466,59	0,47
467,044	0,48
467,499	0,48
467,953	0,48
468,407	0,48
468,861	0,48
469,315	0,48
469,768	0,48
470,222	0,48
470,676	0,48
471,13	0,48
471,584	0,48
472,038	0,48
472,491	0,48
472,945	0,48
473,399	0,48
473,852	0,48
474,306	0,48
474,76	0,48
475,213	0,48
475,667	0,49
476,12	0,49
476,574	0,49
477,027	0,49
477,481	0,49
477,934	0,49
478,388	0,49
478,841	0,49
479,294	0,49
479,748	0,5
480,201	0,5
480,654	0,5
481,107	0,5
481,561	0,5
482,014	0,5
482,467	0,5
482,92	0,5
483,373	0,5
483,826	0,5
484,279	0,51
484,732	0,51
485,185	0,51
485,638	0,51
486,091	0,51
486,544	0,51
486,997	0,51
487,449	0,52
487,902	0,52
488,355	0,52
488,808	0,52
489,26	0,52
489,713	0,52
490,166	0,53
490,618	0,53
491,071	0,53
491,523	0,53
491,976	0,53
492,429	0,54
492,881	0,54
493,333	0,54
493,786	0,54
494,238	0,54
494,691	0,55
495,143	0,55
495,595	0,55
496,048	0,55
496,5	0,56
496,952	0,56
497,404	0,56
497,856	0,56
498,309	0,57
498,761	0,57
499,213	0,57
499,665	0,57
500,117	0,58
500,569	0,58
501,021	0,58
501,473	0,59
501,925	0,59
502,377	0,59
502,828	0,6
503,28	0,6
503,732	0,6
504,184	0,6
504,636	0,61
505,087	0,61
505,539	0,61
505,991	0,61
506,442	0,62
506,894	0,62
507,345	0,62
507,797	0,63
508,249	0,63
508,7	0,63
509,151	0,63
509,603	0,64
510,054	0,64
510,506	0,64
510,957	0,65
511,408	0,65
511,86	0,65
512,311	0,65
512,762	0,66
513,213	0,66
513,665	0,66
514,116	0,66
514,567	0,67
515,018	0,67
515,469	0,67
515,92	0,67
516,371	0,68
516,822	0,68
517,273	0,68
517,724	0,68
518,175	0,68
518,626	0,69
519,076	0,69
519,527	0,69
519,978	0,69
520,429	0,69
520,88	0,69
521,33	0,69
521,781	0,7
522,232	0,7
522,682	0,7
523,133	0,7
523,583	0,7
524,034	0,7
524,484	0,7
524,935	0,7
525,385	0,71
525,836	0,71
526,286	0,71
526,736	0,71
527,187	0,71
527,637	0,71
528,087	0,71
528,538	0,71
528,988	0,71
529,438	0,7
529,888	0,7
530,338	0,7
530,788	0,7
531,238	0,7
531,688	0,7
532,139	0,7
532,589	0,7
533,038	0,7
533,488	0,7
533,938	0,7
534,388	0,7
534,838	0,69
535,288	0,69
535,738	0,69
536,187	0,69
536,637	0,69
537,087	0,68
537,537	0,68
537,986	0,68
538,436	0,68
538,885	0,67
539,335	0,67
539,785	0,67
540,234	0,66
540,684	0,66
541,133	0,66
541,582	0,66
542,032	0,65
542,481	0,65
542,931	0,65
543,38	0,64
543,829	0,64
544,278	0,64
544,728	0,63
545,177	0,63
545,626	0,63
546,075	0,62
546,524	0,62
546,973	0,62
547,422	0,62
547,871	0,61
548,32	0,61
548,769	0,61
549,218	0,61
549,667	0,61
550,116	0,61
550,565	0,6
551,014	0,6
551,463	0,6
551,911	0,6
552,36	0,59
552,809	0,59
553,258	0,59
553,706	0,58
554,155	0,58
554,603	0,58
555,052	0,58
555,501	0,57
555,949	0,57
556,398	0,57
556,846	0,56
557,294	0,56
557,743	0,56
558,191	0,56
558,64	0,55
559,088	0,55
559,536	0,55
559,985	0,54
560,433	0,54
560,881	0,54
561,329	0,53
561,777	0,53
562,225	0,53
562,674	0,53
563,122	0,52
563,57	0,52
564,018	0,52
564,466	0,52
564,914	0,51
565,362	0,51
565,809	0,51
566,257	0,51
566,705	0,5
567,153	0,5
567,601	0,5
568,048	0,49
568,496	0,49
568,944	0,49
569,392	0,49
569,839	0,49
570,287	0,48
570,734	0,48
571,182	0,48
571,63	0,48
572,077	0,47
572,525	0,47
572,972	0,47
573,419	0,47
573,867	0,46
574,314	0,46
574,761	0,46
575,209	0,46
575,656	0,46
576,103	0,45
576,551	0,45
576,998	0,45
577,445	0,45
577,892	0,45
578,339	0,45
578,786	0,44
579,233	0,44
579,68	0,44
580,127	0,44
580,574	0,44
581,021	0,44
581,468	0,43
581,915	0,43
582,362	0,43
582,809	0,43
583,255	0,43
583,702	0,43
584,149	0,43
584,596	0,42
585,042	0,42
585,489	0,42
585,936	0,42
586,382	0,42
586,829	0,42
587,275	0,42
587,722	0,41
588,168	0,41
588,615	0,41
589,061	0,41
589,508	0,41
589,954	0,41
590,4	0,41
590,847	0,4
591,293	0,4
591,739	0,4
592,185	0,4
592,632	0,4
593,078	0,4
593,524	0,4
593,97	0,4
594,416	0,4
594,862	0,4
595,308	0,4
595,754	0,39
596,2	0,39
596,646	0,39
597,092	0,39
597,538	0,39
597,984	0,39
598,43	0,39
598,876	0,39
599,321	0,39
599,767	0,38
600,213	0,38
600,659	0,38
601,104	0,38
601,55	0,38
601,995	0,38
602,441	0,38
602,887	0,38
603,332	0,38
603,778	0,38
604,223	0,38
604,668	0,38
605,114	0,37
605,559	0,37
606,005	0,37
606,45	0,37
606,895	0,37
607,341	0,37
607,786	0,37
608,231	0,37
608,676	0,37
609,121	0,36
609,566	0,36
610,012	0,36
610,457	0,35
610,902	0,35
611,347	0,35
611,792	0,35
612,237	0,35
612,682	0,35
613,127	0,35
613,571	0,35
614,016	0,35
614,461	0,35
614,906	0,35
615,351	0,35
615,795	0,35
616,24	0,35
616,685	0,35
617,129	0,35
617,574	0,35
618,019	0,35
618,463	0,35
618,908	0,35
619,352	0,35
619,797	0,35
620,241	0,35
620,686	0,35
621,13	0,35
621,574	0,35
622,019	0,35
622,463	0,35
622,907	0,35
623,352	0,35
623,796	0,35
624,24	0,35
624,684	0,35
625,128	0,35
625,572	0,35
626,016	0,35
626,461	0,35
626,905	0,34
627,349	0,34
627,793	0,34
628,236	0,34
628,68	0,34
629,124	0,34
629,568	0,34
630,012	0,34
630,456	0,34
630,9	0,34
631,343	0,34
631,787	0,34
632,231	0,34
632,674	0,34
633,118	0,34
633,562	0,34
634,005	0,34
634,449	0,34
634,892	0,34
635,336	0,34
635,779	0,34
636,223	0,34
636,666	0,34
637,109	0,34
637,553	0,34
637,996	0,34
638,439	0,34
638,883	0,34
639,326	0,34
639,769	0,34
640,212	0,33
640,655	0,33
641,099	0,33
641,542	0,33
641,985	0,33
642,428	0,33
642,871	0,33
643,314	0,33
643,757	0,33
644,2	0,33
644,643	0,33
645,085	0,33
645,528	0,33
645,971	0,33
646,414	0,33
646,857	0,33
647,299	0,33
647,742	0,33
648,185	0,33
648,627	0,33
649,07	0,33
649,513	0,33
649,955	0,33
650,398	0,33
650,84	0,33
651,283	0,33
651,725	0,33
652,168	0,33
652,61	0,33
653,052	0,33
653,495	0,32
653,937	0,25
654,379	0,2
654,821	0,21
655,264	0,21
655,706	0,21
656,148	0,21
656,59	0,21
657,032	0,21
657,474	0,21
657,916	0,21
658,358	0,2
658,8	0,25
659,242	0,32
659,684	0,32
660,126	0,32
660,568	0,32
661,01	0,32
661,452	0,32
661,894	0,32
662,335	0,32
662,777	0,32
663,219	0,32
663,661	0,32
664,102	0,32
664,544	0,32
664,985	0,32
665,427	0,32
665,869	0,32
666,31	0,32
666,752	0,32
667,193	0,32
667,634	0,32
668,076	0,32
668,517	0,32
668,959	0,32
669,4	0,32
669,841	0,32
670,282	0,32
670,724	0,32
671,165	0,32
671,606	0,32
672,047	0,32
672,488	0,32
672,929	0,32
673,37	0,32
673,811	0,32
674,252	0,32
674,693	0,32
675,134	0,32
675,575	0,32
676,016	0,32
676,457	0,31
676,898	0,31
677,339	0,31
677,78	0,31
678,22	0,31
678,661	0,31
679,102	0,31
679,542	0,31
679,983	0,31
680,424	0,31
680,864	0,31
681,305	0,31
681,745	0,31
682,186	0,31
682,626	0,32
683,067	0,31
683,507	0,31
683,948	0,31
684,388	0,31
684,828	0,31
685,269	0,31
685,709	0,31
686,149	0,31
686,589	0,31
687,029	0,31
687,47	0,31
687,91	0,31
688,35	0,31
688,79	0,3
689,23	0,3
689,67	0,3
690,11	0,3
690,55	0,3
690,99	0,3
691,43	0,3
691,87	0,3
692,31	0,3
692,749	0,3
693,189	0,3
693,629	0,3
694,069	0,3
694,508	0,3
694,948	0,3
695,388	0,3
695,827	0,3
696,267	0,3
696,706	0,3
697,146	0,3
697,586	0,3
698,025	0,31
698,464	0,31
698,904	0,31
699,343	0,31
699,783	0,31
700,222	0,31
700,661	0,31
701,101	0,31
701,54	0,31
701,979	0,31
702,418	0,31
702,857	0,3
703,297	0,3
703,736	0,3
704,175	0,3
704,614	0,3
705,053	0,3
705,492	0,3
705,931	0,3
706,37	0,3
706,809	0,3
707,248	0,3
707,687	0,3
708,125	0,3
708,564	0,3
709,003	0,3
709,442	0,3
709,88	0,3
710,319	0,3
710,758	0,3
711,196	0,3
711,635	0,29
712,074	0,29
712,512	0,29
712,951	0,29
713,389	0,29
713,828	0,29
714,266	0,29
714,705	0,29
715,143	0,29
715,581	0,29
716,02	0,29
716,458	0,29
716,896	0,29
717,334	0,29
717,773	0,29
718,211	0,29
718,649	0,29
719,087	0,29
719,525	0,29
719,963	0,29
720,401	0,29
720,839	0,29
721,277	0,29
721,715	0,29
722,153	0,29
722,591	0,29
723,029	0,29
723,467	0,29
723,905	0,29
724,342	0,29
724,78	0,29
725,218	0,29
725,656	0,29
726,093	0,29
726,531	0,29
726,969	0,29
727,406	0,29
727,844	0,29
728,281	0,29
728,719	0,29
729,156	0,29
729,594	0,29
730,031	0,29
730,469	0,29
730,906	0,28
731,343	0,28
731,781	0,28
732,218	0,28
732,655	0,28
733,092	0,28
733,53	0,28
733,967	0,28
734,404	0,28
734,841	0,28
735,278	0,28
735,715	0,28
736,152	0,28
736,589	0,28
737,026	0,28
737,463	0,28
737,9	0,28
738,337	0,28
738,774	0,28
739,211	0,28
739,647	0,28
740,084	0,28
740,521	0,28
740,958	0,28
741,394	0,28
741,831	0,27
742,268	0,27
742,704	0,27
743,141	0,27
743,577	0,27
744,014	0,27
744,45	0,27
744,887	0,27
745,323	0,27
745,76	0,26
746,196	0,26
746,632	0,26
747,069	0,26
747,505	0,26
747,941	0,26
748,378	0,26
748,814	0,26
749,25	0,27
749,686	0,27
750,122	0,27
750,558	0,27
750,994	0,27
751,43	0,27
751,866	0,28
752,302	0,28
752,738	0,28
753,174	0,28
753,61	0,28
754,046	0,28
754,482	0,28
754,918	0,28
755,354	0,28
755,789	0,28
756,225	0,28
756,661	0,28
757,096	0,28
757,532	0,28
757,968	0,28
758,403	0,27
758,839	0,27
759,274	0,27
759,71	0,27
760,145	0,26
760,581	0,26
761,016	0,26
761,452	0,25
761,887	0,25
762,322	0,25
762,758	0,24
763,193	0,24
763,628	0,24
764,063	0,23
764,499	0,23
764,934	0,22
765,369	0,22
765,804	0,21
766,239	0,21
766,674	0,2
767,109	0,2
767,544	0,19
767,979	0,18
768,414	0,18
768,849	0,17
769,284	0,16
769,719	0,15
770,154	0,15
770,588	0,14
771,023	0,13
771,458	0,12
771,893	0,11
772,327	0,1
772,762	0,09
773,197	0,09
773,631	0,08
774,066	0,08
774,5	0,07
774,935	0,06
775,369	0,05
775,804	0,04
776,238	0,04
776,673	0,03
777,107	0,02
777,541	0,01
777,976	0
778,41	-0
778,844	-0,01
779,279	-0,02
779,713	-0,02
780,147	-0,03
780,581	-0,03
781,015	-0,04
781,449	-0,05
781,883	-0,05
782,317	-0,07
782,751	-0,07
783,185	-0,08
783,619	-0,09
784,053	-0,1
784,487	-0,11
784,921	-0,11
785,355	-0,12
785,789	-0,13
786,223	-0,14
786,656	-0,15
787,09	-0,16
787,524	-0,16
787,957	-0,18
788,391	-0,2
788,825	-0,21
789,258	-0,23
789,692	-0,25
790,125	-0,26
790,559	-0,28
790,992	-0,29
791,426	-0,32
791,859	-0,33
792,293	-0,36
792,726	-0,36
793,159	-0,38
793,593	-0,4
794,026	-0,42
794,459	-0,45
794,892	-0,47
795,326	-0,5
795,759	-0,53
796,192	-0,57
796,625	-0,62
797,058	-0,64
797,491	-0,68
797,924	-0,72
798,357	-0,77
798,79	-0,81
799,223	-0,85
799,656	-0,91
800,089	-0,95
800,522	-1
800,955	-1,04
801,387	-1,1
801,82	-1,15
802,253	-1,21
802,686	-1,29
803,118	-1,35
803,551	-1,4
803,984	-1,44
804,416	-1,48
804,849	-1,51
805,281	-1,64
805,714	-1,99
806,146	-2,43
806,579	-2,69
807,011	-2,86
807,444	-2,96
807,876	-3,05
808,308	-3,09
808,741	-3,12
809,173	-3,17
809,605	-3,19
810,037	-3,27
810,47	-3,19
810,902	-3
811,334	-2,85
811,766	-2,71
812,198	-2,49
812,63	-2,06
813,062	-1,81
813,494	-1,71
813,926	-1,62
814,358	-1,56
814,79	-1,48
815,222	-1,42
815,654	-1,37
816,086	-1,31
816,518	-1,25
816,949	-1,2
817,381	-1,16
817,813	-1,14
818,245	-1,1
818,676	-1,06
819,108	-1,03
819,54	-1,01
819,971	-0,99
820,403	-0,94
820,834	-0,93
821,266	-0,88
821,697	-0,86
822,129	-0,85
822,56	-0,82
822,991	-0,79
823,423	-0,76
823,854	-0,75
824,286	-0,72
824,717	-0,71
825,148	-0,69
825,579	-0,68
826,01	-0,67
826,442	-0,66
826,873	-0,64
827,304	-0,6
827,735	-0,6
828,166	-0,6
828,597	-0,6
829,028	-0,6
829,459	-0,61
829,89	-0,61
830,321	-0,56
830,752	-0,57
831,183	-0,56
831,613	-0,55
832,044	-0,55
832,475	-0,55
832,906	-0,57
833,336	-0,56
833,767	-0,57
834,198	-0,56
834,628	-0,54
835,059	-0,56
835,49	-0,57
835,92	-0,53
836,351	-0,54
836,781	-0,54
837,212	-0,55
837,642	-0,55
838,072	-0,53
838,503	-0,55
838,933	-0,52
839,364	-0,53
839,794	-0,52
840,224	-0,51
840,654	-0,56
841,085	-0,56
841,515	-0,53
841,945	-0,54
842,375	-0,5
842,805	-0,48
843,235	-0,47
843,665	-0,49
844,095	-0,47
844,525	-0,49
844,955	-0,5
845,385	-0,48
845,815	-0,46
846,245	-0,48
846,675	-0,48
847,105	-0,49
847,534	-0,49
847,964	-0,47
848,394	-0,46
848,824	-0,49
849,253	-0,48
849,683	-0,48
850,112	-0,49
850,542	-0,53
850,972	-0,53
851,401	-0,51
851,831	-0,5
852,26	-0,51
852,69	-0,54
853,119	-0,53
853,548	-0,53
853,978	-0,53
854,407	-0,52
854,836	-0,52
855,266	-0,52
855,695	-0,53
856,124	-0,54
856,553	-0,55
856,983	-0,57
857,412	-0,56
857,841	-0,58
858,27	-0,58
858,699	-0,59
859,128	-0,63
859,557	-0,63
859,986	-0,63
860,415	-0,61
860,844	-0,58
861,273	-0,59
861,702	-0,59
862,13	-0,57
862,559	-0,6
862,988	-0,56
863,417	-0,55
863,845	-0,55
864,274	-0,56
864,703	-0,56
865,131	-0,57
865,56	-0,58
865,989	-0,61
866,417	-0,58
866,846	-0,58
867,274	-0,58
867,703	-0,6
868,131	-0,61
868,559	-0,61
868,988	-0,63
869,416	-0,62
869,844	-0,62
870,273	-0,65
870,701	-0,63
871,129	-0,67
871,557	-0,69
871,986	-0,68
872,414	-0,69
872,842	-0,66
873,27	-0,64
873,698	-0,6
874,126	-0,64
874,554	-0,63
874,982	-0,63
875,41	-0,65
875,838	-0,61
876,266	-0,59
876,694	-0,59
877,122	-0,58
877,549	-0,64
877,977	-0,62
878,405	-0,64
878,833	-0,61
879,26	-0,59
879,688	-0,58
880,116	-0,55
880,543	-0,53
880,971	-0,53
881,399	-0,56
881,826	-0,57
882,254	-0,55
882,681	-0,58
883,109	-0,54
883,536	-0,56
883,963	-0,58
884,391	-0,57
884,818	-0,56
885,245	-0,6
885,673	-0,6
886,1	-0,58
886,527	-0,57
886,954	-0,54
887,381	-0,56
887,809	-0,57
888,236	-0,58
888,663	-0,58
889,09	-0,61
889,517	-0,64
889,944	-0,63
890,371	-0,63
890,798	-0,63
891,225	-0,63
891,652	-0,66
892,078	-0,63
892,505	-0,65
892,932	-0,61
893,359	-0,63
893,786	-0,63
894,212	-0,6
894,639	-0,61
895,066	-0,63
895,492	-0,58
895,919	-0,58
896,346	-0,58
896,772	-0,57
897,199	-0,55
897,625	-0,58
898,052	-0,54
898,478	-0,51
898,904	-0,52
899,331	-0,51
899,757	-0,53
900,183	-0,56
900,61	-0,54
901,036	-0,55
901,462	-0,55
901,888	-0,54
902,315	-0,52
902,741	-0,58
903,167	-0,57
903,593	-0,6
904,019	-0,58
904,445	-0,56
904,871	-0,59
905,297	-0,6
905,723	-0,59
906,149	-0,58
906,575	-0,59
907,001	-0,59
907,427	-0,55
907,852	-0,55
908,278	-0,56
908,704	-0,53
909,13	-0,52
909,555	-0,5
909,981	-0,5
910,407	-0,51
910,832	-0,51
911,258	-0,51
911,684	-0,51
912,109	-0,52
912,535	-0,54
912,96	-0,49
913,386	-0,53
913,811	-0,54
914,236	-0,56
914,662	-0,54
915,087	-0,57
915,512	-0,57
915,938	-0,59
916,363	-0,59
916,788	-0,6
917,213	-0,58
917,639	-0,63
918,064	-0,61
918,489	-0,61
918,914	-0,61
919,339	-0,62
919,764	-0,59
920,189	-0,59
920,614	-0,62
921,039	-0,62
921,464	-0,58
921,889	-0,62
922,314	-0,62
922,738	-0,65
923,163	-0,66
923,588	-0,66
924,013	-0,66
924,437	-0,65
924,862	-0,66
925,287	-0,61
925,711	-0,62
926,136	-0,63
926,561	-0,6
926,985	-0,6
927,41	-0,57
927,834	-0,55
928,259	-0,52
928,683	-0,49
929,108	-0,47
929,532	-0,48
929,956	-0,48
930,381	-0,47
930,805	-0,48
931,229	-0,47
931,653	-0,46
932,078	-0,46
932,502	-0,47
932,926	-0,47
933,35	-0,48
933,774	-0,47
934,198	-0,45
934,622	-0,43
935,046	-0,43
935,47	-0,43
935,894	-0,43
936,318	-0,42
936,742	-0,42
937,166	-0,43
937,59	-0,43
938,014	-0,46
938,437	-0,47
938,861	-0,49
939,285	-0,49
939,709	-0,48
940,132	-0,49
940,556	-0,49
940,98	-0,49
941,403	-0,47
941,827	-0,47
942,25	-0,48
942,674	-0,47
943,097	-0,46
943,521	-0,46
943,944	-0,47
944,368	-0,47
944,791	-0,45
945,214	-0,48
945,638	-0,48
946,061	-0,51
946,484	-0,52
946,907	-0,51
947,331	-0,51
947,754	-0,55
948,177	-0,53
948,6	-0,53
949,023	-0,52
949,446	-0,52
949,869	-0,5
950,292	-0,51
950,715	-0,47
951,138	-0,45
951,561	-0,43
951,984	-0,42
952,407	-0,41
952,83	-0,4
953,252	-0,36
953,675	-0,37
954,098	-0,38
954,521	-0,36
954,943	-0,36
955,366	-0,37
955,789	-0,36
956,211	-0,37
956,634	-0,38
957,056	-0,36
957,479	-0,37
957,902	-0,39
958,324	-0,38
958,746	-0,37
959,169	-0,38
959,591	-0,39
960,014	-0,4
960,436	-0,39
960,858	-0,4
961,281	-0,4
961,703	-0,41
962,125	-0,4
962,547	-0,38
962,969	-0,39
963,391	-0,39
963,814	-0,4
964,236	-0,38
964,658	-0,36
965,08	-0,36
965,502	-0,35
965,924	-0,33
966,346	-0,32
966,768	-0,32
967,189	-0,35
967,611	-0,33
968,033	-0,33
968,455	-0,31
968,877	-0,32
969,298	-0,33
969,72	-0,34
970,142	-0,34
970,563	-0,35
970,985	-0,34
971,407	-0,33
971,828	-0,31
972,25	-0,31
972,671	-0,3
973,093	-0,29
973,514	-0,28
973,936	-0,26
974,357	-0,25
974,778	-0,25
975,2	-0,24
975,621	-0,23
976,042	-0,21
976,464	-0,2
976,885	-0,19
977,306	-0,18
977,727	-0,18
978,148	-0,17
978,57	-0,16
978,991	-0,14
979,412	-0,13
979,833	-0,12
980,254	-0,12
980,675	-0,13
981,096	-0,12
981,517	-0,1
981,937	-0,1
982,358	-0,08
982,779	-0,07
983,2	-0,07
983,621	-0,07
984,042	-0,06
984,462	-0,05
984,883	-0,04
985,304	-0,03
985,724	-0,02
986,145	-0,02
986,565	-0
986,986	0
987,407	0,01
987,827	0,02
988,248	0,03
988,668	0,05
989,088	0,06
989,509	0,07
989,929	0,08
990,35	0,09
990,77	0,1
991,19	0,1
991,61	0,11
992,031	0,12
992,451	0,12
992,871	0,13
993,291	0,13
993,711	0,14
994,131	0,14
994,551	0,15
994,971	0,15
995,391	0,16
995,811	0,16
996,231	0,16
996,651	0,17
997,071	0,18
997,491	0,18
997,911	0,19
998,331	0,19
998,75	0,2
999,17	0,2
999,59	0,2
1000,009	0,21
1000,429	0,21
1000,849	0,21
1001,268	0,22
1001,688	0,22
1002,107	0,22
1002,527	0,22
1002,946	0,22
1003,366	0,23
1003,785	0,23
1004,205	0,23
1004,624	0,23
1005,044	0,23
1005,463	0,23
1005,882	0,24
1006,301	0,24
1006,721	0,24
1007,14	0,24
1007,559	0,24
1007,978	0,24
1008,397	0,24
1008,816	0,24
1009,235	0,24
1009,655	0,24
1010,074	0,24
1010,492	0,24
1010,911	0,23
1011,33	0,23
1011,749	0,23
1012,168	0,23
1012,587	0,23
1013,006	0,23
1013,425	0,23
1013,843	0,23
1014,262	0,23
1014,681	0,23
1015,099	0,23
1015,518	0,23
1015,937	0,23
1016,355	0,23
1016,774	0,23
1017,192	0,23
1017,611	0,23
1018,029	0,23
1018,448	0,23
1018,866	0,23
1019,285	0,23
1019,703	0,23
1020,121	0,23
1020,54	0,23
1020,958	0,23
1021,376	0,23
1021,794	0,23
1022,213	0,23
1022,631	0,23
1023,049	0,23
1023,467	0,23
1023,885	0,23
1024,303	0,23
1024,721	0,23
1025,139	0,23
1025,557	0,23
1025,975	0,23
1026,393	0,23
1026,811	0,23
1027,229	0,23
1027,647	0,23
1028,065	0,23
1028,482	0,23
1028,9	0,23
1029,318	0,23
1029,735	0,22
1030,153	0,22
1030,571	0,22
1030,988	0,22
1031,406	0,22
1031,823	0,22
1032,241	0,22
1032,659	0,22
1033,076	0,22
1033,493	0,22
1033,911	0,22
1034,328	0,22
1034,746	0,22
1035,163	0,22
1035,58	0,22
1035,997	0,22
1036,415	0,22
1036,832	0,22
1037,249	0,22
1037,666	0,22
1038,083	0,22
1038,501	0,22
1038,918	0,22
1039,335	0,22
1039,752	0,22
1040,169	0,22
1040,586	0,22
1041,003	0,22
1041,419	0,22
1041,836	0,22
1042,253	0,22
1042,67	0,22
1043,087	0,22
1043,504	0,22
1043,92	0,22
1044,337	0,22
1044,754	0,22
1045,17	0,21
1045,587	0,21
1046,004	0,21
1046,42	0,21
1046,837	0,21
1047,253	0,21
1047,67	0,21
1048,086	0,21
1048,503	0,21
1048,919	0,21
1049,335	0,21
1049,752	0,21
1050,168	0,21
1050,584	0,21
1051,001	0,21
1051,417	0,21
1051,833	0,21
1052,249	0,21
1052,665	0,21
1053,081	0,21
1053,497	0,21
1053,914	0,21
1054,33	0,21
1054,746	0,22
1055,162	0,22
1055,578	0,22
1055,993	0,22
1056,409	0,22
1056,825	0,22
1057,241	0,22
1057,657	0,22
1058,073	0,22
1058,488	0,22
1058,904	0,22
1059,32	0,22
1059,736	0,22
1060,151	0,22
1060,567	0,22
1060,982	0,22
1061,398	0,22
1061,813	0,22
1062,229	0,22
1062,644	0,22
1063,06	0,22
1063,475	0,22
1063,891	0,22
1064,306	0,22
1064,721	0,22
1065,137	0,22
1065,552	0,21
1065,967	0,21
1066,382	0,21
1066,798	0,21
1067,213	0,22
1067,628	0,22
1068,043	0,22
1068,458	0,22
1068,873	0,22
1069,288	0,22
1069,703	0,22
1070,118	0,22
1070,533	0,22
1070,948	0,22
1071,363	0,22
1071,778	0,22
1072,193	0,22
1072,607	0,22
1073,022	0,22
1073,437	0,22
1073,852	0,22
1074,266	0,23
1074,681	0,23
1075,096	0,22
1075,51	0,22
1075,925	0,22
1076,339	0,22
1076,754	0,22
1077,168	0,22
1077,583	0,22
1077,997	0,22
1078,412	0,22
1078,826	0,22
1079,24	0,22
1079,655	0,22
1080,069	0,22
1080,483	0,22
1080,897	0,22
1081,312	0,22
1081,726	0,22
1082,14	0,21
1082,554	0,21
1082,968	0,21
1083,382	0,21
1083,796	0,21
1084,21	0,21
1084,624	0,21
1085,038	0,21
1085,452	0,21
1085,866	0,21
1086,28	0,2
1086,694	0,2
1087,108	0,2
1087,521	0,2
1087,935	0,2
1088,349	0,2
1088,763	0,2
1089,176	0,2
1089,59	0,2
1090,004	0,2
1090,417	0,19
1090,831	0,19
1091,244	0,19
1091,658	0,19
1092,071	0,19
1092,485	0,18
1092,898	0,18
1093,312	0,18
1093,725	0,18
1094,138	0,18
1094,552	0,18
1094,965	0,18
1095,378	0,18
1095,791	0,18
1096,205	0,17
1096,618	0,17
1097,031	0,17
1097,444	0,17
1097,857	0,17
1098,27	0,16
1098,683	0,16
1099,096	0,16
1099,509	0,16
1099,922	0,16
1100,335	0,15
1100,748	0,15
1101,161	0,14
1101,574	0,14
1101,986	0,14
1102,399	0,14
1102,812	0,14
1103,225	0,13
1103,637	0,13
1104,05	0,13
1104,463	0,13
1104,875	0,12
1105,288	0,12
1105,7	0,12
1106,113	0,12
1106,525	0,12
1106,938	0,11
1107,35	0,11
1107,763	0,11
1108,175	0,1
1108,588	0,1
1109	0,09
1109,412	0,09
1109,824	0,09
1110,237	0,09
1110,649	0,08
1111,061	0,07
