Data from 18C-808nm-8A_Absorbance__1080__01080.txt Node

Date: Mon Jul 17 17:01:23 CEST 2023
User: Laser008
Spectrometer: MAYP115816
Trigger mode: 0
Integration Time (sec): 2,500000E-1
Scans to average: 10
Electric dark correction enabled: true
Nonlinearity correction enabled: true
Boxcar width: 5
XAxis mode: Wavelengths
Number of Pixels in Spectrum: 2068
>>>>>Begin Spectral Data<<<<<
198,914	-0,62
199,384	-0,44
199,855	-0,33
200,325	-0,26
200,796	-0,24
201,266	-0,19
201,737	-0,18
202,207	-0,18
202,677	-0,18
203,147	-0,17
203,618	-0,14
204,088	-0,12
204,558	-0,11
205,028	-0,11
205,498	-0,12
205,968	-0,12
206,439	-0,14
206,909	-0,14
207,379	-0,14
207,849	-0,13
208,319	-0,14
208,789	-0,15
209,258	-0,14
209,728	-0,15
210,198	-0,14
210,668	-0,14
211,138	-0,14
211,608	-0,13
212,077	-0,13
212,547	-0,13
213,017	-0,13
213,486	-0,13
213,956	-0,14
214,426	-0,14
214,895	-0,13
215,365	-0,15
215,834	-0,14
216,304	-0,14
216,773	-0,15
217,243	-0,16
217,712	-0,17
218,181	-0,17
218,651	-0,17
219,12	-0,17
219,589	-0,17
220,058	-0,17
220,528	-0,18
220,997	-0,19
221,466	-0,21
221,935	-0,21
222,404	-0,2
222,873	-0,19
223,342	-0,19
223,812	-0,18
224,281	-0,19
224,749	-0,19
225,218	-0,2
225,687	-0,2
226,156	-0,18
226,625	-0,16
227,094	-0,16
227,563	-0,16
228,031	-0,18
228,5	-0,18
228,969	-0,19
229,438	-0,18
229,906	-0,16
230,375	-0,16
230,844	-0,16
231,312	-0,16
231,781	-0,17
232,249	-0,16
232,718	-0,17
233,186	-0,15
233,655	-0,16
234,123	-0,15
234,591	-0,16
235,06	-0,16
235,528	-0,16
235,996	-0,15
236,465	-0,14
236,933	-0,13
237,401	-0,14
237,869	-0,13
238,337	-0,14
238,805	-0,12
239,274	-0,12
239,742	-0,12
240,21	-0,12
240,678	-0,11
241,146	-0,11
241,614	-0,1
242,081	-0,1
242,549	-0,1
243,017	-0,11
243,485	-0,1
243,953	-0,1
244,421	-0,1
244,888	-0,1
245,356	-0,1
245,824	-0,1
246,291	-0,11
246,759	-0,12
247,227	-0,12
247,694	-0,11
248,162	-0,1
248,629	-0,1
249,097	-0,1
249,564	-0,12
250,032	-0,12
250,499	-0,13
250,967	-0,12
251,434	-0,13
251,901	-0,13
252,369	-0,13
252,836	-0,15
253,303	-0,16
253,77	-0,17
254,237	-0,17
254,705	-0,16
255,172	-0,16
255,639	-0,17
256,106	-0,2
256,573	-0,19
257,04	-0,19
257,507	-0,19
257,974	-0,19
258,441	-0,17
258,908	-0,18
259,375	-0,19
259,841	-0,2
260,308	-0,2
260,775	-0,19
261,242	-0,17
261,709	-0,18
262,175	-0,2
262,642	-0,19
263,109	-0,19
263,575	-0,2
264,042	-0,19
264,508	-0,19
264,975	-0,2
265,441	-0,2
265,908	-0,21
266,374	-0,2
266,841	-0,2
267,307	-0,19
267,773	-0,19
268,24	-0,19
268,706	-0,19
269,172	-0,2
269,639	-0,2
270,105	-0,2
270,571	-0,21
271,037	-0,21
271,503	-0,21
271,969	-0,21
272,435	-0,21
272,902	-0,23
273,368	-0,24
273,834	-0,24
274,3	-0,25
274,765	-0,26
275,231	-0,25
275,697	-0,24
276,163	-0,23
276,629	-0,23
277,095	-0,23
277,56	-0,22
278,026	-0,23
278,492	-0,2
278,958	-0,21
279,423	-0,21
279,889	-0,19
280,354	-0,2
280,82	-0,2
281,286	-0,22
281,751	-0,23
282,217	-0,22
282,682	-0,21
283,147	-0,21
283,613	-0,22
284,078	-0,22
284,544	-0,23
285,009	-0,23
285,474	-0,23
285,939	-0,24
286,405	-0,23
286,87	-0,23
287,335	-0,22
287,8	-0,23
288,265	-0,22
288,73	-0,22
289,195	-0,24
289,66	-0,24
290,125	-0,23
290,59	-0,23
291,055	-0,22
291,52	-0,22
291,985	-0,23
292,45	-0,25
292,915	-0,25
293,38	-0,24
293,844	-0,23
294,309	-0,22
294,774	-0,21
295,239	-0,22
295,703	-0,23
296,168	-0,22
296,632	-0,21
297,097	-0,19
297,562	-0,17
298,026	-0,18
298,491	-0,19
298,955	-0,18
299,419	-0,17
299,884	-0,17
300,348	-0,17
300,813	-0,16
301,277	-0,17
301,741	-0,17
302,205	-0,17
302,67	-0,17
303,134	-0,17
303,598	-0,16
304,062	-0,16
304,526	-0,15
304,99	-0,16
305,454	-0,15
305,919	-0,15
306,383	-0,14
306,847	-0,14
307,31	-0,15
307,774	-0,15
308,238	-0,15
308,702	-0,14
309,166	-0,17
309,63	-0,17
310,094	-0,15
310,557	-0,14
311,021	-0,14
311,485	-0,15
311,948	-0,14
312,412	-0,14
312,876	-0,13
313,339	-0,13
313,803	-0,14
314,266	-0,13
314,73	-0,13
315,193	-0,13
315,657	-0,13
316,12	-0,13
316,584	-0,11
317,047	-0,11
317,51	-0,1
317,973	-0,09
318,437	-0,08
318,9	-0,07
319,363	-0,07
319,826	-0,06
320,29	-0,06
320,753	-0,06
321,216	-0,07
321,679	-0,06
322,142	-0,06
322,605	-0,07
323,068	-0,08
323,531	-0,08
323,994	-0,08
324,457	-0,07
324,92	-0,07
325,382	-0,07
325,845	-0,06
326,308	-0,05
326,771	-0,05
327,233	-0,05
327,696	-0,04
328,159	-0,04
328,622	-0,03
329,084	-0,04
329,547	-0,03
330,009	-0,03
330,472	-0,02
330,934	-0,01
331,397	-0,01
331,859	-0,01
332,322	-0
332,784	0
333,246	0,01
333,709	0,01
334,171	0,02
334,633	0,02
335,096	0,02
335,558	0,02
336,02	0,02
336,482	0,02
336,944	0,03
337,406	0,04
337,868	0,04
338,331	0,04
338,793	0,05
339,255	0,05
339,717	0,06
340,178	0,06
340,64	0,07
341,102	0,07
341,564	0,08
342,026	0,09
342,488	0,1
342,949	0,11
343,411	0,13
343,873	0,15
344,335	0,17
344,796	0,19
345,258	0,23
345,719	0,25
346,181	0,28
346,643	0,3
347,104	0,32
347,566	0,34
348,027	0,35
348,488	0,36
348,95	0,37
349,411	0,38
349,873	0,39
350,334	0,4
350,795	0,41
351,256	0,42
351,718	0,42
352,179	0,42
352,64	0,43
353,101	0,43
353,562	0,43
354,023	0,43
354,484	0,43
354,945	0,43
355,406	0,43
355,867	0,43
356,328	0,44
356,789	0,44
357,25	0,44
357,711	0,44
358,172	0,44
358,633	0,44
359,093	0,44
359,554	0,44
360,015	0,44
360,476	0,44
360,936	0,44
361,397	0,44
361,858	0,44
362,318	0,44
362,779	0,44
363,239	0,44
363,7	0,44
364,16	0,45
364,621	0,45
365,081	0,45
365,541	0,45
366,002	0,45
366,462	0,45
366,922	0,45
367,383	0,44
367,843	0,44
368,303	0,44
368,763	0,44
369,223	0,44
369,684	0,44
370,144	0,44
370,604	0,45
371,064	0,45
371,524	0,45
371,984	0,45
372,444	0,45
372,904	0,44
373,363	0,44
373,823	0,44
374,283	0,44
374,743	0,44
375,203	0,44
375,663	0,44
376,122	0,44
376,582	0,44
377,042	0,44
377,501	0,44
377,961	0,44
378,42	0,44
378,88	0,44
379,34	0,44
379,799	0,44
380,259	0,44
380,718	0,44
381,177	0,44
381,637	0,44
382,096	0,44
382,555	0,44
383,015	0,44
383,474	0,44
383,933	0,44
384,393	0,44
384,852	0,44
385,311	0,44
385,77	0,44
386,229	0,44
386,688	0,44
387,147	0,44
387,606	0,44
388,065	0,44
388,524	0,43
388,983	0,43
389,442	0,43
389,901	0,43
390,36	0,43
390,819	0,43
391,277	0,43
391,736	0,43
392,195	0,43
392,654	0,43
393,112	0,43
393,571	0,43
394,03	0,43
394,488	0,43
394,947	0,43
395,405	0,43
395,864	0,43
396,322	0,43
396,781	0,43
397,239	0,43
397,698	0,43
398,156	0,43
398,614	0,43
399,073	0,43
399,531	0,43
399,989	0,43
400,447	0,43
400,905	0,43
401,364	0,43
401,822	0,43
402,28	0,43
402,738	0,43
403,196	0,43
403,654	0,43
404,112	0,43
404,57	0,43
405,028	0,43
405,486	0,43
405,944	0,43
406,402	0,43
406,859	0,43
407,317	0,43
407,775	0,43
408,233	0,43
408,691	0,43
409,148	0,43
409,606	0,43
410,064	0,43
410,521	0,43
410,979	0,43
411,436	0,42
411,894	0,42
412,351	0,42
412,809	0,42
413,266	0,42
413,724	0,42
414,181	0,42
414,638	0,42
415,096	0,42
415,553	0,42
416,01	0,42
416,467	0,42
416,925	0,42
417,382	0,42
417,839	0,42
418,296	0,42
418,753	0,42
419,21	0,42
419,667	0,42
420,124	0,42
420,581	0,42
421,038	0,42
421,495	0,42
421,952	0,42
422,409	0,42
422,866	0,42
423,322	0,42
423,779	0,42
424,236	0,42
424,693	0,42
425,149	0,42
425,606	0,42
426,063	0,42
426,519	0,42
426,976	0,42
427,433	0,42
427,889	0,42
428,346	0,42
428,802	0,42
429,258	0,42
429,715	0,42
430,171	0,42
430,628	0,42
431,084	0,42
431,54	0,42
431,997	0,42
432,453	0,42
432,909	0,42
433,365	0,42
433,821	0,42
434,277	0,41
434,734	0,41
435,19	0,41
435,646	0,41
436,102	0,41
436,558	0,41
437,014	0,41
437,47	0,42
437,925	0,42
438,381	0,42
438,837	0,42
439,293	0,42
439,749	0,42
440,205	0,42
440,66	0,42
441,116	0,42
441,572	0,42
442,027	0,42
442,483	0,42
442,939	0,42
443,394	0,42
443,85	0,42
444,305	0,42
444,761	0,42
445,216	0,42
445,672	0,42
446,127	0,42
446,582	0,42
447,038	0,42
447,493	0,42
447,948	0,42
448,403	0,42
448,859	0,42
449,314	0,42
449,769	0,42
450,224	0,42
450,679	0,42
451,134	0,42
451,589	0,42
452,044	0,42
452,499	0,42
452,954	0,42
453,409	0,42
453,864	0,42
454,319	0,42
454,774	0,42
455,229	0,42
455,684	0,42
456,138	0,42
456,593	0,42
457,048	0,42
457,503	0,42
457,957	0,42
458,412	0,42
458,866	0,42
459,321	0,42
459,776	0,42
460,23	0,42
460,685	0,42
461,139	0,42
461,593	0,42
462,048	0,42
462,502	0,42
462,957	0,42
463,411	0,42
463,865	0,42
464,319	0,42
464,774	0,42
465,228	0,42
465,682	0,42
466,136	0,42
466,59	0,43
467,044	0,43
467,499	0,43
467,953	0,43
468,407	0,43
468,861	0,43
469,315	0,43
469,768	0,43
470,222	0,43
470,676	0,43
471,13	0,43
471,584	0,43
472,038	0,43
472,491	0,43
472,945	0,43
473,399	0,43
473,852	0,43
474,306	0,43
474,76	0,43
475,213	0,43
475,667	0,43
476,12	0,43
476,574	0,43
477,027	0,43
477,481	0,43
477,934	0,44
478,388	0,44
478,841	0,44
479,294	0,44
479,748	0,44
480,201	0,44
480,654	0,44
481,107	0,44
481,561	0,44
482,014	0,44
482,467	0,45
482,92	0,45
483,373	0,45
483,826	0,45
484,279	0,45
484,732	0,45
485,185	0,45
485,638	0,45
486,091	0,45
486,544	0,45
486,997	0,45
487,449	0,46
487,902	0,46
488,355	0,46
488,808	0,46
489,26	0,46
489,713	0,46
490,166	0,46
490,618	0,47
491,071	0,47
491,523	0,47
491,976	0,47
492,429	0,47
492,881	0,47
493,333	0,48
493,786	0,48
494,238	0,48
494,691	0,48
495,143	0,48
495,595	0,48
496,048	0,49
496,5	0,49
496,952	0,49
497,404	0,49
497,856	0,49
498,309	0,5
498,761	0,5
499,213	0,5
499,665	0,5
500,117	0,5
500,569	0,51
501,021	0,51
501,473	0,51
501,925	0,51
502,377	0,52
502,828	0,52
503,28	0,52
503,732	0,52
504,184	0,53
504,636	0,53
505,087	0,53
505,539	0,53
505,991	0,53
506,442	0,54
506,894	0,54
507,345	0,54
507,797	0,54
508,249	0,55
508,7	0,55
509,151	0,55
509,603	0,55
510,054	0,55
510,506	0,56
510,957	0,56
511,408	0,56
511,86	0,56
512,311	0,56
512,762	0,57
513,213	0,57
513,665	0,57
514,116	0,57
514,567	0,57
515,018	0,58
515,469	0,58
515,92	0,58
516,371	0,58
516,822	0,58
517,273	0,59
517,724	0,59
518,175	0,59
518,626	0,59
519,076	0,59
519,527	0,59
519,978	0,6
520,429	0,6
520,88	0,6
521,33	0,6
521,781	0,6
522,232	0,6
522,682	0,6
523,133	0,6
523,583	0,61
524,034	0,61
524,484	0,61
524,935	0,61
525,385	0,61
525,836	0,61
526,286	0,61
526,736	0,61
527,187	0,61
527,637	0,61
528,087	0,61
528,538	0,61
528,988	0,61
529,438	0,61
529,888	0,61
530,338	0,61
530,788	0,61
531,238	0,61
531,688	0,61
532,139	0,61
532,589	0,61
533,038	0,61
533,488	0,61
533,938	0,61
534,388	0,6
534,838	0,6
535,288	0,6
535,738	0,6
536,187	0,6
536,637	0,6
537,087	0,6
537,537	0,59
537,986	0,59
538,436	0,59
538,885	0,59
539,335	0,58
539,785	0,58
540,234	0,58
540,684	0,58
541,133	0,58
541,582	0,57
542,032	0,57
542,481	0,57
542,931	0,57
543,38	0,56
543,829	0,56
544,278	0,56
544,728	0,56
545,177	0,55
545,626	0,55
546,075	0,55
546,524	0,55
546,973	0,55
547,422	0,54
547,871	0,54
548,32	0,54
548,769	0,54
549,218	0,54
549,667	0,54
550,116	0,54
550,565	0,54
551,014	0,54
551,463	0,53
551,911	0,53
552,36	0,53
552,809	0,53
553,258	0,53
553,706	0,53
554,155	0,52
554,603	0,52
555,052	0,52
555,501	0,52
555,949	0,52
556,398	0,51
556,846	0,51
557,294	0,51
557,743	0,51
558,191	0,51
558,64	0,5
559,088	0,5
559,536	0,5
559,985	0,5
560,433	0,49
560,881	0,49
561,329	0,49
561,777	0,49
562,225	0,49
562,674	0,49
563,122	0,48
563,57	0,48
564,018	0,48
564,466	0,48
564,914	0,48
565,362	0,47
565,809	0,47
566,257	0,47
566,705	0,47
567,153	0,47
567,601	0,46
568,048	0,46
568,496	0,46
568,944	0,46
569,392	0,46
569,839	0,46
570,287	0,45
570,734	0,45
571,182	0,45
571,63	0,45
572,077	0,45
572,525	0,45
572,972	0,44
573,419	0,44
573,867	0,44
574,314	0,44
574,761	0,44
575,209	0,43
575,656	0,43
576,103	0,43
576,551	0,43
576,998	0,43
577,445	0,43
577,892	0,43
578,339	0,43
578,786	0,43
579,233	0,42
579,68	0,42
580,127	0,42
580,574	0,42
581,021	0,42
581,468	0,42
581,915	0,42
582,362	0,42
582,809	0,41
583,255	0,41
583,702	0,41
584,149	0,41
584,596	0,41
585,042	0,41
585,489	0,41
585,936	0,4
586,382	0,4
586,829	0,4
587,275	0,4
587,722	0,4
588,168	0,4
588,615	0,4
589,061	0,4
589,508	0,4
589,954	0,4
590,4	0,4
590,847	0,4
591,293	0,4
591,739	0,4
592,185	0,4
592,632	0,39
593,078	0,39
593,524	0,39
593,97	0,39
594,416	0,39
594,862	0,39
595,308	0,39
595,754	0,39
596,2	0,39
596,646	0,39
597,092	0,39
597,538	0,39
597,984	0,39
598,43	0,39
598,876	0,38
599,321	0,38
599,767	0,38
600,213	0,38
600,659	0,38
601,104	0,38
601,55	0,38
601,995	0,38
602,441	0,38
602,887	0,38
603,332	0,38
603,778	0,38
604,223	0,38
604,668	0,38
605,114	0,38
605,559	0,38
606,005	0,38
606,45	0,38
606,895	0,38
607,341	0,38
607,786	0,38
608,231	0,37
608,676	0,37
609,121	0,37
609,566	0,36
610,012	0,36
610,457	0,36
610,902	0,35
611,347	0,35
611,792	0,35
612,237	0,35
612,682	0,35
613,127	0,35
613,571	0,35
614,016	0,35
614,461	0,36
614,906	0,36
615,351	0,36
615,795	0,36
616,24	0,36
616,685	0,36
617,129	0,36
617,574	0,36
618,019	0,36
618,463	0,36
618,908	0,36
619,352	0,36
619,797	0,36
620,241	0,36
620,686	0,36
621,13	0,36
621,574	0,36
622,019	0,36
622,463	0,36
622,907	0,36
623,352	0,36
623,796	0,36
624,24	0,36
624,684	0,36
625,128	0,35
625,572	0,35
626,016	0,35
626,461	0,35
626,905	0,35
627,349	0,35
627,793	0,35
628,236	0,35
628,68	0,35
629,124	0,35
629,568	0,35
630,012	0,35
630,456	0,35
630,9	0,35
631,343	0,35
631,787	0,35
632,231	0,35
632,674	0,35
633,118	0,35
633,562	0,35
634,005	0,35
634,449	0,35
634,892	0,35
635,336	0,35
635,779	0,35
636,223	0,35
636,666	0,35
637,109	0,35
637,553	0,35
637,996	0,35
638,439	0,35
638,883	0,35
639,326	0,35
639,769	0,35
640,212	0,35
640,655	0,35
641,099	0,35
641,542	0,35
641,985	0,35
642,428	0,35
642,871	0,35
643,314	0,35
643,757	0,35
644,2	0,35
644,643	0,35
645,085	0,35
645,528	0,35
645,971	0,35
646,414	0,35
646,857	0,34
647,299	0,34
647,742	0,34
648,185	0,34
648,627	0,34
649,07	0,34
649,513	0,34
649,955	0,34
650,398	0,34
650,84	0,34
651,283	0,34
651,725	0,34
652,168	0,34
652,61	0,34
653,052	0,34
653,495	0,34
653,937	0,26
654,379	0,21
654,821	0,22
655,264	0,22
655,706	0,22
656,148	0,22
656,59	0,22
657,032	0,22
657,474	0,22
657,916	0,22
658,358	0,21
658,8	0,27
659,242	0,34
659,684	0,34
660,126	0,34
660,568	0,34
661,01	0,34
661,452	0,34
661,894	0,34
662,335	0,34
662,777	0,34
663,219	0,34
663,661	0,34
664,102	0,34
664,544	0,34
664,985	0,34
665,427	0,34
665,869	0,34
666,31	0,34
666,752	0,34
667,193	0,34
667,634	0,34
668,076	0,34
668,517	0,34
668,959	0,34
669,4	0,34
669,841	0,34
670,282	0,34
670,724	0,34
671,165	0,33
671,606	0,33
672,047	0,33
672,488	0,33
672,929	0,33
673,37	0,33
673,811	0,33
674,252	0,33
674,693	0,33
675,134	0,33
675,575	0,33
676,016	0,33
676,457	0,33
676,898	0,33
677,339	0,33
677,78	0,33
678,22	0,33
678,661	0,33
679,102	0,33
679,542	0,33
679,983	0,33
680,424	0,33
680,864	0,33
681,305	0,33
681,745	0,33
682,186	0,33
682,626	0,33
683,067	0,33
683,507	0,33
683,948	0,33
684,388	0,33
684,828	0,33
685,269	0,33
685,709	0,33
686,149	0,33
686,589	0,33
687,029	0,33
687,47	0,33
687,91	0,33
688,35	0,32
688,79	0,32
689,23	0,32
689,67	0,32
690,11	0,32
690,55	0,32
690,99	0,32
691,43	0,32
691,87	0,32
692,31	0,32
692,749	0,32
693,189	0,32
693,629	0,32
694,069	0,32
694,508	0,32
694,948	0,32
695,388	0,32
695,827	0,32
696,267	0,32
696,706	0,32
697,146	0,32
697,586	0,32
698,025	0,33
698,464	0,33
698,904	0,33
699,343	0,33
699,783	0,33
700,222	0,33
700,661	0,33
701,101	0,33
701,54	0,32
701,979	0,32
702,418	0,32
702,857	0,32
703,297	0,32
703,736	0,32
704,175	0,32
704,614	0,32
705,053	0,32
705,492	0,32
705,931	0,32
706,37	0,32
706,809	0,32
707,248	0,32
707,687	0,31
708,125	0,31
708,564	0,31
709,003	0,31
709,442	0,31
709,88	0,31
710,319	0,31
710,758	0,31
711,196	0,31
711,635	0,31
712,074	0,31
712,512	0,31
712,951	0,31
713,389	0,31
713,828	0,31
714,266	0,31
714,705	0,31
715,143	0,31
715,581	0,31
716,02	0,31
716,458	0,31
716,896	0,31
717,334	0,31
717,773	0,31
718,211	0,31
718,649	0,31
719,087	0,31
719,525	0,31
719,963	0,31
720,401	0,31
720,839	0,31
721,277	0,31
721,715	0,31
722,153	0,31
722,591	0,31
723,029	0,31
723,467	0,31
723,905	0,31
724,342	0,31
724,78	0,31
725,218	0,31
725,656	0,31
726,093	0,31
726,531	0,31
726,969	0,31
727,406	0,31
727,844	0,31
728,281	0,31
728,719	0,31
729,156	0,31
729,594	0,31
730,031	0,31
730,469	0,31
730,906	0,3
731,343	0,3
731,781	0,3
732,218	0,3
732,655	0,3
733,092	0,3
733,53	0,3
733,967	0,3
734,404	0,3
734,841	0,3
735,278	0,3
735,715	0,3
736,152	0,3
736,589	0,3
737,026	0,3
737,463	0,3
737,9	0,3
738,337	0,3
738,774	0,3
739,211	0,3
739,647	0,3
740,084	0,3
740,521	0,3
740,958	0,3
741,394	0,3
741,831	0,29
742,268	0,29
742,704	0,29
743,141	0,29
743,577	0,29
744,014	0,29
744,45	0,29
744,887	0,29
745,323	0,28
745,76	0,28
746,196	0,28
746,632	0,28
747,069	0,28
747,505	0,28
747,941	0,28
748,378	0,28
748,814	0,28
749,25	0,28
749,686	0,29
750,122	0,29
750,558	0,29
750,994	0,29
751,43	0,29
751,866	0,29
752,302	0,29
752,738	0,29
753,174	0,29
753,61	0,29
754,046	0,29
754,482	0,29
754,918	0,29
755,354	0,29
755,789	0,29
756,225	0,29
756,661	0,29
757,096	0,29
757,532	0,29
757,968	0,29
758,403	0,29
758,839	0,29
759,274	0,28
759,71	0,28
760,145	0,28
760,581	0,27
761,016	0,27
761,452	0,27
761,887	0,27
762,322	0,26
762,758	0,26
763,193	0,26
763,628	0,25
764,063	0,25
764,499	0,24
764,934	0,24
765,369	0,23
765,804	0,22
766,239	0,22
766,674	0,22
767,109	0,21
767,544	0,2
767,979	0,2
768,414	0,19
768,849	0,18
769,284	0,18
769,719	0,17
770,154	0,17
770,588	0,16
771,023	0,15
771,458	0,14
771,893	0,13
772,327	0,12
772,762	0,11
773,197	0,1
773,631	0,09
774,066	0,09
774,5	0,08
774,935	0,07
775,369	0,06
775,804	0,04
776,238	0,04
776,673	0,03
777,107	0,02
777,541	0,01
777,976	0,01
778,41	0,01
778,844	-0
779,279	-0
779,713	-0,01
780,147	-0,02
780,581	-0,02
781,015	-0,03
781,449	-0,03
781,883	-0,04
782,317	-0,05
782,751	-0,06
783,185	-0,07
783,619	-0,08
784,053	-0,08
784,487	-0,09
784,921	-0,1
785,355	-0,11
785,789	-0,12
786,223	-0,13
786,656	-0,14
787,09	-0,15
787,524	-0,16
787,957	-0,17
788,391	-0,19
788,825	-0,2
789,258	-0,22
789,692	-0,23
790,125	-0,25
790,559	-0,26
790,992	-0,28
791,426	-0,3
791,859	-0,32
792,293	-0,35
792,726	-0,37
793,159	-0,39
793,593	-0,4
794,026	-0,43
794,459	-0,46
794,892	-0,48
795,326	-0,51
795,759	-0,55
796,192	-0,59
796,625	-0,63
797,058	-0,66
797,491	-0,71
797,924	-0,74
798,357	-0,8
798,79	-0,84
799,223	-0,89
799,656	-0,94
800,089	-0,99
800,522	-1,03
800,955	-1,08
801,387	-1,14
801,82	-1,19
802,253	-1,25
802,686	-1,33
803,118	-1,39
803,551	-1,44
803,984	-1,49
804,416	-1,53
804,849	-1,57
805,281	-1,69
805,714	-2,05
806,146	-2,48
806,579	-2,73
807,011	-2,88
807,444	-2,97
807,876	-3,06
808,308	-3,09
808,741	-3,12
809,173	-3,17
809,605	-3,19
810,037	-3,27
810,47	-3,18
810,902	-2,98
811,334	-2,84
811,766	-2,68
812,198	-2,44
812,63	-2,03
813,062	-1,82
813,494	-1,73
813,926	-1,64
814,358	-1,59
814,79	-1,51
815,222	-1,45
815,654	-1,4
816,086	-1,33
816,518	-1,27
816,949	-1,22
817,381	-1,18
817,813	-1,16
818,245	-1,12
818,676	-1,07
819,108	-1,04
819,54	-1,02
819,971	-1
820,403	-0,95
820,834	-0,93
821,266	-0,89
821,697	-0,87
822,129	-0,85
822,56	-0,82
822,991	-0,8
823,423	-0,77
823,854	-0,76
824,286	-0,74
824,717	-0,73
825,148	-0,7
825,579	-0,69
826,01	-0,68
826,442	-0,67
826,873	-0,65
827,304	-0,61
827,735	-0,61
828,166	-0,61
828,597	-0,6
829,028	-0,59
829,459	-0,6
829,89	-0,61
830,321	-0,56
830,752	-0,57
831,183	-0,55
831,613	-0,55
832,044	-0,55
832,475	-0,54
832,906	-0,55
833,336	-0,56
833,767	-0,57
834,198	-0,55
834,628	-0,53
835,059	-0,56
835,49	-0,57
835,92	-0,54
836,351	-0,54
836,781	-0,54
837,212	-0,55
837,642	-0,55
838,072	-0,53
838,503	-0,54
838,933	-0,52
839,364	-0,53
839,794	-0,51
840,224	-0,5
840,654	-0,54
841,085	-0,54
841,515	-0,51
841,945	-0,52
842,375	-0,47
842,805	-0,46
843,235	-0,44
843,665	-0,45
844,095	-0,44
844,525	-0,45
844,955	-0,46
845,385	-0,43
845,815	-0,42
846,245	-0,44
846,675	-0,45
847,105	-0,47
847,534	-0,47
847,964	-0,45
848,394	-0,44
848,824	-0,47
849,253	-0,46
849,683	-0,46
850,112	-0,47
850,542	-0,5
850,972	-0,5
851,401	-0,48
851,831	-0,47
852,26	-0,48
852,69	-0,52
853,119	-0,51
853,548	-0,52
853,978	-0,53
854,407	-0,51
854,836	-0,51
855,266	-0,51
855,695	-0,52
856,124	-0,53
856,553	-0,54
856,983	-0,56
857,412	-0,55
857,841	-0,57
858,27	-0,57
858,699	-0,56
859,128	-0,6
859,557	-0,61
859,986	-0,61
860,415	-0,59
860,844	-0,57
861,273	-0,57
861,702	-0,57
862,13	-0,56
862,559	-0,58
862,988	-0,55
863,417	-0,55
863,845	-0,54
864,274	-0,55
864,703	-0,55
865,131	-0,54
865,56	-0,54
865,989	-0,57
866,417	-0,54
866,846	-0,54
867,274	-0,53
867,703	-0,55
868,131	-0,55
868,559	-0,55
868,988	-0,57
869,416	-0,57
869,844	-0,59
870,273	-0,62
870,701	-0,6
871,129	-0,63
871,557	-0,66
871,986	-0,67
872,414	-0,67
872,842	-0,65
873,27	-0,63
873,698	-0,6
874,126	-0,62
874,554	-0,62
874,982	-0,61
875,41	-0,63
875,838	-0,58
876,266	-0,55
876,694	-0,55
877,122	-0,55
877,549	-0,6
877,977	-0,57
878,405	-0,6
878,833	-0,56
879,26	-0,54
879,688	-0,54
880,116	-0,53
880,543	-0,5
880,971	-0,49
881,399	-0,52
881,826	-0,53
882,254	-0,51
882,681	-0,54
883,109	-0,5
883,536	-0,52
883,963	-0,55
884,391	-0,53
884,818	-0,52
885,245	-0,57
885,673	-0,59
886,1	-0,55
886,527	-0,54
886,954	-0,51
887,381	-0,52
887,809	-0,54
888,236	-0,55
888,663	-0,56
889,09	-0,6
889,517	-0,62
889,944	-0,61
890,371	-0,6
890,798	-0,61
891,225	-0,62
891,652	-0,66
892,078	-0,63
892,505	-0,66
892,932	-0,62
893,359	-0,62
893,786	-0,61
894,212	-0,58
894,639	-0,6
895,066	-0,62
895,492	-0,57
895,919	-0,56
896,346	-0,56
896,772	-0,55
897,199	-0,52
897,625	-0,54
898,052	-0,5
898,478	-0,49
898,904	-0,5
899,331	-0,48
899,757	-0,49
900,183	-0,52
900,61	-0,5
901,036	-0,51
901,462	-0,51
901,888	-0,51
902,315	-0,5
902,741	-0,56
903,167	-0,54
903,593	-0,57
904,019	-0,56
904,445	-0,53
904,871	-0,56
905,297	-0,58
905,723	-0,57
906,149	-0,56
906,575	-0,57
907,001	-0,57
907,427	-0,54
907,852	-0,54
908,278	-0,54
908,704	-0,52
909,13	-0,51
909,555	-0,51
909,981	-0,51
910,407	-0,52
910,832	-0,52
911,258	-0,52
911,684	-0,51
912,109	-0,52
912,535	-0,53
912,96	-0,49
913,386	-0,53
913,811	-0,53
914,236	-0,53
914,662	-0,51
915,087	-0,55
915,512	-0,55
915,938	-0,56
916,363	-0,55
916,788	-0,57
917,213	-0,56
917,639	-0,6
918,064	-0,57
918,489	-0,58
918,914	-0,59
919,339	-0,59
919,764	-0,56
920,189	-0,56
920,614	-0,58
921,039	-0,59
921,464	-0,54
921,889	-0,57
922,314	-0,58
922,738	-0,61
923,163	-0,63
923,588	-0,62
924,013	-0,62
924,437	-0,62
924,862	-0,62
925,287	-0,58
925,711	-0,59
926,136	-0,61
926,561	-0,59
926,985	-0,58
927,41	-0,55
927,834	-0,54
928,259	-0,51
928,683	-0,5
929,108	-0,47
929,532	-0,49
929,956	-0,48
930,381	-0,47
930,805	-0,47
931,229	-0,46
931,653	-0,44
932,078	-0,44
932,502	-0,44
932,926	-0,45
933,35	-0,44
933,774	-0,43
934,198	-0,41
934,622	-0,4
935,046	-0,41
935,47	-0,41
935,894	-0,41
936,318	-0,41
936,742	-0,41
937,166	-0,43
937,59	-0,42
938,014	-0,45
938,437	-0,47
938,861	-0,48
939,285	-0,5
939,709	-0,49
940,132	-0,5
940,556	-0,5
940,98	-0,5
941,403	-0,48
941,827	-0,48
942,25	-0,5
942,674	-0,47
943,097	-0,45
943,521	-0,46
943,944	-0,47
944,368	-0,45
944,791	-0,44
945,214	-0,46
945,638	-0,47
946,061	-0,5
946,484	-0,51
946,907	-0,49
947,331	-0,5
947,754	-0,54
948,177	-0,51
948,6	-0,51
949,023	-0,52
949,446	-0,51
949,869	-0,49
950,292	-0,49
950,715	-0,46
951,138	-0,43
951,561	-0,41
951,984	-0,42
952,407	-0,4
952,83	-0,38
953,252	-0,34
953,675	-0,34
954,098	-0,35
954,521	-0,33
954,943	-0,34
955,366	-0,34
955,789	-0,33
956,211	-0,35
956,634	-0,35
957,056	-0,34
957,479	-0,35
957,902	-0,38
958,324	-0,38
958,746	-0,37
959,169	-0,38
959,591	-0,37
960,014	-0,38
960,436	-0,37
960,858	-0,37
961,281	-0,37
961,703	-0,38
962,125	-0,37
962,547	-0,35
962,969	-0,35
963,391	-0,35
963,814	-0,37
964,236	-0,35
964,658	-0,33
965,08	-0,34
965,502	-0,33
965,924	-0,31
966,346	-0,32
966,768	-0,31
967,189	-0,33
967,611	-0,32
968,033	-0,32
968,455	-0,3
968,877	-0,3
969,298	-0,32
969,72	-0,33
970,142	-0,33
970,563	-0,34
970,985	-0,32
971,407	-0,31
971,828	-0,3
972,25	-0,29
972,671	-0,27
973,093	-0,28
973,514	-0,26
973,936	-0,25
974,357	-0,23
974,778	-0,23
975,2	-0,22
975,621	-0,22
976,042	-0,2
976,464	-0,19
976,885	-0,18
977,306	-0,17
977,727	-0,16
978,148	-0,16
978,57	-0,15
978,991	-0,13
979,412	-0,12
979,833	-0,11
980,254	-0,11
980,675	-0,11
981,096	-0,11
981,517	-0,09
981,937	-0,09
982,358	-0,08
982,779	-0,07
983,2	-0,07
983,621	-0,06
984,042	-0,06
984,462	-0,05
984,883	-0,04
985,304	-0,03
985,724	-0,02
986,145	-0,01
986,565	0,01
986,986	0,01
987,407	0,02
987,827	0,03
988,248	0,05
988,668	0,06
989,088	0,06
989,509	0,08
989,929	0,08
990,35	0,09
990,77	0,1
991,19	0,11
991,61	0,12
992,031	0,12
992,451	0,13
992,871	0,14
993,291	0,14
993,711	0,15
994,131	0,15
994,551	0,16
994,971	0,16
995,391	0,17
995,811	0,17
996,231	0,17
996,651	0,18
997,071	0,18
997,491	0,19
997,911	0,19
998,331	0,2
998,75	0,2
999,17	0,21
999,59	0,21
1000,009	0,21
1000,429	0,22
1000,849	0,22
1001,268	0,23
1001,688	0,23
1002,107	0,23
1002,527	0,23
1002,946	0,23
1003,366	0,24
1003,785	0,24
1004,205	0,24
1004,624	0,24
1005,044	0,24
1005,463	0,25
1005,882	0,25
1006,301	0,25
1006,721	0,25
1007,14	0,25
1007,559	0,25
1007,978	0,25
1008,397	0,25
1008,816	0,25
1009,235	0,25
1009,655	0,25
1010,074	0,24
1010,492	0,24
1010,911	0,24
1011,33	0,24
1011,749	0,24
1012,168	0,24
1012,587	0,24
1013,006	0,24
1013,425	0,24
1013,843	0,23
1014,262	0,23
1014,681	0,23
1015,099	0,23
1015,518	0,23
1015,937	0,23
1016,355	0,23
1016,774	0,23
1017,192	0,23
1017,611	0,24
1018,029	0,24
1018,448	0,24
1018,866	0,24
1019,285	0,24
1019,703	0,24
1020,121	0,24
1020,54	0,24
1020,958	0,24
1021,376	0,24
1021,794	0,24
1022,213	0,24
1022,631	0,24
1023,049	0,24
1023,467	0,24
1023,885	0,24
1024,303	0,24
1024,721	0,24
1025,139	0,24
1025,557	0,24
1025,975	0,24
1026,393	0,23
1026,811	0,23
1027,229	0,23
1027,647	0,23
1028,065	0,23
1028,482	0,23
1028,9	0,23
1029,318	0,23
1029,735	0,23
1030,153	0,23
1030,571	0,23
1030,988	0,23
1031,406	0,23
1031,823	0,23
1032,241	0,23
1032,659	0,23
1033,076	0,23
1033,493	0,23
1033,911	0,23
1034,328	0,23
1034,746	0,23
1035,163	0,23
1035,58	0,23
1035,997	0,23
1036,415	0,23
1036,832	0,23
1037,249	0,23
1037,666	0,23
1038,083	0,23
1038,501	0,23
1038,918	0,23
1039,335	0,23
1039,752	0,23
1040,169	0,23
1040,586	0,22
1041,003	0,22
1041,419	0,22
1041,836	0,22
1042,253	0,22
1042,67	0,22
1043,087	0,22
1043,504	0,22
1043,92	0,22
1044,337	0,22
1044,754	0,22
1045,17	0,22
1045,587	0,22
1046,004	0,22
1046,42	0,22
1046,837	0,22
1047,253	0,22
1047,67	0,22
1048,086	0,22
1048,503	0,22
1048,919	0,22
1049,335	0,22
1049,752	0,22
1050,168	0,21
1050,584	0,21
1051,001	0,22
1051,417	0,22
1051,833	0,22
1052,249	0,22
1052,665	0,22
1053,081	0,22
1053,497	0,22
1053,914	0,22
1054,33	0,22
1054,746	0,22
1055,162	0,22
1055,578	0,22
1055,993	0,22
1056,409	0,22
1056,825	0,22
1057,241	0,22
1057,657	0,22
1058,073	0,22
1058,488	0,22
1058,904	0,22
1059,32	0,22
1059,736	0,22
1060,151	0,22
1060,567	0,22
1060,982	0,22
1061,398	0,22
1061,813	0,22
1062,229	0,22
1062,644	0,22
1063,06	0,22
1063,475	0,22
1063,891	0,22
1064,306	0,22
1064,721	0,22
1065,137	0,22
1065,552	0,22
1065,967	0,22
1066,382	0,22
1066,798	0,22
1067,213	0,22
1067,628	0,22
1068,043	0,22
1068,458	0,22
1068,873	0,22
1069,288	0,22
1069,703	0,22
1070,118	0,22
1070,533	0,23
1070,948	0,23
1071,363	0,23
1071,778	0,23
1072,193	0,23
1072,607	0,23
1073,022	0,23
1073,437	0,23
1073,852	0,23
1074,266	0,23
1074,681	0,23
1075,096	0,23
1075,51	0,23
1075,925	0,23
1076,339	0,23
1076,754	0,23
1077,168	0,23
1077,583	0,23
1077,997	0,23
1078,412	0,23
1078,826	0,23
1079,24	0,23
1079,655	0,22
1080,069	0,22
1080,483	0,22
1080,897	0,22
1081,312	0,22
1081,726	0,22
1082,14	0,22
1082,554	0,22
1082,968	0,22
1083,382	0,22
1083,796	0,22
1084,21	0,22
1084,624	0,22
1085,038	0,21
1085,452	0,21
1085,866	0,21
1086,28	0,21
1086,694	0,21
1087,108	0,21
1087,521	0,21
1087,935	0,21
1088,349	0,21
1088,763	0,21
1089,176	0,2
1089,59	0,2
1090,004	0,2
1090,417	0,2
1090,831	0,2
1091,244	0,2
1091,658	0,19
1092,071	0,19
1092,485	0,19
1092,898	0,19
1093,312	0,19
1093,725	0,19
1094,138	0,18
1094,552	0,18
1094,965	0,18
1095,378	0,18
1095,791	0,18
1096,205	0,18
1096,618	0,18
1097,031	0,18
1097,444	0,17
1097,857	0,17
1098,27	0,17
1098,683	0,17
1099,096	0,17
1099,509	0,17
1099,922	0,16
1100,335	0,16
1100,748	0,16
1101,161	0,15
1101,574	0,15
1101,986	0,15
1102,399	0,15
1102,812	0,14
1103,225	0,14
1103,637	0,14
1104,05	0,13
1104,463	0,14
1104,875	0,13
1105,288	0,13
1105,7	0,13
1106,113	0,12
1106,525	0,12
1106,938	0,12
1107,35	0,12
1107,763	0,11
1108,175	0,11
1108,588	0,11
1109	0,1
1109,412	0,09
1109,824	0,09
1110,237	0,09
1110,649	0,09
1111,061	0,08
