Data from 18C-808nm-8A_Absorbance__1373__01373.txt Node

Date: Mon Jul 17 17:13:35 CEST 2023
User: Laser008
Spectrometer: MAYP115816
Trigger mode: 0
Integration Time (sec): 2,500000E-1
Scans to average: 10
Electric dark correction enabled: true
Nonlinearity correction enabled: true
Boxcar width: 5
XAxis mode: Wavelengths
Number of Pixels in Spectrum: 2068
>>>>>Begin Spectral Data<<<<<
198,914	-0,69
199,384	-0,49
199,855	-0,36
200,325	-0,29
200,796	-0,26
201,266	-0,21
201,737	-0,19
202,207	-0,18
202,677	-0,17
203,147	-0,15
203,618	-0,13
204,088	-0,12
204,558	-0,1
205,028	-0,09
205,498	-0,1
205,968	-0,1
206,439	-0,12
206,909	-0,11
207,379	-0,11
207,849	-0,12
208,319	-0,12
208,789	-0,13
209,258	-0,12
209,728	-0,13
210,198	-0,13
210,668	-0,13
211,138	-0,12
211,608	-0,12
212,077	-0,12
212,547	-0,12
213,017	-0,13
213,486	-0,14
213,956	-0,13
214,426	-0,14
214,895	-0,14
215,365	-0,15
215,834	-0,15
216,304	-0,16
216,773	-0,16
217,243	-0,18
217,712	-0,19
218,181	-0,19
218,651	-0,19
219,12	-0,19
219,589	-0,2
220,058	-0,19
220,528	-0,2
220,997	-0,21
221,466	-0,22
221,935	-0,23
222,404	-0,22
222,873	-0,21
223,342	-0,21
223,812	-0,22
224,281	-0,22
224,749	-0,22
225,218	-0,23
225,687	-0,23
226,156	-0,22
226,625	-0,21
227,094	-0,2
227,563	-0,21
228,031	-0,21
228,5	-0,21
228,969	-0,21
229,438	-0,2
229,906	-0,18
230,375	-0,18
230,844	-0,17
231,312	-0,18
231,781	-0,18
232,249	-0,17
232,718	-0,17
233,186	-0,15
233,655	-0,16
234,123	-0,16
234,591	-0,17
235,06	-0,17
235,528	-0,18
235,996	-0,18
236,465	-0,18
236,933	-0,17
237,401	-0,17
237,869	-0,17
238,337	-0,18
238,805	-0,16
239,274	-0,16
239,742	-0,15
240,21	-0,15
240,678	-0,13
241,146	-0,13
241,614	-0,12
242,081	-0,12
242,549	-0,12
243,017	-0,12
243,485	-0,12
243,953	-0,12
244,421	-0,12
244,888	-0,11
245,356	-0,1
245,824	-0,1
246,291	-0,11
246,759	-0,12
247,227	-0,12
247,694	-0,12
248,162	-0,11
248,629	-0,1
249,097	-0,11
249,564	-0,12
250,032	-0,14
250,499	-0,14
250,967	-0,15
251,434	-0,15
251,901	-0,14
252,369	-0,15
252,836	-0,16
253,303	-0,17
253,77	-0,18
254,237	-0,17
254,705	-0,16
255,172	-0,16
255,639	-0,17
256,106	-0,19
256,573	-0,19
257,04	-0,19
257,507	-0,2
257,974	-0,2
258,441	-0,19
258,908	-0,2
259,375	-0,21
259,841	-0,22
260,308	-0,22
260,775	-0,21
261,242	-0,19
261,709	-0,2
262,175	-0,2
262,642	-0,19
263,109	-0,18
263,575	-0,2
264,042	-0,18
264,508	-0,18
264,975	-0,19
265,441	-0,21
265,908	-0,21
266,374	-0,21
266,841	-0,21
267,307	-0,22
267,773	-0,22
268,24	-0,22
268,706	-0,22
269,172	-0,23
269,639	-0,25
270,105	-0,23
270,571	-0,22
271,037	-0,23
271,503	-0,23
271,969	-0,23
272,435	-0,22
272,902	-0,23
273,368	-0,24
273,834	-0,24
274,3	-0,24
274,765	-0,23
275,231	-0,23
275,697	-0,23
276,163	-0,22
276,629	-0,21
277,095	-0,23
277,56	-0,22
278,026	-0,22
278,492	-0,2
278,958	-0,2
279,423	-0,2
279,889	-0,2
280,354	-0,2
280,82	-0,19
281,286	-0,2
281,751	-0,21
282,217	-0,2
282,682	-0,2
283,147	-0,21
283,613	-0,21
284,078	-0,21
284,544	-0,23
285,009	-0,23
285,474	-0,23
285,939	-0,24
286,405	-0,23
286,87	-0,22
287,335	-0,21
287,8	-0,21
288,265	-0,2
288,73	-0,22
289,195	-0,24
289,66	-0,24
290,125	-0,22
290,59	-0,22
291,055	-0,21
291,52	-0,22
291,985	-0,23
292,45	-0,25
292,915	-0,25
293,38	-0,26
293,844	-0,24
294,309	-0,22
294,774	-0,21
295,239	-0,22
295,703	-0,23
296,168	-0,22
296,632	-0,21
297,097	-0,2
297,562	-0,18
298,026	-0,19
298,491	-0,18
298,955	-0,19
299,419	-0,18
299,884	-0,19
300,348	-0,18
300,813	-0,16
301,277	-0,16
301,741	-0,17
302,205	-0,17
302,67	-0,17
303,134	-0,16
303,598	-0,16
304,062	-0,15
304,526	-0,15
304,99	-0,15
305,454	-0,15
305,919	-0,15
306,383	-0,16
306,847	-0,15
307,31	-0,16
307,774	-0,17
308,238	-0,16
308,702	-0,16
309,166	-0,17
309,63	-0,17
310,094	-0,14
310,557	-0,14
311,021	-0,14
311,485	-0,14
311,948	-0,14
312,412	-0,12
312,876	-0,12
313,339	-0,13
313,803	-0,13
314,266	-0,13
314,73	-0,13
315,193	-0,14
315,657	-0,13
316,12	-0,12
316,584	-0,11
317,047	-0,11
317,51	-0,1
317,973	-0,09
318,437	-0,07
318,9	-0,06
319,363	-0,05
319,826	-0,05
320,29	-0,05
320,753	-0,06
321,216	-0,06
321,679	-0,06
322,142	-0,05
322,605	-0,08
323,068	-0,08
323,531	-0,08
323,994	-0,07
324,457	-0,08
324,92	-0,06
325,382	-0,06
325,845	-0,06
326,308	-0,04
326,771	-0,04
327,233	-0,04
327,696	-0,03
328,159	-0,03
328,622	-0,03
329,084	-0,03
329,547	-0,02
330,009	-0,02
330,472	-0,01
330,934	-0,01
331,397	-0,01
331,859	0
332,322	0,01
332,784	0,01
333,246	0,02
333,709	0,02
334,171	0,02
334,633	0,02
335,096	0,01
335,558	0,01
336,02	0,02
336,482	0,02
336,944	0,03
337,406	0,04
337,868	0,04
338,331	0,04
338,793	0,05
339,255	0,06
339,717	0,06
340,178	0,07
340,64	0,08
341,102	0,08
341,564	0,09
342,026	0,1
342,488	0,11
342,949	0,12
343,411	0,14
343,873	0,16
344,335	0,19
344,796	0,22
345,258	0,25
345,719	0,29
346,181	0,31
346,643	0,34
347,104	0,36
347,566	0,39
348,027	0,4
348,488	0,42
348,95	0,43
349,411	0,44
349,873	0,45
350,334	0,47
350,795	0,48
351,256	0,48
351,718	0,49
352,179	0,49
352,64	0,49
353,101	0,5
353,562	0,5
354,023	0,5
354,484	0,5
354,945	0,5
355,406	0,5
355,867	0,5
356,328	0,51
356,789	0,51
357,25	0,51
357,711	0,51
358,172	0,51
358,633	0,51
359,093	0,51
359,554	0,51
360,015	0,51
360,476	0,51
360,936	0,51
361,397	0,52
361,858	0,52
362,318	0,52
362,779	0,52
363,239	0,52
363,7	0,52
364,16	0,52
364,621	0,52
365,081	0,52
365,541	0,52
366,002	0,52
366,462	0,52
366,922	0,52
367,383	0,52
367,843	0,52
368,303	0,52
368,763	0,52
369,223	0,52
369,684	0,52
370,144	0,52
370,604	0,52
371,064	0,52
371,524	0,52
371,984	0,52
372,444	0,52
372,904	0,51
373,363	0,51
373,823	0,51
374,283	0,51
374,743	0,51
375,203	0,51
375,663	0,51
376,122	0,51
376,582	0,51
377,042	0,51
377,501	0,51
377,961	0,51
378,42	0,51
378,88	0,51
379,34	0,51
379,799	0,51
380,259	0,51
380,718	0,51
381,177	0,51
381,637	0,51
382,096	0,51
382,555	0,51
383,015	0,51
383,474	0,51
383,933	0,51
384,393	0,51
384,852	0,51
385,311	0,5
385,77	0,5
386,229	0,5
386,688	0,5
387,147	0,5
387,606	0,5
388,065	0,5
388,524	0,5
388,983	0,5
389,442	0,5
389,901	0,5
390,36	0,5
390,819	0,5
391,277	0,5
391,736	0,5
392,195	0,5
392,654	0,5
393,112	0,5
393,571	0,5
394,03	0,5
394,488	0,5
394,947	0,5
395,405	0,5
395,864	0,5
396,322	0,5
396,781	0,5
397,239	0,5
397,698	0,5
398,156	0,5
398,614	0,5
399,073	0,5
399,531	0,5
399,989	0,5
400,447	0,5
400,905	0,5
401,364	0,5
401,822	0,5
402,28	0,49
402,738	0,49
403,196	0,49
403,654	0,49
404,112	0,49
404,57	0,49
405,028	0,49
405,486	0,49
405,944	0,49
406,402	0,49
406,859	0,49
407,317	0,49
407,775	0,49
408,233	0,49
408,691	0,49
409,148	0,49
409,606	0,49
410,064	0,49
410,521	0,49
410,979	0,49
411,436	0,49
411,894	0,49
412,351	0,49
412,809	0,49
413,266	0,49
413,724	0,49
414,181	0,49
414,638	0,49
415,096	0,49
415,553	0,49
416,01	0,49
416,467	0,49
416,925	0,49
417,382	0,49
417,839	0,49
418,296	0,49
418,753	0,49
419,21	0,49
419,667	0,49
420,124	0,48
420,581	0,48
421,038	0,48
421,495	0,48
421,952	0,48
422,409	0,48
422,866	0,48
423,322	0,48
423,779	0,48
424,236	0,48
424,693	0,48
425,149	0,48
425,606	0,48
426,063	0,48
426,519	0,48
426,976	0,48
427,433	0,48
427,889	0,48
428,346	0,48
428,802	0,48
429,258	0,48
429,715	0,48
430,171	0,48
430,628	0,48
431,084	0,48
431,54	0,48
431,997	0,48
432,453	0,48
432,909	0,48
433,365	0,48
433,821	0,48
434,277	0,48
434,734	0,48
435,19	0,48
435,646	0,48
436,102	0,48
436,558	0,48
437,014	0,48
437,47	0,48
437,925	0,48
438,381	0,48
438,837	0,48
439,293	0,48
439,749	0,48
440,205	0,48
440,66	0,48
441,116	0,48
441,572	0,48
442,027	0,48
442,483	0,48
442,939	0,48
443,394	0,48
443,85	0,48
444,305	0,48
444,761	0,48
445,216	0,48
445,672	0,48
446,127	0,48
446,582	0,48
447,038	0,48
447,493	0,48
447,948	0,48
448,403	0,48
448,859	0,48
449,314	0,48
449,769	0,48
450,224	0,48
450,679	0,48
451,134	0,48
451,589	0,48
452,044	0,48
452,499	0,48
452,954	0,48
453,409	0,48
453,864	0,48
454,319	0,48
454,774	0,48
455,229	0,48
455,684	0,48
456,138	0,48
456,593	0,48
457,048	0,48
457,503	0,48
457,957	0,48
458,412	0,48
458,866	0,48
459,321	0,48
459,776	0,48
460,23	0,49
460,685	0,49
461,139	0,49
461,593	0,49
462,048	0,49
462,502	0,49
462,957	0,49
463,411	0,49
463,865	0,49
464,319	0,49
464,774	0,49
465,228	0,49
465,682	0,49
466,136	0,49
466,59	0,49
467,044	0,49
467,499	0,49
467,953	0,49
468,407	0,5
468,861	0,5
469,315	0,5
469,768	0,5
470,222	0,5
470,676	0,5
471,13	0,5
471,584	0,5
472,038	0,5
472,491	0,5
472,945	0,5
473,399	0,5
473,852	0,5
474,306	0,5
474,76	0,5
475,213	0,5
475,667	0,5
476,12	0,5
476,574	0,5
477,027	0,51
477,481	0,51
477,934	0,51
478,388	0,51
478,841	0,51
479,294	0,51
479,748	0,51
480,201	0,52
480,654	0,52
481,107	0,52
481,561	0,52
482,014	0,52
482,467	0,52
482,92	0,52
483,373	0,52
483,826	0,52
484,279	0,53
484,732	0,53
485,185	0,53
485,638	0,53
486,091	0,53
486,544	0,53
486,997	0,53
487,449	0,54
487,902	0,54
488,355	0,54
488,808	0,54
489,26	0,54
489,713	0,55
490,166	0,55
490,618	0,55
491,071	0,55
491,523	0,55
491,976	0,56
492,429	0,56
492,881	0,56
493,333	0,56
493,786	0,56
494,238	0,57
494,691	0,57
495,143	0,57
495,595	0,57
496,048	0,58
496,5	0,58
496,952	0,58
497,404	0,58
497,856	0,59
498,309	0,59
498,761	0,59
499,213	0,59
499,665	0,6
500,117	0,6
500,569	0,6
501,021	0,61
501,473	0,61
501,925	0,61
502,377	0,62
502,828	0,62
503,28	0,62
503,732	0,62
504,184	0,63
504,636	0,63
505,087	0,63
505,539	0,64
505,991	0,64
506,442	0,64
506,894	0,64
507,345	0,65
507,797	0,65
508,249	0,65
508,7	0,66
509,151	0,66
509,603	0,66
510,054	0,66
510,506	0,67
510,957	0,67
511,408	0,67
511,86	0,68
512,311	0,68
512,762	0,68
513,213	0,68
513,665	0,69
514,116	0,69
514,567	0,69
515,018	0,69
515,469	0,7
515,92	0,7
516,371	0,7
516,822	0,7
517,273	0,71
517,724	0,71
518,175	0,71
518,626	0,71
519,076	0,71
519,527	0,72
519,978	0,72
520,429	0,72
520,88	0,72
521,33	0,72
521,781	0,72
522,232	0,72
522,682	0,73
523,133	0,73
523,583	0,73
524,034	0,73
524,484	0,73
524,935	0,73
525,385	0,73
525,836	0,73
526,286	0,73
526,736	0,73
527,187	0,73
527,637	0,73
528,087	0,73
528,538	0,73
528,988	0,73
529,438	0,73
529,888	0,73
530,338	0,73
530,788	0,73
531,238	0,73
531,688	0,73
532,139	0,73
532,589	0,73
533,038	0,72
533,488	0,72
533,938	0,72
534,388	0,72
534,838	0,72
535,288	0,72
535,738	0,72
536,187	0,71
536,637	0,71
537,087	0,71
537,537	0,71
537,986	0,7
538,436	0,7
538,885	0,7
539,335	0,69
539,785	0,69
540,234	0,69
540,684	0,68
541,133	0,68
541,582	0,68
542,032	0,68
542,481	0,67
542,931	0,67
543,38	0,67
543,829	0,66
544,278	0,66
544,728	0,66
545,177	0,65
545,626	0,65
546,075	0,65
546,524	0,64
546,973	0,64
547,422	0,64
547,871	0,64
548,32	0,63
548,769	0,63
549,218	0,63
549,667	0,63
550,116	0,63
550,565	0,62
551,014	0,62
551,463	0,62
551,911	0,61
552,36	0,61
552,809	0,61
553,258	0,6
553,706	0,6
554,155	0,6
554,603	0,6
555,052	0,59
555,501	0,59
555,949	0,59
556,398	0,58
556,846	0,58
557,294	0,58
557,743	0,58
558,191	0,57
558,64	0,57
559,088	0,57
559,536	0,56
559,985	0,56
560,433	0,56
560,881	0,55
561,329	0,55
561,777	0,55
562,225	0,54
562,674	0,54
563,122	0,54
563,57	0,54
564,018	0,53
564,466	0,53
564,914	0,53
565,362	0,52
565,809	0,52
566,257	0,52
566,705	0,52
567,153	0,51
567,601	0,51
568,048	0,51
568,496	0,5
568,944	0,5
569,392	0,5
569,839	0,5
570,287	0,49
570,734	0,49
571,182	0,49
571,63	0,49
572,077	0,48
572,525	0,48
572,972	0,48
573,419	0,48
573,867	0,48
574,314	0,47
574,761	0,47
575,209	0,47
575,656	0,47
576,103	0,46
576,551	0,46
576,998	0,46
577,445	0,46
577,892	0,46
578,339	0,46
578,786	0,45
579,233	0,45
579,68	0,45
580,127	0,45
580,574	0,45
581,021	0,45
581,468	0,44
581,915	0,44
582,362	0,44
582,809	0,44
583,255	0,44
583,702	0,43
584,149	0,43
584,596	0,43
585,042	0,43
585,489	0,43
585,936	0,42
586,382	0,42
586,829	0,42
587,275	0,42
587,722	0,42
588,168	0,42
588,615	0,42
589,061	0,42
589,508	0,42
589,954	0,41
590,4	0,41
590,847	0,41
591,293	0,41
591,739	0,41
592,185	0,41
592,632	0,41
593,078	0,41
593,524	0,41
593,97	0,4
594,416	0,4
594,862	0,4
595,308	0,4
595,754	0,4
596,2	0,4
596,646	0,4
597,092	0,4
597,538	0,39
597,984	0,39
598,43	0,39
598,876	0,39
599,321	0,39
599,767	0,39
600,213	0,39
600,659	0,39
601,104	0,39
601,55	0,39
601,995	0,39
602,441	0,38
602,887	0,38
603,332	0,38
603,778	0,38
604,223	0,38
604,668	0,38
605,114	0,38
605,559	0,38
606,005	0,38
606,45	0,38
606,895	0,38
607,341	0,38
607,786	0,38
608,231	0,38
608,676	0,37
609,121	0,37
609,566	0,36
610,012	0,36
610,457	0,36
610,902	0,36
611,347	0,35
611,792	0,35
612,237	0,35
612,682	0,35
613,127	0,35
613,571	0,35
614,016	0,35
614,461	0,36
614,906	0,36
615,351	0,36
615,795	0,36
616,24	0,36
616,685	0,36
617,129	0,36
617,574	0,36
618,019	0,36
618,463	0,36
618,908	0,36
619,352	0,36
619,797	0,36
620,241	0,36
620,686	0,36
621,13	0,36
621,574	0,35
622,019	0,35
622,463	0,35
622,907	0,35
623,352	0,35
623,796	0,35
624,24	0,35
624,684	0,35
625,128	0,35
625,572	0,35
626,016	0,35
626,461	0,35
626,905	0,35
627,349	0,35
627,793	0,35
628,236	0,35
628,68	0,35
629,124	0,35
629,568	0,35
630,012	0,35
630,456	0,34
630,9	0,34
631,343	0,34
631,787	0,34
632,231	0,34
632,674	0,34
633,118	0,34
633,562	0,34
634,005	0,34
634,449	0,34
634,892	0,34
635,336	0,34
635,779	0,34
636,223	0,34
636,666	0,34
637,109	0,34
637,553	0,34
637,996	0,34
638,439	0,34
638,883	0,34
639,326	0,34
639,769	0,34
640,212	0,34
640,655	0,34
641,099	0,34
641,542	0,34
641,985	0,34
642,428	0,34
642,871	0,34
643,314	0,34
643,757	0,34
644,2	0,34
644,643	0,34
645,085	0,34
645,528	0,34
645,971	0,33
646,414	0,33
646,857	0,33
647,299	0,33
647,742	0,33
648,185	0,33
648,627	0,33
649,07	0,33
649,513	0,33
649,955	0,33
650,398	0,33
650,84	0,33
651,283	0,33
651,725	0,33
652,168	0,33
652,61	0,33
653,052	0,33
653,495	0,33
653,937	0,26
654,379	0,2
654,821	0,21
655,264	0,21
655,706	0,21
656,148	0,21
656,59	0,21
657,032	0,21
657,474	0,21
657,916	0,21
658,358	0,2
658,8	0,26
659,242	0,33
659,684	0,33
660,126	0,33
660,568	0,33
661,01	0,33
661,452	0,33
661,894	0,33
662,335	0,33
662,777	0,32
663,219	0,32
663,661	0,32
664,102	0,32
664,544	0,32
664,985	0,32
665,427	0,32
665,869	0,32
666,31	0,32
666,752	0,32
667,193	0,32
667,634	0,32
668,076	0,32
668,517	0,32
668,959	0,32
669,4	0,32
669,841	0,32
670,282	0,32
670,724	0,32
671,165	0,32
671,606	0,32
672,047	0,32
672,488	0,32
672,929	0,32
673,37	0,32
673,811	0,32
674,252	0,32
674,693	0,32
675,134	0,32
675,575	0,32
676,016	0,32
676,457	0,32
676,898	0,32
677,339	0,32
677,78	0,32
678,22	0,32
678,661	0,32
679,102	0,32
679,542	0,32
679,983	0,32
680,424	0,32
680,864	0,32
681,305	0,32
681,745	0,32
682,186	0,32
682,626	0,32
683,067	0,32
683,507	0,32
683,948	0,32
684,388	0,32
684,828	0,31
685,269	0,31
685,709	0,31
686,149	0,31
686,589	0,31
687,029	0,31
687,47	0,31
687,91	0,31
688,35	0,31
688,79	0,31
689,23	0,31
689,67	0,31
690,11	0,31
690,55	0,31
690,99	0,31
691,43	0,31
691,87	0,31
692,31	0,3
692,749	0,3
693,189	0,3
693,629	0,3
694,069	0,3
694,508	0,3
694,948	0,3
695,388	0,3
695,827	0,3
696,267	0,3
696,706	0,31
697,146	0,31
697,586	0,31
698,025	0,31
698,464	0,31
698,904	0,31
699,343	0,31
699,783	0,31
700,222	0,31
700,661	0,31
701,101	0,31
701,54	0,31
701,979	0,31
702,418	0,31
702,857	0,31
703,297	0,31
703,736	0,31
704,175	0,31
704,614	0,31
705,053	0,3
705,492	0,3
705,931	0,3
706,37	0,3
706,809	0,3
707,248	0,3
707,687	0,3
708,125	0,3
708,564	0,3
709,003	0,3
709,442	0,3
709,88	0,3
710,319	0,3
710,758	0,3
711,196	0,3
711,635	0,3
712,074	0,3
712,512	0,3
712,951	0,3
713,389	0,3
713,828	0,3
714,266	0,29
714,705	0,29
715,143	0,29
715,581	0,29
716,02	0,29
716,458	0,29
716,896	0,29
717,334	0,29
717,773	0,29
718,211	0,29
718,649	0,29
719,087	0,29
719,525	0,29
719,963	0,29
720,401	0,29
720,839	0,29
721,277	0,29
721,715	0,29
722,153	0,29
722,591	0,29
723,029	0,29
723,467	0,29
723,905	0,29
724,342	0,29
724,78	0,29
725,218	0,29
725,656	0,29
726,093	0,29
726,531	0,29
726,969	0,29
727,406	0,29
727,844	0,29
728,281	0,29
728,719	0,29
729,156	0,29
729,594	0,29
730,031	0,29
730,469	0,29
730,906	0,29
731,343	0,29
731,781	0,29
732,218	0,29
732,655	0,29
733,092	0,29
733,53	0,29
733,967	0,29
734,404	0,29
734,841	0,29
735,278	0,29
735,715	0,29
736,152	0,29
736,589	0,28
737,026	0,28
737,463	0,28
737,9	0,28
738,337	0,28
738,774	0,28
739,211	0,28
739,647	0,28
740,084	0,28
740,521	0,28
740,958	0,28
741,394	0,28
741,831	0,28
742,268	0,28
742,704	0,28
743,141	0,27
743,577	0,27
744,014	0,27
744,45	0,27
744,887	0,27
745,323	0,27
745,76	0,27
746,196	0,27
746,632	0,27
747,069	0,27
747,505	0,27
747,941	0,27
748,378	0,27
748,814	0,27
749,25	0,27
749,686	0,27
750,122	0,27
750,558	0,27
750,994	0,28
751,43	0,28
751,866	0,28
752,302	0,28
752,738	0,28
753,174	0,28
753,61	0,28
754,046	0,28
754,482	0,28
754,918	0,28
755,354	0,28
755,789	0,28
756,225	0,28
756,661	0,28
757,096	0,28
757,532	0,28
757,968	0,28
758,403	0,28
758,839	0,28
759,274	0,27
759,71	0,27
760,145	0,27
760,581	0,26
761,016	0,26
761,452	0,26
761,887	0,25
762,322	0,25
762,758	0,25
763,193	0,24
763,628	0,24
764,063	0,23
764,499	0,23
764,934	0,22
765,369	0,22
765,804	0,21
766,239	0,21
766,674	0,21
767,109	0,2
767,544	0,2
767,979	0,19
768,414	0,18
768,849	0,17
769,284	0,17
769,719	0,16
770,154	0,15
770,588	0,15
771,023	0,14
771,458	0,13
771,893	0,12
772,327	0,11
772,762	0,1
773,197	0,09
773,631	0,08
774,066	0,07
774,5	0,07
774,935	0,06
775,369	0,05
775,804	0,05
776,238	0,04
776,673	0,03
777,107	0,03
777,541	0,02
777,976	0,02
778,41	0,01
778,844	0,01
779,279	0
779,713	-0
780,147	-0,01
780,581	-0,02
781,015	-0,03
781,449	-0,03
781,883	-0,04
782,317	-0,05
782,751	-0,06
783,185	-0,07
783,619	-0,09
784,053	-0,09
784,487	-0,11
784,921	-0,11
785,355	-0,11
785,789	-0,12
786,223	-0,14
786,656	-0,14
787,09	-0,15
787,524	-0,16
787,957	-0,17
788,391	-0,18
788,825	-0,19
789,258	-0,21
789,692	-0,22
790,125	-0,24
790,559	-0,25
790,992	-0,27
791,426	-0,29
791,859	-0,31
792,293	-0,34
792,726	-0,36
793,159	-0,37
793,593	-0,39
794,026	-0,41
794,459	-0,44
794,892	-0,46
795,326	-0,49
795,759	-0,52
796,192	-0,57
796,625	-0,61
797,058	-0,63
797,491	-0,68
797,924	-0,72
798,357	-0,77
798,79	-0,81
799,223	-0,85
799,656	-0,9
800,089	-0,95
800,522	-0,99
800,955	-1,03
801,387	-1,09
801,82	-1,14
802,253	-1,2
802,686	-1,28
803,118	-1,34
803,551	-1,39
803,984	-1,43
804,416	-1,47
804,849	-1,5
805,281	-1,6
805,714	-1,95
806,146	-2,41
806,579	-2,69
807,011	-2,85
807,444	-2,95
807,876	-3,05
808,308	-3,08
808,741	-3,11
809,173	-3,16
809,605	-3,18
810,037	-3,26
810,47	-3,19
810,902	-2,99
811,334	-2,85
811,766	-2,7
812,198	-2,47
812,63	-2,04
813,062	-1,8
813,494	-1,7
813,926	-1,61
814,358	-1,56
814,79	-1,48
815,222	-1,42
815,654	-1,37
816,086	-1,3
816,518	-1,25
816,949	-1,2
817,381	-1,15
817,813	-1,13
818,245	-1,09
818,676	-1,05
819,108	-1,02
819,54	-1,01
819,971	-0,98
820,403	-0,93
820,834	-0,92
821,266	-0,88
821,697	-0,85
822,129	-0,83
822,56	-0,81
822,991	-0,79
823,423	-0,76
823,854	-0,76
824,286	-0,73
824,717	-0,72
825,148	-0,7
825,579	-0,69
826,01	-0,67
826,442	-0,67
826,873	-0,65
827,304	-0,62
827,735	-0,61
828,166	-0,61
828,597	-0,61
829,028	-0,6
829,459	-0,61
829,89	-0,61
830,321	-0,57
830,752	-0,58
831,183	-0,57
831,613	-0,57
832,044	-0,56
832,475	-0,55
832,906	-0,57
833,336	-0,56
833,767	-0,57
834,198	-0,55
834,628	-0,53
835,059	-0,56
835,49	-0,57
835,92	-0,55
836,351	-0,55
836,781	-0,55
837,212	-0,56
837,642	-0,57
838,072	-0,55
838,503	-0,56
838,933	-0,53
839,364	-0,55
839,794	-0,53
840,224	-0,51
840,654	-0,55
841,085	-0,56
841,515	-0,54
841,945	-0,54
842,375	-0,49
842,805	-0,48
843,235	-0,47
843,665	-0,49
844,095	-0,46
844,525	-0,49
844,955	-0,49
845,385	-0,47
845,815	-0,45
846,245	-0,47
846,675	-0,47
847,105	-0,49
847,534	-0,49
847,964	-0,47
848,394	-0,46
848,824	-0,49
849,253	-0,47
849,683	-0,47
850,112	-0,48
850,542	-0,51
850,972	-0,52
851,401	-0,49
851,831	-0,48
852,26	-0,49
852,69	-0,53
853,119	-0,52
853,548	-0,52
853,978	-0,54
854,407	-0,52
854,836	-0,52
855,266	-0,51
855,695	-0,53
856,124	-0,55
856,553	-0,55
856,983	-0,57
857,412	-0,56
857,841	-0,57
858,27	-0,58
858,699	-0,58
859,128	-0,61
859,557	-0,63
859,986	-0,63
860,415	-0,61
860,844	-0,58
861,273	-0,58
861,702	-0,58
862,13	-0,57
862,559	-0,58
862,988	-0,56
863,417	-0,56
863,845	-0,55
864,274	-0,55
864,703	-0,55
865,131	-0,56
865,56	-0,57
865,989	-0,61
866,417	-0,58
866,846	-0,58
867,274	-0,57
867,703	-0,59
868,131	-0,6
868,559	-0,59
868,988	-0,61
869,416	-0,6
869,844	-0,62
870,273	-0,64
870,701	-0,61
871,129	-0,65
871,557	-0,67
871,986	-0,67
872,414	-0,68
872,842	-0,65
873,27	-0,63
873,698	-0,6
874,126	-0,63
874,554	-0,62
874,982	-0,61
875,41	-0,64
875,838	-0,59
876,266	-0,57
876,694	-0,57
877,122	-0,56
877,549	-0,61
877,977	-0,58
878,405	-0,61
878,833	-0,59
879,26	-0,57
879,688	-0,58
880,116	-0,56
880,543	-0,54
880,971	-0,53
881,399	-0,56
881,826	-0,57
882,254	-0,56
882,681	-0,6
883,109	-0,56
883,536	-0,56
883,963	-0,58
884,391	-0,56
884,818	-0,53
885,245	-0,57
885,673	-0,59
886,1	-0,56
886,527	-0,55
886,954	-0,51
887,381	-0,53
887,809	-0,54
888,236	-0,56
888,663	-0,56
889,09	-0,61
889,517	-0,63
889,944	-0,63
890,371	-0,61
890,798	-0,62
891,225	-0,62
891,652	-0,66
892,078	-0,64
892,505	-0,67
892,932	-0,62
893,359	-0,63
893,786	-0,63
894,212	-0,61
894,639	-0,63
895,066	-0,65
895,492	-0,6
895,919	-0,6
896,346	-0,59
896,772	-0,59
897,199	-0,56
897,625	-0,59
898,052	-0,55
898,478	-0,54
898,904	-0,55
899,331	-0,55
899,757	-0,57
900,183	-0,59
900,61	-0,56
901,036	-0,57
901,462	-0,57
901,888	-0,55
902,315	-0,54
902,741	-0,59
903,167	-0,57
903,593	-0,6
904,019	-0,58
904,445	-0,55
904,871	-0,57
905,297	-0,59
905,723	-0,57
906,149	-0,56
906,575	-0,58
907,001	-0,58
907,427	-0,55
907,852	-0,54
908,278	-0,56
908,704	-0,54
909,13	-0,53
909,555	-0,53
909,981	-0,52
910,407	-0,53
910,832	-0,54
911,258	-0,53
911,684	-0,53
912,109	-0,53
912,535	-0,54
912,96	-0,49
913,386	-0,52
913,811	-0,52
914,236	-0,53
914,662	-0,51
915,087	-0,54
915,512	-0,54
915,938	-0,56
916,363	-0,55
916,788	-0,57
917,213	-0,56
917,639	-0,6
918,064	-0,58
918,489	-0,58
918,914	-0,58
919,339	-0,6
919,764	-0,58
920,189	-0,58
920,614	-0,6
921,039	-0,61
921,464	-0,56
921,889	-0,59
922,314	-0,6
922,738	-0,64
923,163	-0,64
923,588	-0,65
924,013	-0,64
924,437	-0,63
924,862	-0,65
925,287	-0,61
925,711	-0,61
926,136	-0,63
926,561	-0,61
926,985	-0,6
927,41	-0,57
927,834	-0,55
928,259	-0,52
928,683	-0,51
929,108	-0,48
929,532	-0,48
929,956	-0,48
930,381	-0,46
930,805	-0,47
931,229	-0,46
931,653	-0,45
932,078	-0,45
932,502	-0,46
932,926	-0,47
933,35	-0,47
933,774	-0,46
934,198	-0,45
934,622	-0,45
935,046	-0,45
935,47	-0,45
935,894	-0,44
936,318	-0,43
936,742	-0,43
937,166	-0,43
937,59	-0,43
938,014	-0,45
938,437	-0,46
938,861	-0,47
939,285	-0,47
939,709	-0,47
940,132	-0,48
940,556	-0,49
940,98	-0,49
941,403	-0,48
941,827	-0,47
942,25	-0,49
942,674	-0,47
943,097	-0,47
943,521	-0,46
943,944	-0,48
944,368	-0,47
944,791	-0,46
945,214	-0,48
945,638	-0,48
946,061	-0,51
946,484	-0,53
946,907	-0,51
947,331	-0,51
947,754	-0,55
948,177	-0,53
948,6	-0,52
949,023	-0,53
949,446	-0,52
949,869	-0,51
950,292	-0,5
950,715	-0,47
951,138	-0,46
951,561	-0,44
951,984	-0,44
952,407	-0,42
952,83	-0,41
953,252	-0,36
953,675	-0,37
954,098	-0,38
954,521	-0,37
954,943	-0,37
955,366	-0,38
955,789	-0,36
956,211	-0,37
956,634	-0,37
957,056	-0,35
957,479	-0,37
957,902	-0,39
958,324	-0,39
958,746	-0,36
959,169	-0,36
959,591	-0,36
960,014	-0,37
960,436	-0,38
960,858	-0,38
961,281	-0,38
961,703	-0,39
962,125	-0,39
962,547	-0,37
962,969	-0,39
963,391	-0,4
963,814	-0,41
964,236	-0,4
964,658	-0,37
965,08	-0,38
965,502	-0,37
965,924	-0,34
966,346	-0,34
966,768	-0,33
967,189	-0,34
967,611	-0,33
968,033	-0,33
968,455	-0,32
968,877	-0,32
969,298	-0,34
969,72	-0,35
970,142	-0,34
970,563	-0,35
970,985	-0,34
971,407	-0,33
971,828	-0,31
972,25	-0,31
972,671	-0,29
973,093	-0,28
973,514	-0,26
973,936	-0,24
974,357	-0,23
974,778	-0,23
975,2	-0,23
975,621	-0,22
976,042	-0,2
976,464	-0,19
976,885	-0,18
977,306	-0,18
977,727	-0,18
978,148	-0,18
978,57	-0,17
978,991	-0,15
979,412	-0,14
979,833	-0,13
980,254	-0,13
980,675	-0,13
981,096	-0,13
981,517	-0,11
981,937	-0,1
982,358	-0,08
982,779	-0,06
983,2	-0,07
983,621	-0,07
984,042	-0,05
984,462	-0,05
984,883	-0,03
985,304	-0,02
985,724	-0,01
986,145	-0,01
986,565	0
986,986	0,01
987,407	0,01
987,827	0,02
988,248	0,04
988,668	0,05
989,088	0,06
989,509	0,07
989,929	0,08
990,35	0,09
990,77	0,1
991,19	0,11
991,61	0,11
992,031	0,12
992,451	0,13
992,871	0,13
993,291	0,14
993,711	0,14
994,131	0,15
994,551	0,15
994,971	0,15
995,391	0,16
995,811	0,16
996,231	0,17
996,651	0,17
997,071	0,18
997,491	0,18
997,911	0,19
998,331	0,19
998,75	0,2
999,17	0,2
999,59	0,21
1000,009	0,21
1000,429	0,22
1000,849	0,22
1001,268	0,22
1001,688	0,22
1002,107	0,23
1002,527	0,23
1002,946	0,23
1003,366	0,23
1003,785	0,23
1004,205	0,24
1004,624	0,24
1005,044	0,24
1005,463	0,24
1005,882	0,24
1006,301	0,24
1006,721	0,24
1007,14	0,24
1007,559	0,25
1007,978	0,25
1008,397	0,25
1008,816	0,25
1009,235	0,24
1009,655	0,24
1010,074	0,24
1010,492	0,24
1010,911	0,24
1011,33	0,24
1011,749	0,24
1012,168	0,24
1012,587	0,24
1013,006	0,24
1013,425	0,23
1013,843	0,23
1014,262	0,23
1014,681	0,23
1015,099	0,23
1015,518	0,23
1015,937	0,23
1016,355	0,23
1016,774	0,23
1017,192	0,23
1017,611	0,23
1018,029	0,24
1018,448	0,24
1018,866	0,24
1019,285	0,24
1019,703	0,24
1020,121	0,24
1020,54	0,24
1020,958	0,24
1021,376	0,24
1021,794	0,24
1022,213	0,24
1022,631	0,24
1023,049	0,24
1023,467	0,24
1023,885	0,24
1024,303	0,24
1024,721	0,24
1025,139	0,24
1025,557	0,24
1025,975	0,23
1026,393	0,23
1026,811	0,23
1027,229	0,23
1027,647	0,23
1028,065	0,23
1028,482	0,23
1028,9	0,23
1029,318	0,23
1029,735	0,23
1030,153	0,23
1030,571	0,23
1030,988	0,23
1031,406	0,23
1031,823	0,23
1032,241	0,23
1032,659	0,23
1033,076	0,23
1033,493	0,23
1033,911	0,23
1034,328	0,23
1034,746	0,23
1035,163	0,23
1035,58	0,23
1035,997	0,23
1036,415	0,23
1036,832	0,23
1037,249	0,23
1037,666	0,23
1038,083	0,23
1038,501	0,23
1038,918	0,23
1039,335	0,23
1039,752	0,23
1040,169	0,23
1040,586	0,23
1041,003	0,23
1041,419	0,22
1041,836	0,22
1042,253	0,22
1042,67	0,22
1043,087	0,22
1043,504	0,22
1043,92	0,22
1044,337	0,22
1044,754	0,22
1045,17	0,22
1045,587	0,22
1046,004	0,22
1046,42	0,22
1046,837	0,22
1047,253	0,22
1047,67	0,22
1048,086	0,22
1048,503	0,22
1048,919	0,22
1049,335	0,22
1049,752	0,22
1050,168	0,22
1050,584	0,22
1051,001	0,22
1051,417	0,22
1051,833	0,22
1052,249	0,22
1052,665	0,22
1053,081	0,22
1053,497	0,22
1053,914	0,22
1054,33	0,22
1054,746	0,22
1055,162	0,22
1055,578	0,22
1055,993	0,22
1056,409	0,22
1056,825	0,23
1057,241	0,23
1057,657	0,23
1058,073	0,23
1058,488	0,23
1058,904	0,23
1059,32	0,23
1059,736	0,23
1060,151	0,23
1060,567	0,23
1060,982	0,23
1061,398	0,23
1061,813	0,23
1062,229	0,23
1062,644	0,23
1063,06	0,23
1063,475	0,22
1063,891	0,22
1064,306	0,22
1064,721	0,22
1065,137	0,22
1065,552	0,22
1065,967	0,22
1066,382	0,22
1066,798	0,22
1067,213	0,22
1067,628	0,22
1068,043	0,22
1068,458	0,22
1068,873	0,22
1069,288	0,22
1069,703	0,22
1070,118	0,22
1070,533	0,23
1070,948	0,23
1071,363	0,23
1071,778	0,23
1072,193	0,23
1072,607	0,23
1073,022	0,23
1073,437	0,23
1073,852	0,23
1074,266	0,23
1074,681	0,23
1075,096	0,23
1075,51	0,23
1075,925	0,23
1076,339	0,23
1076,754	0,23
1077,168	0,23
1077,583	0,23
1077,997	0,23
1078,412	0,23
1078,826	0,23
1079,24	0,22
1079,655	0,22
1080,069	0,22
1080,483	0,22
1080,897	0,22
1081,312	0,22
1081,726	0,22
1082,14	0,22
1082,554	0,22
1082,968	0,22
1083,382	0,22
1083,796	0,22
1084,21	0,22
1084,624	0,22
1085,038	0,21
1085,452	0,21
1085,866	0,21
1086,28	0,21
1086,694	0,21
1087,108	0,21
1087,521	0,21
1087,935	0,21
1088,349	0,21
1088,763	0,2
1089,176	0,2
1089,59	0,2
1090,004	0,2
1090,417	0,2
1090,831	0,2
1091,244	0,19
1091,658	0,19
1092,071	0,19
1092,485	0,19
1092,898	0,19
1093,312	0,19
1093,725	0,19
1094,138	0,19
1094,552	0,18
1094,965	0,18
1095,378	0,18
1095,791	0,18
1096,205	0,18
1096,618	0,18
1097,031	0,18
1097,444	0,17
1097,857	0,17
1098,27	0,17
1098,683	0,17
1099,096	0,16
1099,509	0,16
1099,922	0,16
1100,335	0,16
1100,748	0,15
1101,161	0,15
1101,574	0,15
1101,986	0,14
1102,399	0,14
1102,812	0,14
1103,225	0,14
1103,637	0,13
1104,05	0,13
1104,463	0,13
1104,875	0,13
1105,288	0,13
1105,7	0,12
1106,113	0,12
1106,525	0,12
1106,938	0,12
1107,35	0,11
1107,763	0,11
1108,175	0,11
1108,588	0,11
1109	0,1
1109,412	0,1
1109,824	0,1
1110,237	0,1
1110,649	0,1
1111,061	0,08
