Data from 18C-808nm-8A_Absorbance__1171__01171.txt Node

Date: Mon Jul 17 17:05:11 CEST 2023
User: Laser008
Spectrometer: MAYP115816
Trigger mode: 0
Integration Time (sec): 2,500000E-1
Scans to average: 10
Electric dark correction enabled: true
Nonlinearity correction enabled: true
Boxcar width: 5
XAxis mode: Wavelengths
Number of Pixels in Spectrum: 2068
>>>>>Begin Spectral Data<<<<<
198,914	-0,57
199,384	-0,41
199,855	-0,32
200,325	-0,25
200,796	-0,23
201,266	-0,19
201,737	-0,17
202,207	-0,17
202,677	-0,18
203,147	-0,15
203,618	-0,14
204,088	-0,13
204,558	-0,12
205,028	-0,1
205,498	-0,11
205,968	-0,11
206,439	-0,12
206,909	-0,11
207,379	-0,11
207,849	-0,11
208,319	-0,12
208,789	-0,12
209,258	-0,12
209,728	-0,14
210,198	-0,14
210,668	-0,12
211,138	-0,13
211,608	-0,13
212,077	-0,14
212,547	-0,14
213,017	-0,14
213,486	-0,15
213,956	-0,16
214,426	-0,17
214,895	-0,17
215,365	-0,17
215,834	-0,18
216,304	-0,18
216,773	-0,18
217,243	-0,18
217,712	-0,19
218,181	-0,19
218,651	-0,19
219,12	-0,19
219,589	-0,19
220,058	-0,17
220,528	-0,18
220,997	-0,18
221,466	-0,2
221,935	-0,2
222,404	-0,2
222,873	-0,19
223,342	-0,18
223,812	-0,18
224,281	-0,18
224,749	-0,19
225,218	-0,2
225,687	-0,2
226,156	-0,19
226,625	-0,18
227,094	-0,17
227,563	-0,17
228,031	-0,19
228,5	-0,19
228,969	-0,2
229,438	-0,19
229,906	-0,18
230,375	-0,17
230,844	-0,17
231,312	-0,17
231,781	-0,18
232,249	-0,17
232,718	-0,17
233,186	-0,16
233,655	-0,17
234,123	-0,16
234,591	-0,16
235,06	-0,17
235,528	-0,18
235,996	-0,18
236,465	-0,17
236,933	-0,16
237,401	-0,17
237,869	-0,16
238,337	-0,16
238,805	-0,15
239,274	-0,14
239,742	-0,14
240,21	-0,13
240,678	-0,12
241,146	-0,11
241,614	-0,12
242,081	-0,11
242,549	-0,12
243,017	-0,12
243,485	-0,13
243,953	-0,13
244,421	-0,12
244,888	-0,12
245,356	-0,12
245,824	-0,13
246,291	-0,13
246,759	-0,14
247,227	-0,15
247,694	-0,13
248,162	-0,12
248,629	-0,11
249,097	-0,11
249,564	-0,13
250,032	-0,14
250,499	-0,13
250,967	-0,14
251,434	-0,14
251,901	-0,14
252,369	-0,14
252,836	-0,15
253,303	-0,17
253,77	-0,18
254,237	-0,18
254,705	-0,18
255,172	-0,17
255,639	-0,17
256,106	-0,18
256,573	-0,17
257,04	-0,17
257,507	-0,18
257,974	-0,18
258,441	-0,16
258,908	-0,16
259,375	-0,17
259,841	-0,17
260,308	-0,18
260,775	-0,17
261,242	-0,16
261,709	-0,17
262,175	-0,19
262,642	-0,18
263,109	-0,18
263,575	-0,2
264,042	-0,19
264,508	-0,18
264,975	-0,2
265,441	-0,21
265,908	-0,22
266,374	-0,22
266,841	-0,21
267,307	-0,21
267,773	-0,2
268,24	-0,2
268,706	-0,19
269,172	-0,21
269,639	-0,22
270,105	-0,2
270,571	-0,21
271,037	-0,21
271,503	-0,22
271,969	-0,22
272,435	-0,21
272,902	-0,23
273,368	-0,24
273,834	-0,24
274,3	-0,23
274,765	-0,23
275,231	-0,23
275,697	-0,21
276,163	-0,21
276,629	-0,21
277,095	-0,21
277,56	-0,2
278,026	-0,21
278,492	-0,2
278,958	-0,2
279,423	-0,2
279,889	-0,2
280,354	-0,21
280,82	-0,21
281,286	-0,22
281,751	-0,23
282,217	-0,23
282,682	-0,23
283,147	-0,23
283,613	-0,23
284,078	-0,23
284,544	-0,24
285,009	-0,24
285,474	-0,23
285,939	-0,25
286,405	-0,24
286,87	-0,23
287,335	-0,23
287,8	-0,22
288,265	-0,21
288,73	-0,22
289,195	-0,24
289,66	-0,24
290,125	-0,23
290,59	-0,24
291,055	-0,23
291,52	-0,23
291,985	-0,24
292,45	-0,25
292,915	-0,25
293,38	-0,25
293,844	-0,23
294,309	-0,22
294,774	-0,21
295,239	-0,22
295,703	-0,22
296,168	-0,22
296,632	-0,21
297,097	-0,19
297,562	-0,17
298,026	-0,17
298,491	-0,17
298,955	-0,17
299,419	-0,16
299,884	-0,16
300,348	-0,15
300,813	-0,14
301,277	-0,14
301,741	-0,14
302,205	-0,14
302,67	-0,14
303,134	-0,15
303,598	-0,15
304,062	-0,14
304,526	-0,14
304,99	-0,15
305,454	-0,15
305,919	-0,15
306,383	-0,15
306,847	-0,14
307,31	-0,15
307,774	-0,15
308,238	-0,14
308,702	-0,14
309,166	-0,15
309,63	-0,15
310,094	-0,12
310,557	-0,12
311,021	-0,12
311,485	-0,12
311,948	-0,12
312,412	-0,12
312,876	-0,11
313,339	-0,13
313,803	-0,14
314,266	-0,13
314,73	-0,14
315,193	-0,15
315,657	-0,14
316,12	-0,14
316,584	-0,12
317,047	-0,12
317,51	-0,11
317,973	-0,1
318,437	-0,09
318,9	-0,08
319,363	-0,07
319,826	-0,07
320,29	-0,07
320,753	-0,07
321,216	-0,07
321,679	-0,07
322,142	-0,07
322,605	-0,07
323,068	-0,08
323,531	-0,08
323,994	-0,07
324,457	-0,08
324,92	-0,06
325,382	-0,06
325,845	-0,06
326,308	-0,05
326,771	-0,06
327,233	-0,05
327,696	-0,04
328,159	-0,03
328,622	-0,02
329,084	-0,03
329,547	-0,02
330,009	-0,02
330,472	-0,01
330,934	-0
331,397	0
331,859	0,01
332,322	0,01
332,784	0,01
333,246	0
333,709	0
334,171	0,01
334,633	0,01
335,096	0,01
335,558	0,01
336,02	0,01
336,482	0,01
336,944	0,01
337,406	0,02
337,868	0,02
338,331	0,02
338,793	0,03
339,255	0,04
339,717	0,04
340,178	0,05
340,64	0,05
341,102	0,06
341,564	0,07
342,026	0,08
342,488	0,08
342,949	0,1
343,411	0,12
343,873	0,14
344,335	0,16
344,796	0,19
345,258	0,22
345,719	0,24
346,181	0,27
346,643	0,29
347,104	0,31
347,566	0,33
348,027	0,35
348,488	0,36
348,95	0,37
349,411	0,38
349,873	0,39
350,334	0,4
350,795	0,41
351,256	0,41
351,718	0,42
352,179	0,42
352,64	0,42
353,101	0,42
353,562	0,43
354,023	0,43
354,484	0,43
354,945	0,43
355,406	0,43
355,867	0,43
356,328	0,43
356,789	0,43
357,25	0,43
357,711	0,43
358,172	0,44
358,633	0,44
359,093	0,44
359,554	0,44
360,015	0,44
360,476	0,44
360,936	0,44
361,397	0,44
361,858	0,44
362,318	0,44
362,779	0,44
363,239	0,44
363,7	0,44
364,16	0,44
364,621	0,44
365,081	0,44
365,541	0,44
366,002	0,44
366,462	0,44
366,922	0,44
367,383	0,44
367,843	0,44
368,303	0,44
368,763	0,44
369,223	0,44
369,684	0,44
370,144	0,44
370,604	0,44
371,064	0,44
371,524	0,44
371,984	0,44
372,444	0,44
372,904	0,44
373,363	0,44
373,823	0,44
374,283	0,44
374,743	0,44
375,203	0,44
375,663	0,44
376,122	0,44
376,582	0,44
377,042	0,44
377,501	0,44
377,961	0,44
378,42	0,44
378,88	0,44
379,34	0,44
379,799	0,44
380,259	0,43
380,718	0,43
381,177	0,43
381,637	0,43
382,096	0,43
382,555	0,43
383,015	0,43
383,474	0,43
383,933	0,43
384,393	0,43
384,852	0,43
385,311	0,43
385,77	0,43
386,229	0,43
386,688	0,43
387,147	0,43
387,606	0,43
388,065	0,43
388,524	0,43
388,983	0,43
389,442	0,43
389,901	0,43
390,36	0,43
390,819	0,43
391,277	0,43
391,736	0,43
392,195	0,43
392,654	0,43
393,112	0,43
393,571	0,43
394,03	0,43
394,488	0,43
394,947	0,43
395,405	0,42
395,864	0,43
396,322	0,43
396,781	0,43
397,239	0,42
397,698	0,42
398,156	0,42
398,614	0,42
399,073	0,42
399,531	0,42
399,989	0,42
400,447	0,42
400,905	0,42
401,364	0,42
401,822	0,42
402,28	0,42
402,738	0,42
403,196	0,42
403,654	0,42
404,112	0,42
404,57	0,42
405,028	0,42
405,486	0,42
405,944	0,42
406,402	0,42
406,859	0,42
407,317	0,42
407,775	0,42
408,233	0,42
408,691	0,42
409,148	0,42
409,606	0,42
410,064	0,42
410,521	0,42
410,979	0,42
411,436	0,42
411,894	0,42
412,351	0,42
412,809	0,42
413,266	0,42
413,724	0,42
414,181	0,42
414,638	0,42
415,096	0,42
415,553	0,41
416,01	0,41
416,467	0,41
416,925	0,41
417,382	0,41
417,839	0,41
418,296	0,41
418,753	0,41
419,21	0,41
419,667	0,41
420,124	0,41
420,581	0,41
421,038	0,41
421,495	0,41
421,952	0,41
422,409	0,41
422,866	0,41
423,322	0,41
423,779	0,41
424,236	0,41
424,693	0,41
425,149	0,41
425,606	0,41
426,063	0,41
426,519	0,41
426,976	0,41
427,433	0,41
427,889	0,41
428,346	0,41
428,802	0,41
429,258	0,41
429,715	0,41
430,171	0,41
430,628	0,41
431,084	0,41
431,54	0,41
431,997	0,41
432,453	0,41
432,909	0,41
433,365	0,41
433,821	0,41
434,277	0,41
434,734	0,41
435,19	0,41
435,646	0,41
436,102	0,41
436,558	0,41
437,014	0,41
437,47	0,41
437,925	0,41
438,381	0,41
438,837	0,41
439,293	0,41
439,749	0,41
440,205	0,41
440,66	0,41
441,116	0,41
441,572	0,41
442,027	0,41
442,483	0,41
442,939	0,41
443,394	0,41
443,85	0,41
444,305	0,41
444,761	0,41
445,216	0,41
445,672	0,41
446,127	0,41
446,582	0,41
447,038	0,41
447,493	0,41
447,948	0,41
448,403	0,41
448,859	0,41
449,314	0,41
449,769	0,41
450,224	0,41
450,679	0,41
451,134	0,41
451,589	0,41
452,044	0,41
452,499	0,41
452,954	0,41
453,409	0,41
453,864	0,41
454,319	0,41
454,774	0,41
455,229	0,41
455,684	0,41
456,138	0,41
456,593	0,41
457,048	0,41
457,503	0,41
457,957	0,41
458,412	0,41
458,866	0,41
459,321	0,41
459,776	0,41
460,23	0,41
460,685	0,41
461,139	0,41
461,593	0,41
462,048	0,41
462,502	0,41
462,957	0,41
463,411	0,41
463,865	0,42
464,319	0,42
464,774	0,42
465,228	0,42
465,682	0,42
466,136	0,42
466,59	0,42
467,044	0,42
467,499	0,42
467,953	0,42
468,407	0,42
468,861	0,42
469,315	0,42
469,768	0,42
470,222	0,42
470,676	0,42
471,13	0,42
471,584	0,42
472,038	0,42
472,491	0,42
472,945	0,42
473,399	0,42
473,852	0,42
474,306	0,42
474,76	0,42
475,213	0,42
475,667	0,43
476,12	0,43
476,574	0,43
477,027	0,43
477,481	0,43
477,934	0,43
478,388	0,43
478,841	0,43
479,294	0,43
479,748	0,43
480,201	0,43
480,654	0,44
481,107	0,44
481,561	0,44
482,014	0,44
482,467	0,44
482,92	0,44
483,373	0,44
483,826	0,44
484,279	0,44
484,732	0,44
485,185	0,45
485,638	0,45
486,091	0,45
486,544	0,45
486,997	0,45
487,449	0,45
487,902	0,45
488,355	0,45
488,808	0,46
489,26	0,46
489,713	0,46
490,166	0,46
490,618	0,46
491,071	0,46
491,523	0,47
491,976	0,47
492,429	0,47
492,881	0,47
493,333	0,47
493,786	0,47
494,238	0,48
494,691	0,48
495,143	0,48
495,595	0,48
496,048	0,48
496,5	0,49
496,952	0,49
497,404	0,49
497,856	0,49
498,309	0,5
498,761	0,5
499,213	0,5
499,665	0,5
500,117	0,51
500,569	0,51
501,021	0,51
501,473	0,51
501,925	0,51
502,377	0,52
502,828	0,52
503,28	0,52
503,732	0,52
504,184	0,53
504,636	0,53
505,087	0,53
505,539	0,53
505,991	0,54
506,442	0,54
506,894	0,54
507,345	0,54
507,797	0,55
508,249	0,55
508,7	0,55
509,151	0,55
509,603	0,56
510,054	0,56
510,506	0,56
510,957	0,56
511,408	0,57
511,86	0,57
512,311	0,57
512,762	0,57
513,213	0,57
513,665	0,58
514,116	0,58
514,567	0,58
515,018	0,58
515,469	0,58
515,92	0,59
516,371	0,59
516,822	0,59
517,273	0,59
517,724	0,59
518,175	0,6
518,626	0,6
519,076	0,6
519,527	0,6
519,978	0,6
520,429	0,6
520,88	0,6
521,33	0,61
521,781	0,61
522,232	0,61
522,682	0,61
523,133	0,61
523,583	0,61
524,034	0,61
524,484	0,62
524,935	0,62
525,385	0,62
525,836	0,62
526,286	0,62
526,736	0,62
527,187	0,62
527,637	0,62
528,087	0,62
528,538	0,62
528,988	0,62
529,438	0,62
529,888	0,62
530,338	0,62
530,788	0,61
531,238	0,61
531,688	0,61
532,139	0,61
532,589	0,61
533,038	0,61
533,488	0,61
533,938	0,61
534,388	0,61
534,838	0,61
535,288	0,61
535,738	0,61
536,187	0,6
536,637	0,6
537,087	0,6
537,537	0,6
537,986	0,6
538,436	0,59
538,885	0,59
539,335	0,59
539,785	0,59
540,234	0,58
540,684	0,58
541,133	0,58
541,582	0,58
542,032	0,57
542,481	0,57
542,931	0,57
543,38	0,57
543,829	0,56
544,278	0,56
544,728	0,56
545,177	0,56
545,626	0,55
546,075	0,55
546,524	0,55
546,973	0,55
547,422	0,55
547,871	0,54
548,32	0,54
548,769	0,54
549,218	0,54
549,667	0,54
550,116	0,54
550,565	0,54
551,014	0,53
551,463	0,53
551,911	0,53
552,36	0,53
552,809	0,53
553,258	0,52
553,706	0,52
554,155	0,52
554,603	0,52
555,052	0,51
555,501	0,51
555,949	0,51
556,398	0,51
556,846	0,51
557,294	0,5
557,743	0,5
558,191	0,5
558,64	0,49
559,088	0,49
559,536	0,49
559,985	0,49
560,433	0,49
560,881	0,48
561,329	0,48
561,777	0,48
562,225	0,48
562,674	0,47
563,122	0,47
563,57	0,47
564,018	0,47
564,466	0,47
564,914	0,46
565,362	0,46
565,809	0,46
566,257	0,46
566,705	0,45
567,153	0,45
567,601	0,45
568,048	0,45
568,496	0,45
568,944	0,44
569,392	0,44
569,839	0,44
570,287	0,44
570,734	0,44
571,182	0,43
571,63	0,43
572,077	0,43
572,525	0,43
572,972	0,43
573,419	0,43
573,867	0,42
574,314	0,42
574,761	0,42
575,209	0,42
575,656	0,42
576,103	0,42
576,551	0,41
576,998	0,41
577,445	0,41
577,892	0,41
578,339	0,41
578,786	0,41
579,233	0,41
579,68	0,4
580,127	0,4
580,574	0,4
581,021	0,4
581,468	0,4
581,915	0,4
582,362	0,4
582,809	0,39
583,255	0,39
583,702	0,39
584,149	0,39
584,596	0,39
585,042	0,39
585,489	0,39
585,936	0,39
586,382	0,38
586,829	0,38
587,275	0,38
587,722	0,38
588,168	0,38
588,615	0,38
589,061	0,38
589,508	0,38
589,954	0,38
590,4	0,38
590,847	0,38
591,293	0,37
591,739	0,37
592,185	0,37
592,632	0,37
593,078	0,37
593,524	0,37
593,97	0,37
594,416	0,37
594,862	0,37
595,308	0,37
595,754	0,37
596,2	0,37
596,646	0,36
597,092	0,36
597,538	0,36
597,984	0,36
598,43	0,36
598,876	0,36
599,321	0,36
599,767	0,36
600,213	0,36
600,659	0,36
601,104	0,36
601,55	0,36
601,995	0,35
602,441	0,35
602,887	0,35
603,332	0,35
603,778	0,35
604,223	0,35
604,668	0,35
605,114	0,35
605,559	0,35
606,005	0,35
606,45	0,35
606,895	0,35
607,341	0,35
607,786	0,35
608,231	0,35
608,676	0,35
609,121	0,34
609,566	0,34
610,012	0,34
610,457	0,33
610,902	0,33
611,347	0,33
611,792	0,33
612,237	0,33
612,682	0,33
613,127	0,33
613,571	0,33
614,016	0,33
614,461	0,33
614,906	0,33
615,351	0,33
615,795	0,33
616,24	0,33
616,685	0,33
617,129	0,33
617,574	0,33
618,019	0,33
618,463	0,33
618,908	0,33
619,352	0,33
619,797	0,33
620,241	0,33
620,686	0,33
621,13	0,33
621,574	0,33
622,019	0,33
622,463	0,33
622,907	0,33
623,352	0,33
623,796	0,33
624,24	0,33
624,684	0,33
625,128	0,33
625,572	0,33
626,016	0,33
626,461	0,33
626,905	0,33
627,349	0,33
627,793	0,33
628,236	0,33
628,68	0,33
629,124	0,33
629,568	0,32
630,012	0,32
630,456	0,32
630,9	0,32
631,343	0,32
631,787	0,32
632,231	0,32
632,674	0,32
633,118	0,32
633,562	0,32
634,005	0,32
634,449	0,32
634,892	0,32
635,336	0,32
635,779	0,32
636,223	0,32
636,666	0,32
637,109	0,32
637,553	0,32
637,996	0,32
638,439	0,32
638,883	0,32
639,326	0,32
639,769	0,32
640,212	0,32
640,655	0,32
641,099	0,32
641,542	0,32
641,985	0,32
642,428	0,32
642,871	0,32
643,314	0,32
643,757	0,32
644,2	0,32
644,643	0,32
645,085	0,32
645,528	0,32
645,971	0,32
646,414	0,31
646,857	0,31
647,299	0,31
647,742	0,31
648,185	0,31
648,627	0,31
649,07	0,31
649,513	0,31
649,955	0,31
650,398	0,31
650,84	0,31
651,283	0,31
651,725	0,31
652,168	0,31
652,61	0,31
653,052	0,31
653,495	0,31
653,937	0,24
654,379	0,19
654,821	0,2
655,264	0,2
655,706	0,2
656,148	0,2
656,59	0,2
657,032	0,2
657,474	0,2
657,916	0,2
658,358	0,19
658,8	0,24
659,242	0,31
659,684	0,31
660,126	0,31
660,568	0,31
661,01	0,31
661,452	0,31
661,894	0,31
662,335	0,31
662,777	0,31
663,219	0,31
663,661	0,31
664,102	0,31
664,544	0,31
664,985	0,31
665,427	0,31
665,869	0,31
666,31	0,31
666,752	0,31
667,193	0,31
667,634	0,31
668,076	0,31
668,517	0,31
668,959	0,31
669,4	0,31
669,841	0,31
670,282	0,31
670,724	0,3
671,165	0,3
671,606	0,3
672,047	0,3
672,488	0,3
672,929	0,3
673,37	0,3
673,811	0,3
674,252	0,3
674,693	0,3
675,134	0,3
675,575	0,3
676,016	0,3
676,457	0,3
676,898	0,3
677,339	0,3
677,78	0,3
678,22	0,3
678,661	0,3
679,102	0,3
679,542	0,3
679,983	0,3
680,424	0,3
680,864	0,3
681,305	0,3
681,745	0,3
682,186	0,3
682,626	0,3
683,067	0,3
683,507	0,3
683,948	0,3
684,388	0,3
684,828	0,3
685,269	0,3
685,709	0,3
686,149	0,3
686,589	0,3
687,029	0,29
687,47	0,29
687,91	0,29
688,35	0,29
688,79	0,29
689,23	0,29
689,67	0,29
690,11	0,29
690,55	0,29
690,99	0,29
691,43	0,29
691,87	0,29
692,31	0,29
692,749	0,29
693,189	0,29
693,629	0,29
694,069	0,29
694,508	0,29
694,948	0,29
695,388	0,29
695,827	0,29
696,267	0,29
696,706	0,29
697,146	0,29
697,586	0,29
698,025	0,29
698,464	0,29
698,904	0,29
699,343	0,29
699,783	0,29
700,222	0,29
700,661	0,29
701,101	0,29
701,54	0,29
701,979	0,29
702,418	0,29
702,857	0,29
703,297	0,29
703,736	0,29
704,175	0,29
704,614	0,29
705,053	0,29
705,492	0,29
705,931	0,29
706,37	0,29
706,809	0,29
707,248	0,28
707,687	0,28
708,125	0,28
708,564	0,28
709,003	0,28
709,442	0,28
709,88	0,28
710,319	0,28
710,758	0,28
711,196	0,28
711,635	0,28
712,074	0,28
712,512	0,28
712,951	0,28
713,389	0,28
713,828	0,28
714,266	0,28
714,705	0,28
715,143	0,28
715,581	0,28
716,02	0,28
716,458	0,28
716,896	0,27
717,334	0,27
717,773	0,27
718,211	0,27
718,649	0,27
719,087	0,27
719,525	0,27
719,963	0,27
720,401	0,27
720,839	0,27
721,277	0,28
721,715	0,28
722,153	0,28
722,591	0,28
723,029	0,28
723,467	0,28
723,905	0,28
724,342	0,28
724,78	0,27
725,218	0,27
725,656	0,28
726,093	0,27
726,531	0,27
726,969	0,27
727,406	0,27
727,844	0,27
728,281	0,27
728,719	0,27
729,156	0,27
729,594	0,27
730,031	0,27
730,469	0,27
730,906	0,27
731,343	0,27
731,781	0,27
732,218	0,27
732,655	0,27
733,092	0,27
733,53	0,27
733,967	0,27
734,404	0,27
734,841	0,27
735,278	0,27
735,715	0,27
736,152	0,27
736,589	0,27
737,026	0,27
737,463	0,27
737,9	0,27
738,337	0,27
738,774	0,26
739,211	0,26
739,647	0,26
740,084	0,26
740,521	0,26
740,958	0,26
741,394	0,26
741,831	0,26
742,268	0,26
742,704	0,26
743,141	0,26
743,577	0,26
744,014	0,26
744,45	0,25
744,887	0,25
745,323	0,25
745,76	0,25
746,196	0,25
746,632	0,25
747,069	0,25
747,505	0,25
747,941	0,25
748,378	0,25
748,814	0,25
749,25	0,25
749,686	0,25
750,122	0,25
750,558	0,26
750,994	0,26
751,43	0,26
751,866	0,26
752,302	0,26
752,738	0,26
753,174	0,26
753,61	0,26
754,046	0,27
754,482	0,27
754,918	0,27
755,354	0,27
755,789	0,27
756,225	0,27
756,661	0,27
757,096	0,26
757,532	0,26
757,968	0,26
758,403	0,26
758,839	0,26
759,274	0,26
759,71	0,26
760,145	0,25
760,581	0,25
761,016	0,24
761,452	0,24
761,887	0,24
762,322	0,24
762,758	0,23
763,193	0,23
763,628	0,22
764,063	0,22
764,499	0,21
764,934	0,21
765,369	0,2
765,804	0,2
766,239	0,19
766,674	0,19
767,109	0,19
767,544	0,18
767,979	0,17
768,414	0,17
768,849	0,16
769,284	0,15
769,719	0,15
770,154	0,15
770,588	0,14
771,023	0,13
771,458	0,12
771,893	0,12
772,327	0,11
772,762	0,1
773,197	0,09
773,631	0,09
774,066	0,08
774,5	0,07
774,935	0,06
775,369	0,05
775,804	0,04
776,238	0,04
776,673	0,03
777,107	0,02
777,541	0,02
777,976	0,01
778,41	0,01
778,844	-0
779,279	-0,01
779,713	-0,02
780,147	-0,02
780,581	-0,03
781,015	-0,05
781,449	-0,05
781,883	-0,06
782,317	-0,08
782,751	-0,09
783,185	-0,09
783,619	-0,1
784,053	-0,11
784,487	-0,11
784,921	-0,12
785,355	-0,12
785,789	-0,13
786,223	-0,14
786,656	-0,15
787,09	-0,16
787,524	-0,16
787,957	-0,17
788,391	-0,19
788,825	-0,21
789,258	-0,23
789,692	-0,24
790,125	-0,26
790,559	-0,28
790,992	-0,29
791,426	-0,32
791,859	-0,33
792,293	-0,36
792,726	-0,38
793,159	-0,39
793,593	-0,41
794,026	-0,43
794,459	-0,46
794,892	-0,49
795,326	-0,51
795,759	-0,55
796,192	-0,59
796,625	-0,64
797,058	-0,66
797,491	-0,71
797,924	-0,75
798,357	-0,8
798,79	-0,84
799,223	-0,88
799,656	-0,94
800,089	-0,98
800,522	-1,03
800,955	-1,07
801,387	-1,13
801,82	-1,18
802,253	-1,24
802,686	-1,32
803,118	-1,38
803,551	-1,43
803,984	-1,48
804,416	-1,52
804,849	-1,56
805,281	-1,7
805,714	-2,08
806,146	-2,49
806,579	-2,74
807,011	-2,89
807,444	-2,98
807,876	-3,06
808,308	-3,1
808,741	-3,12
809,173	-3,18
809,605	-3,2
810,037	-3,27
810,47	-3,18
810,902	-2,98
811,334	-2,83
811,766	-2,68
812,198	-2,43
812,63	-2,02
813,062	-1,81
813,494	-1,71
813,926	-1,63
814,358	-1,57
814,79	-1,49
815,222	-1,43
815,654	-1,38
816,086	-1,32
816,518	-1,26
816,949	-1,21
817,381	-1,17
817,813	-1,15
818,245	-1,11
818,676	-1,07
819,108	-1,03
819,54	-1,02
819,971	-0,99
820,403	-0,94
820,834	-0,93
821,266	-0,88
821,697	-0,86
822,129	-0,84
822,56	-0,82
822,991	-0,8
823,423	-0,77
823,854	-0,76
824,286	-0,74
824,717	-0,72
825,148	-0,7
825,579	-0,69
826,01	-0,68
826,442	-0,67
826,873	-0,66
827,304	-0,62
827,735	-0,61
828,166	-0,62
828,597	-0,61
829,028	-0,61
829,459	-0,62
829,89	-0,62
830,321	-0,58
830,752	-0,57
831,183	-0,57
831,613	-0,55
832,044	-0,55
832,475	-0,53
832,906	-0,54
833,336	-0,54
833,767	-0,55
834,198	-0,53
834,628	-0,52
835,059	-0,54
835,49	-0,55
835,92	-0,52
836,351	-0,53
836,781	-0,53
837,212	-0,54
837,642	-0,55
838,072	-0,53
838,503	-0,54
838,933	-0,51
839,364	-0,52
839,794	-0,5
840,224	-0,49
840,654	-0,53
841,085	-0,53
841,515	-0,51
841,945	-0,51
842,375	-0,46
842,805	-0,45
843,235	-0,44
843,665	-0,46
844,095	-0,44
844,525	-0,47
844,955	-0,47
845,385	-0,45
845,815	-0,44
846,245	-0,45
846,675	-0,46
847,105	-0,49
847,534	-0,5
847,964	-0,48
848,394	-0,46
848,824	-0,49
849,253	-0,48
849,683	-0,48
850,112	-0,49
850,542	-0,52
850,972	-0,52
851,401	-0,5
851,831	-0,49
852,26	-0,49
852,69	-0,53
853,119	-0,53
853,548	-0,53
853,978	-0,53
854,407	-0,51
854,836	-0,51
855,266	-0,5
855,695	-0,51
856,124	-0,52
856,553	-0,53
856,983	-0,55
857,412	-0,54
857,841	-0,55
858,27	-0,56
858,699	-0,57
859,128	-0,6
859,557	-0,61
859,986	-0,62
860,415	-0,61
860,844	-0,58
861,273	-0,58
861,702	-0,59
862,13	-0,57
862,559	-0,58
862,988	-0,56
863,417	-0,55
863,845	-0,54
864,274	-0,55
864,703	-0,54
865,131	-0,54
865,56	-0,55
865,989	-0,57
866,417	-0,54
866,846	-0,55
867,274	-0,54
867,703	-0,56
868,131	-0,58
868,559	-0,58
868,988	-0,59
869,416	-0,59
869,844	-0,59
870,273	-0,62
870,701	-0,6
871,129	-0,64
871,557	-0,66
871,986	-0,66
872,414	-0,67
872,842	-0,65
873,27	-0,63
873,698	-0,61
874,126	-0,64
874,554	-0,63
874,982	-0,62
875,41	-0,65
875,838	-0,59
876,266	-0,57
876,694	-0,57
877,122	-0,56
877,549	-0,6
877,977	-0,57
878,405	-0,59
878,833	-0,57
879,26	-0,55
879,688	-0,56
880,116	-0,53
880,543	-0,52
880,971	-0,5
881,399	-0,54
881,826	-0,55
882,254	-0,53
882,681	-0,56
883,109	-0,52
883,536	-0,53
883,963	-0,55
884,391	-0,52
884,818	-0,51
885,245	-0,54
885,673	-0,57
886,1	-0,54
886,527	-0,53
886,954	-0,51
887,381	-0,52
887,809	-0,53
888,236	-0,54
888,663	-0,54
889,09	-0,59
889,517	-0,62
889,944	-0,62
890,371	-0,6
890,798	-0,6
891,225	-0,6
891,652	-0,63
892,078	-0,61
892,505	-0,64
892,932	-0,59
893,359	-0,6
893,786	-0,6
894,212	-0,56
894,639	-0,58
895,066	-0,61
895,492	-0,55
895,919	-0,55
896,346	-0,54
896,772	-0,54
897,199	-0,51
897,625	-0,54
898,052	-0,51
898,478	-0,49
898,904	-0,5
899,331	-0,5
899,757	-0,52
900,183	-0,54
900,61	-0,52
901,036	-0,54
901,462	-0,53
901,888	-0,52
902,315	-0,5
902,741	-0,55
903,167	-0,54
903,593	-0,57
904,019	-0,55
904,445	-0,52
904,871	-0,55
905,297	-0,57
905,723	-0,56
906,149	-0,56
906,575	-0,57
907,001	-0,58
907,427	-0,55
907,852	-0,54
908,278	-0,54
908,704	-0,52
909,13	-0,52
909,555	-0,51
909,981	-0,49
910,407	-0,48
910,832	-0,47
911,258	-0,47
911,684	-0,47
912,109	-0,47
912,535	-0,5
912,96	-0,45
913,386	-0,48
913,811	-0,48
914,236	-0,5
914,662	-0,48
915,087	-0,52
915,512	-0,52
915,938	-0,54
916,363	-0,53
916,788	-0,55
917,213	-0,53
917,639	-0,59
918,064	-0,57
918,489	-0,57
918,914	-0,57
919,339	-0,59
919,764	-0,56
920,189	-0,55
920,614	-0,58
921,039	-0,59
921,464	-0,55
921,889	-0,59
922,314	-0,59
922,738	-0,62
923,163	-0,65
923,588	-0,65
924,013	-0,64
924,437	-0,64
924,862	-0,65
925,287	-0,61
925,711	-0,62
926,136	-0,64
926,561	-0,61
926,985	-0,6
927,41	-0,58
927,834	-0,54
928,259	-0,51
928,683	-0,48
929,108	-0,46
929,532	-0,47
929,956	-0,46
930,381	-0,44
930,805	-0,44
931,229	-0,44
931,653	-0,42
932,078	-0,42
932,502	-0,43
932,926	-0,45
933,35	-0,46
933,774	-0,45
934,198	-0,43
934,622	-0,43
935,046	-0,45
935,47	-0,46
935,894	-0,45
936,318	-0,46
936,742	-0,46
937,166	-0,46
937,59	-0,44
938,014	-0,47
938,437	-0,47
938,861	-0,49
939,285	-0,49
939,709	-0,48
940,132	-0,48
940,556	-0,48
940,98	-0,47
941,403	-0,46
941,827	-0,46
942,25	-0,48
942,674	-0,47
943,097	-0,46
943,521	-0,45
943,944	-0,46
944,368	-0,45
944,791	-0,44
945,214	-0,46
945,638	-0,47
946,061	-0,49
946,484	-0,5
946,907	-0,48
947,331	-0,47
947,754	-0,52
948,177	-0,49
948,6	-0,5
949,023	-0,5
949,446	-0,5
949,869	-0,48
950,292	-0,48
950,715	-0,45
951,138	-0,43
951,561	-0,42
951,984	-0,43
952,407	-0,42
952,83	-0,4
953,252	-0,36
953,675	-0,36
954,098	-0,37
954,521	-0,35
954,943	-0,35
955,366	-0,36
955,789	-0,34
956,211	-0,36
956,634	-0,36
957,056	-0,33
957,479	-0,35
957,902	-0,38
958,324	-0,38
958,746	-0,36
959,169	-0,38
959,591	-0,38
960,014	-0,39
960,436	-0,39
960,858	-0,38
961,281	-0,38
961,703	-0,4
962,125	-0,39
962,547	-0,37
962,969	-0,37
963,391	-0,38
963,814	-0,4
964,236	-0,39
964,658	-0,36
965,08	-0,37
965,502	-0,37
965,924	-0,34
966,346	-0,34
966,768	-0,33
967,189	-0,35
967,611	-0,34
968,033	-0,34
968,455	-0,31
968,877	-0,32
969,298	-0,34
969,72	-0,34
970,142	-0,32
970,563	-0,33
970,985	-0,31
971,407	-0,31
971,828	-0,29
972,25	-0,29
972,671	-0,26
973,093	-0,26
973,514	-0,25
973,936	-0,23
974,357	-0,23
974,778	-0,23
975,2	-0,23
975,621	-0,23
976,042	-0,22
976,464	-0,21
976,885	-0,2
977,306	-0,2
977,727	-0,2
978,148	-0,19
978,57	-0,19
978,991	-0,17
979,412	-0,16
979,833	-0,15
980,254	-0,14
980,675	-0,15
981,096	-0,14
981,517	-0,12
981,937	-0,12
982,358	-0,1
982,779	-0,08
983,2	-0,08
983,621	-0,08
984,042	-0,07
984,462	-0,06
984,883	-0,06
985,304	-0,04
985,724	-0,03
986,145	-0,02
986,565	-0
986,986	-0
987,407	0
987,827	0,02
988,248	0,03
988,668	0,04
989,088	0,05
989,509	0,05
989,929	0,06
990,35	0,07
990,77	0,08
991,19	0,09
991,61	0,1
992,031	0,1
992,451	0,11
992,871	0,12
993,291	0,12
993,711	0,13
994,131	0,13
994,551	0,14
994,971	0,14
995,391	0,15
995,811	0,15
996,231	0,15
996,651	0,16
997,071	0,16
997,491	0,17
997,911	0,17
998,331	0,18
998,75	0,18
999,17	0,18
999,59	0,19
1000,009	0,19
1000,429	0,19
1000,849	0,2
1001,268	0,2
1001,688	0,2
1002,107	0,2
1002,527	0,2
1002,946	0,21
1003,366	0,21
1003,785	0,21
1004,205	0,21
1004,624	0,21
1005,044	0,21
1005,463	0,21
1005,882	0,22
1006,301	0,22
1006,721	0,22
1007,14	0,22
1007,559	0,22
1007,978	0,22
1008,397	0,22
1008,816	0,22
1009,235	0,22
1009,655	0,22
1010,074	0,21
1010,492	0,21
1010,911	0,21
1011,33	0,21
1011,749	0,21
1012,168	0,21
1012,587	0,21
1013,006	0,21
1013,425	0,21
1013,843	0,21
1014,262	0,21
1014,681	0,21
1015,099	0,21
1015,518	0,21
1015,937	0,21
1016,355	0,21
1016,774	0,21
1017,192	0,21
1017,611	0,21
1018,029	0,21
1018,448	0,21
1018,866	0,21
1019,285	0,21
1019,703	0,21
1020,121	0,21
1020,54	0,21
1020,958	0,21
1021,376	0,21
1021,794	0,21
1022,213	0,21
1022,631	0,21
1023,049	0,21
1023,467	0,21
1023,885	0,21
1024,303	0,21
1024,721	0,21
1025,139	0,21
1025,557	0,21
1025,975	0,21
1026,393	0,21
1026,811	0,21
1027,229	0,21
1027,647	0,21
1028,065	0,21
1028,482	0,21
1028,9	0,2
1029,318	0,2
1029,735	0,2
1030,153	0,2
1030,571	0,2
1030,988	0,2
1031,406	0,2
1031,823	0,2
1032,241	0,2
1032,659	0,2
1033,076	0,2
1033,493	0,2
1033,911	0,2
1034,328	0,2
1034,746	0,2
1035,163	0,2
1035,58	0,2
1035,997	0,2
1036,415	0,2
1036,832	0,2
1037,249	0,2
1037,666	0,2
1038,083	0,2
1038,501	0,2
1038,918	0,2
1039,335	0,2
1039,752	0,2
1040,169	0,2
1040,586	0,2
1041,003	0,2
1041,419	0,2
1041,836	0,2
1042,253	0,2
1042,67	0,2
1043,087	0,2
1043,504	0,2
1043,92	0,2
1044,337	0,19
1044,754	0,19
1045,17	0,19
1045,587	0,19
1046,004	0,19
1046,42	0,19
1046,837	0,19
1047,253	0,19
1047,67	0,19
1048,086	0,19
1048,503	0,19
1048,919	0,19
1049,335	0,19
1049,752	0,19
1050,168	0,19
1050,584	0,19
1051,001	0,19
1051,417	0,19
1051,833	0,19
1052,249	0,19
1052,665	0,19
1053,081	0,19
1053,497	0,19
1053,914	0,19
1054,33	0,19
1054,746	0,19
1055,162	0,19
1055,578	0,19
1055,993	0,19
1056,409	0,19
1056,825	0,2
1057,241	0,2
1057,657	0,2
1058,073	0,2
1058,488	0,2
1058,904	0,2
1059,32	0,2
1059,736	0,2
1060,151	0,2
1060,567	0,2
1060,982	0,2
1061,398	0,2
1061,813	0,2
1062,229	0,2
1062,644	0,19
1063,06	0,19
1063,475	0,19
1063,891	0,19
1064,306	0,19
1064,721	0,19
1065,137	0,19
1065,552	0,19
1065,967	0,19
1066,382	0,19
1066,798	0,19
1067,213	0,19
1067,628	0,19
1068,043	0,19
1068,458	0,19
1068,873	0,19
1069,288	0,19
1069,703	0,19
1070,118	0,19
1070,533	0,2
1070,948	0,2
1071,363	0,2
1071,778	0,2
1072,193	0,2
1072,607	0,2
1073,022	0,2
1073,437	0,2
1073,852	0,2
1074,266	0,2
1074,681	0,2
1075,096	0,2
1075,51	0,2
1075,925	0,2
1076,339	0,2
1076,754	0,2
1077,168	0,2
1077,583	0,2
1077,997	0,2
1078,412	0,2
1078,826	0,2
1079,24	0,2
1079,655	0,19
1080,069	0,19
1080,483	0,19
1080,897	0,19
1081,312	0,19
1081,726	0,19
1082,14	0,19
1082,554	0,19
1082,968	0,19
1083,382	0,19
1083,796	0,19
1084,21	0,19
1084,624	0,19
1085,038	0,19
1085,452	0,19
1085,866	0,18
1086,28	0,18
1086,694	0,18
1087,108	0,18
1087,521	0,18
1087,935	0,18
1088,349	0,18
1088,763	0,18
1089,176	0,18
1089,59	0,18
1090,004	0,18
1090,417	0,17
1090,831	0,17
1091,244	0,17
1091,658	0,17
1092,071	0,17
1092,485	0,17
1092,898	0,16
1093,312	0,16
1093,725	0,16
1094,138	0,16
1094,552	0,16
1094,965	0,16
1095,378	0,16
1095,791	0,16
1096,205	0,15
1096,618	0,15
1097,031	0,15
1097,444	0,15
1097,857	0,15
1098,27	0,15
1098,683	0,15
1099,096	0,14
1099,509	0,14
1099,922	0,14
1100,335	0,14
1100,748	0,13
1101,161	0,13
1101,574	0,13
1101,986	0,13
1102,399	0,13
1102,812	0,13
1103,225	0,12
1103,637	0,12
1104,05	0,12
1104,463	0,12
1104,875	0,11
1105,288	0,11
1105,7	0,11
1106,113	0,1
1106,525	0,1
1106,938	0,09
1107,35	0,09
1107,763	0,09
1108,175	0,08
1108,588	0,08
1109	0,07
1109,412	0,07
1109,824	0,07
1110,237	0,07
1110,649	0,06
1111,061	0,05
