Data from 18C-808nm-8A_Absorbance__1230__01230.txt Node

Date: Mon Jul 17 17:07:38 CEST 2023
User: Laser008
Spectrometer: MAYP115816
Trigger mode: 0
Integration Time (sec): 2,500000E-1
Scans to average: 10
Electric dark correction enabled: true
Nonlinearity correction enabled: true
Boxcar width: 5
XAxis mode: Wavelengths
Number of Pixels in Spectrum: 2068
>>>>>Begin Spectral Data<<<<<
198,914	-0,7
199,384	-0,5
199,855	-0,36
200,325	-0,28
200,796	-0,25
201,266	-0,2
201,737	-0,19
202,207	-0,19
202,677	-0,17
203,147	-0,16
203,618	-0,13
204,088	-0,11
204,558	-0,1
205,028	-0,09
205,498	-0,1
205,968	-0,09
206,439	-0,11
206,909	-0,1
207,379	-0,09
207,849	-0,1
208,319	-0,11
208,789	-0,11
209,258	-0,11
209,728	-0,13
210,198	-0,13
210,668	-0,12
211,138	-0,13
211,608	-0,13
212,077	-0,14
212,547	-0,14
213,017	-0,14
213,486	-0,14
213,956	-0,15
214,426	-0,15
214,895	-0,14
215,365	-0,15
215,834	-0,16
216,304	-0,16
216,773	-0,17
217,243	-0,19
217,712	-0,2
218,181	-0,19
218,651	-0,2
219,12	-0,19
219,589	-0,19
220,058	-0,19
220,528	-0,21
220,997	-0,2
221,466	-0,21
221,935	-0,21
222,404	-0,2
222,873	-0,19
223,342	-0,19
223,812	-0,2
224,281	-0,2
224,749	-0,19
225,218	-0,21
225,687	-0,2
226,156	-0,2
226,625	-0,18
227,094	-0,18
227,563	-0,18
228,031	-0,19
228,5	-0,19
228,969	-0,2
229,438	-0,19
229,906	-0,18
230,375	-0,17
230,844	-0,18
231,312	-0,18
231,781	-0,19
232,249	-0,19
232,718	-0,19
233,186	-0,17
233,655	-0,18
234,123	-0,17
234,591	-0,17
235,06	-0,17
235,528	-0,17
235,996	-0,17
236,465	-0,16
236,933	-0,16
237,401	-0,16
237,869	-0,14
238,337	-0,15
238,805	-0,14
239,274	-0,13
239,742	-0,13
240,21	-0,13
240,678	-0,13
241,146	-0,12
241,614	-0,12
242,081	-0,12
242,549	-0,11
243,017	-0,13
243,485	-0,14
243,953	-0,14
244,421	-0,14
244,888	-0,14
245,356	-0,13
245,824	-0,14
246,291	-0,14
246,759	-0,14
247,227	-0,15
247,694	-0,14
248,162	-0,13
248,629	-0,11
249,097	-0,12
249,564	-0,12
250,032	-0,13
250,499	-0,13
250,967	-0,14
251,434	-0,15
251,901	-0,14
252,369	-0,14
252,836	-0,16
253,303	-0,17
253,77	-0,18
254,237	-0,18
254,705	-0,17
255,172	-0,17
255,639	-0,18
256,106	-0,19
256,573	-0,19
257,04	-0,18
257,507	-0,18
257,974	-0,18
258,441	-0,15
258,908	-0,17
259,375	-0,18
259,841	-0,19
260,308	-0,19
260,775	-0,19
261,242	-0,18
261,709	-0,19
262,175	-0,2
262,642	-0,2
263,109	-0,2
263,575	-0,22
264,042	-0,2
264,508	-0,2
264,975	-0,22
265,441	-0,22
265,908	-0,23
266,374	-0,23
266,841	-0,23
267,307	-0,23
267,773	-0,22
268,24	-0,23
268,706	-0,22
269,172	-0,23
269,639	-0,23
270,105	-0,2
270,571	-0,21
271,037	-0,21
271,503	-0,21
271,969	-0,21
272,435	-0,2
272,902	-0,21
273,368	-0,23
273,834	-0,24
274,3	-0,24
274,765	-0,25
275,231	-0,25
275,697	-0,24
276,163	-0,24
276,629	-0,23
277,095	-0,23
277,56	-0,23
278,026	-0,24
278,492	-0,21
278,958	-0,21
279,423	-0,21
279,889	-0,21
280,354	-0,21
280,82	-0,21
281,286	-0,23
281,751	-0,23
282,217	-0,22
282,682	-0,21
283,147	-0,21
283,613	-0,22
284,078	-0,22
284,544	-0,23
285,009	-0,24
285,474	-0,23
285,939	-0,24
286,405	-0,23
286,87	-0,23
287,335	-0,22
287,8	-0,22
288,265	-0,21
288,73	-0,23
289,195	-0,24
289,66	-0,23
290,125	-0,22
290,59	-0,23
291,055	-0,21
291,52	-0,21
291,985	-0,22
292,45	-0,24
292,915	-0,23
293,38	-0,24
293,844	-0,22
294,309	-0,21
294,774	-0,2
295,239	-0,21
295,703	-0,21
296,168	-0,21
296,632	-0,21
297,097	-0,19
297,562	-0,17
298,026	-0,18
298,491	-0,18
298,955	-0,17
299,419	-0,16
299,884	-0,16
300,348	-0,15
300,813	-0,15
301,277	-0,15
301,741	-0,15
302,205	-0,15
302,67	-0,15
303,134	-0,14
303,598	-0,15
304,062	-0,14
304,526	-0,14
304,99	-0,16
305,454	-0,15
305,919	-0,15
306,383	-0,15
306,847	-0,15
307,31	-0,15
307,774	-0,16
308,238	-0,16
308,702	-0,15
309,166	-0,17
309,63	-0,16
310,094	-0,13
310,557	-0,13
311,021	-0,12
311,485	-0,13
311,948	-0,13
312,412	-0,12
312,876	-0,11
313,339	-0,12
313,803	-0,13
314,266	-0,12
314,73	-0,12
315,193	-0,13
315,657	-0,12
316,12	-0,12
316,584	-0,11
317,047	-0,1
317,51	-0,1
317,973	-0,09
318,437	-0,08
318,9	-0,07
319,363	-0,07
319,826	-0,07
320,29	-0,07
320,753	-0,07
321,216	-0,07
321,679	-0,07
322,142	-0,07
322,605	-0,09
323,068	-0,09
323,531	-0,09
323,994	-0,08
324,457	-0,09
324,92	-0,08
325,382	-0,07
325,845	-0,07
326,308	-0,07
326,771	-0,06
327,233	-0,06
327,696	-0,05
328,159	-0,04
328,622	-0,02
329,084	-0,03
329,547	-0,03
330,009	-0,02
330,472	-0,02
330,934	-0,02
331,397	-0
331,859	-0,01
332,322	-0
332,784	0
333,246	0
333,709	0
334,171	0,02
334,633	0,02
335,096	0,01
335,558	0,02
336,02	0,01
336,482	0,01
336,944	0,03
337,406	0,04
337,868	0,04
338,331	0,04
338,793	0,05
339,255	0,05
339,717	0,05
340,178	0,06
340,64	0,07
341,102	0,08
341,564	0,09
342,026	0,09
342,488	0,09
342,949	0,11
343,411	0,13
343,873	0,15
344,335	0,18
344,796	0,2
345,258	0,24
345,719	0,28
346,181	0,31
346,643	0,34
347,104	0,36
347,566	0,38
348,027	0,4
348,488	0,41
348,95	0,42
349,411	0,43
349,873	0,45
350,334	0,46
350,795	0,47
351,256	0,47
351,718	0,48
352,179	0,48
352,64	0,48
353,101	0,49
353,562	0,49
354,023	0,49
354,484	0,49
354,945	0,49
355,406	0,49
355,867	0,49
356,328	0,5
356,789	0,5
357,25	0,5
357,711	0,5
358,172	0,5
358,633	0,51
359,093	0,51
359,554	0,51
360,015	0,51
360,476	0,51
360,936	0,51
361,397	0,51
361,858	0,51
362,318	0,51
362,779	0,51
363,239	0,51
363,7	0,51
364,16	0,51
364,621	0,51
365,081	0,51
365,541	0,51
366,002	0,51
366,462	0,51
366,922	0,51
367,383	0,51
367,843	0,51
368,303	0,51
368,763	0,51
369,223	0,51
369,684	0,51
370,144	0,51
370,604	0,51
371,064	0,51
371,524	0,51
371,984	0,51
372,444	0,51
372,904	0,51
373,363	0,5
373,823	0,5
374,283	0,5
374,743	0,5
375,203	0,5
375,663	0,5
376,122	0,5
376,582	0,5
377,042	0,5
377,501	0,5
377,961	0,5
378,42	0,5
378,88	0,5
379,34	0,5
379,799	0,5
380,259	0,5
380,718	0,5
381,177	0,5
381,637	0,5
382,096	0,5
382,555	0,5
383,015	0,5
383,474	0,5
383,933	0,5
384,393	0,5
384,852	0,5
385,311	0,5
385,77	0,5
386,229	0,5
386,688	0,5
387,147	0,5
387,606	0,5
388,065	0,5
388,524	0,5
388,983	0,5
389,442	0,5
389,901	0,49
390,36	0,49
390,819	0,49
391,277	0,49
391,736	0,49
392,195	0,49
392,654	0,49
393,112	0,49
393,571	0,49
394,03	0,49
394,488	0,49
394,947	0,49
395,405	0,49
395,864	0,49
396,322	0,49
396,781	0,49
397,239	0,49
397,698	0,49
398,156	0,49
398,614	0,49
399,073	0,49
399,531	0,49
399,989	0,49
400,447	0,49
400,905	0,49
401,364	0,49
401,822	0,49
402,28	0,49
402,738	0,49
403,196	0,49
403,654	0,49
404,112	0,49
404,57	0,49
405,028	0,49
405,486	0,49
405,944	0,49
406,402	0,49
406,859	0,49
407,317	0,49
407,775	0,49
408,233	0,49
408,691	0,49
409,148	0,49
409,606	0,49
410,064	0,49
410,521	0,49
410,979	0,49
411,436	0,49
411,894	0,48
412,351	0,48
412,809	0,48
413,266	0,48
413,724	0,48
414,181	0,48
414,638	0,48
415,096	0,48
415,553	0,48
416,01	0,48
416,467	0,48
416,925	0,48
417,382	0,48
417,839	0,48
418,296	0,48
418,753	0,48
419,21	0,48
419,667	0,48
420,124	0,48
420,581	0,48
421,038	0,48
421,495	0,48
421,952	0,48
422,409	0,48
422,866	0,48
423,322	0,48
423,779	0,48
424,236	0,48
424,693	0,48
425,149	0,48
425,606	0,48
426,063	0,48
426,519	0,48
426,976	0,48
427,433	0,48
427,889	0,48
428,346	0,48
428,802	0,48
429,258	0,48
429,715	0,48
430,171	0,48
430,628	0,48
431,084	0,48
431,54	0,48
431,997	0,48
432,453	0,48
432,909	0,48
433,365	0,48
433,821	0,48
434,277	0,47
434,734	0,47
435,19	0,47
435,646	0,47
436,102	0,47
436,558	0,47
437,014	0,47
437,47	0,47
437,925	0,48
438,381	0,48
438,837	0,48
439,293	0,48
439,749	0,48
440,205	0,48
440,66	0,48
441,116	0,48
441,572	0,48
442,027	0,48
442,483	0,48
442,939	0,48
443,394	0,48
443,85	0,48
444,305	0,48
444,761	0,48
445,216	0,48
445,672	0,48
446,127	0,48
446,582	0,48
447,038	0,48
447,493	0,48
447,948	0,48
448,403	0,48
448,859	0,48
449,314	0,48
449,769	0,48
450,224	0,48
450,679	0,48
451,134	0,48
451,589	0,48
452,044	0,48
452,499	0,48
452,954	0,48
453,409	0,48
453,864	0,48
454,319	0,48
454,774	0,48
455,229	0,48
455,684	0,48
456,138	0,48
456,593	0,48
457,048	0,48
457,503	0,48
457,957	0,48
458,412	0,48
458,866	0,48
459,321	0,48
459,776	0,48
460,23	0,48
460,685	0,48
461,139	0,48
461,593	0,48
462,048	0,48
462,502	0,48
462,957	0,48
463,411	0,48
463,865	0,49
464,319	0,49
464,774	0,49
465,228	0,49
465,682	0,49
466,136	0,49
466,59	0,49
467,044	0,49
467,499	0,49
467,953	0,49
468,407	0,49
468,861	0,49
469,315	0,49
469,768	0,49
470,222	0,49
470,676	0,49
471,13	0,49
471,584	0,49
472,038	0,49
472,491	0,49
472,945	0,49
473,399	0,49
473,852	0,5
474,306	0,5
474,76	0,5
475,213	0,5
475,667	0,5
476,12	0,5
476,574	0,5
477,027	0,5
477,481	0,5
477,934	0,5
478,388	0,5
478,841	0,5
479,294	0,51
479,748	0,51
480,201	0,51
480,654	0,51
481,107	0,51
481,561	0,51
482,014	0,51
482,467	0,51
482,92	0,51
483,373	0,51
483,826	0,52
484,279	0,52
484,732	0,52
485,185	0,52
485,638	0,52
486,091	0,52
486,544	0,52
486,997	0,52
487,449	0,53
487,902	0,53
488,355	0,53
488,808	0,53
489,26	0,53
489,713	0,53
490,166	0,53
490,618	0,54
491,071	0,54
491,523	0,54
491,976	0,54
492,429	0,54
492,881	0,55
493,333	0,55
493,786	0,55
494,238	0,55
494,691	0,55
495,143	0,56
495,595	0,56
496,048	0,56
496,5	0,56
496,952	0,57
497,404	0,57
497,856	0,57
498,309	0,57
498,761	0,57
499,213	0,58
499,665	0,58
500,117	0,58
500,569	0,59
501,021	0,59
501,473	0,59
501,925	0,59
502,377	0,6
502,828	0,6
503,28	0,6
503,732	0,6
504,184	0,61
504,636	0,61
505,087	0,61
505,539	0,61
505,991	0,62
506,442	0,62
506,894	0,62
507,345	0,62
507,797	0,63
508,249	0,63
508,7	0,63
509,151	0,63
509,603	0,64
510,054	0,64
510,506	0,64
510,957	0,64
511,408	0,65
511,86	0,65
512,311	0,65
512,762	0,65
513,213	0,66
513,665	0,66
514,116	0,66
514,567	0,66
515,018	0,66
515,469	0,67
515,92	0,67
516,371	0,67
516,822	0,67
517,273	0,68
517,724	0,68
518,175	0,68
518,626	0,68
519,076	0,68
519,527	0,69
519,978	0,69
520,429	0,69
520,88	0,69
521,33	0,69
521,781	0,69
522,232	0,69
522,682	0,7
523,133	0,7
523,583	0,7
524,034	0,7
524,484	0,7
524,935	0,7
525,385	0,7
525,836	0,7
526,286	0,7
526,736	0,7
527,187	0,7
527,637	0,7
528,087	0,7
528,538	0,7
528,988	0,7
529,438	0,7
529,888	0,7
530,338	0,7
530,788	0,7
531,238	0,7
531,688	0,7
532,139	0,7
532,589	0,7
533,038	0,7
533,488	0,7
533,938	0,7
534,388	0,69
534,838	0,69
535,288	0,69
535,738	0,69
536,187	0,69
536,637	0,68
537,087	0,68
537,537	0,68
537,986	0,68
538,436	0,68
538,885	0,67
539,335	0,67
539,785	0,67
540,234	0,66
540,684	0,66
541,133	0,66
541,582	0,66
542,032	0,65
542,481	0,65
542,931	0,65
543,38	0,64
543,829	0,64
544,278	0,64
544,728	0,63
545,177	0,63
545,626	0,63
546,075	0,63
546,524	0,62
546,973	0,62
547,422	0,62
547,871	0,62
548,32	0,62
548,769	0,62
549,218	0,62
549,667	0,61
550,116	0,61
550,565	0,61
551,014	0,61
551,463	0,61
551,911	0,61
552,36	0,6
552,809	0,6
553,258	0,6
553,706	0,59
554,155	0,59
554,603	0,59
555,052	0,59
555,501	0,59
555,949	0,58
556,398	0,58
556,846	0,58
557,294	0,58
557,743	0,57
558,191	0,57
558,64	0,57
559,088	0,56
559,536	0,56
559,985	0,56
560,433	0,56
560,881	0,55
561,329	0,55
561,777	0,55
562,225	0,55
562,674	0,54
563,122	0,54
563,57	0,54
564,018	0,54
564,466	0,54
564,914	0,53
565,362	0,53
565,809	0,53
566,257	0,53
566,705	0,52
567,153	0,52
567,601	0,52
568,048	0,52
568,496	0,51
568,944	0,51
569,392	0,51
569,839	0,51
570,287	0,51
570,734	0,5
571,182	0,5
571,63	0,5
572,077	0,5
572,525	0,5
572,972	0,49
573,419	0,49
573,867	0,49
574,314	0,49
574,761	0,48
575,209	0,48
575,656	0,48
576,103	0,48
576,551	0,48
576,998	0,48
577,445	0,48
577,892	0,47
578,339	0,47
578,786	0,47
579,233	0,47
579,68	0,47
580,127	0,47
580,574	0,47
581,021	0,46
581,468	0,46
581,915	0,46
582,362	0,46
582,809	0,46
583,255	0,46
583,702	0,46
584,149	0,45
584,596	0,45
585,042	0,45
585,489	0,45
585,936	0,45
586,382	0,45
586,829	0,45
587,275	0,44
587,722	0,44
588,168	0,44
588,615	0,44
589,061	0,44
589,508	0,44
589,954	0,44
590,4	0,44
590,847	0,44
591,293	0,44
591,739	0,43
592,185	0,43
592,632	0,43
593,078	0,43
593,524	0,43
593,97	0,43
594,416	0,43
594,862	0,43
595,308	0,43
595,754	0,43
596,2	0,43
596,646	0,43
597,092	0,42
597,538	0,42
597,984	0,42
598,43	0,42
598,876	0,42
599,321	0,42
599,767	0,42
600,213	0,42
600,659	0,42
601,104	0,42
601,55	0,42
601,995	0,41
602,441	0,41
602,887	0,41
603,332	0,41
603,778	0,41
604,223	0,41
604,668	0,41
605,114	0,41
605,559	0,41
606,005	0,41
606,45	0,41
606,895	0,41
607,341	0,41
607,786	0,41
608,231	0,41
608,676	0,4
609,121	0,4
609,566	0,39
610,012	0,39
610,457	0,39
610,902	0,39
611,347	0,38
611,792	0,38
612,237	0,38
612,682	0,38
613,127	0,38
613,571	0,38
614,016	0,38
614,461	0,39
614,906	0,39
615,351	0,39
615,795	0,39
616,24	0,39
616,685	0,39
617,129	0,39
617,574	0,39
618,019	0,39
618,463	0,39
618,908	0,39
619,352	0,39
619,797	0,39
620,241	0,39
620,686	0,39
621,13	0,39
621,574	0,39
622,019	0,39
622,463	0,39
622,907	0,39
623,352	0,39
623,796	0,38
624,24	0,38
624,684	0,38
625,128	0,38
625,572	0,38
626,016	0,38
626,461	0,38
626,905	0,38
627,349	0,38
627,793	0,38
628,236	0,38
628,68	0,38
629,124	0,38
629,568	0,38
630,012	0,38
630,456	0,38
630,9	0,38
631,343	0,38
631,787	0,38
632,231	0,38
632,674	0,38
633,118	0,38
633,562	0,38
634,005	0,38
634,449	0,38
634,892	0,38
635,336	0,38
635,779	0,38
636,223	0,38
636,666	0,38
637,109	0,38
637,553	0,38
637,996	0,38
638,439	0,38
638,883	0,38
639,326	0,38
639,769	0,37
640,212	0,37
640,655	0,37
641,099	0,37
641,542	0,37
641,985	0,37
642,428	0,37
642,871	0,37
643,314	0,37
643,757	0,37
644,2	0,37
644,643	0,37
645,085	0,37
645,528	0,37
645,971	0,37
646,414	0,37
646,857	0,37
647,299	0,37
647,742	0,37
648,185	0,37
648,627	0,37
649,07	0,37
649,513	0,37
649,955	0,37
650,398	0,37
650,84	0,37
651,283	0,37
651,725	0,37
652,168	0,37
652,61	0,37
653,052	0,37
653,495	0,36
653,937	0,28
654,379	0,23
654,821	0,24
655,264	0,24
655,706	0,24
656,148	0,24
656,59	0,24
657,032	0,24
657,474	0,24
657,916	0,24
658,358	0,23
658,8	0,29
659,242	0,37
659,684	0,37
660,126	0,37
660,568	0,37
661,01	0,37
661,452	0,37
661,894	0,37
662,335	0,36
662,777	0,36
663,219	0,36
663,661	0,36
664,102	0,36
664,544	0,36
664,985	0,36
665,427	0,36
665,869	0,36
666,31	0,36
666,752	0,36
667,193	0,36
667,634	0,36
668,076	0,36
668,517	0,36
668,959	0,36
669,4	0,36
669,841	0,36
670,282	0,36
670,724	0,36
671,165	0,36
671,606	0,36
672,047	0,36
672,488	0,36
672,929	0,36
673,37	0,36
673,811	0,36
674,252	0,36
674,693	0,36
675,134	0,36
675,575	0,36
676,016	0,36
676,457	0,36
676,898	0,36
677,339	0,36
677,78	0,36
678,22	0,36
678,661	0,36
679,102	0,36
679,542	0,36
679,983	0,36
680,424	0,36
680,864	0,36
681,305	0,36
681,745	0,36
682,186	0,36
682,626	0,36
683,067	0,36
683,507	0,36
683,948	0,36
684,388	0,36
684,828	0,35
685,269	0,35
685,709	0,35
686,149	0,35
686,589	0,35
687,029	0,35
687,47	0,35
687,91	0,35
688,35	0,35
688,79	0,35
689,23	0,35
689,67	0,35
690,11	0,35
690,55	0,35
690,99	0,35
691,43	0,35
691,87	0,35
692,31	0,35
692,749	0,34
693,189	0,34
693,629	0,34
694,069	0,34
694,508	0,34
694,948	0,34
695,388	0,34
695,827	0,34
696,267	0,34
696,706	0,35
697,146	0,35
697,586	0,35
698,025	0,35
698,464	0,35
698,904	0,35
699,343	0,35
699,783	0,35
700,222	0,35
700,661	0,35
701,101	0,35
701,54	0,35
701,979	0,35
702,418	0,35
702,857	0,35
703,297	0,35
703,736	0,35
704,175	0,35
704,614	0,35
705,053	0,35
705,492	0,34
705,931	0,34
706,37	0,34
706,809	0,34
707,248	0,34
707,687	0,34
708,125	0,34
708,564	0,34
709,003	0,34
709,442	0,34
709,88	0,34
710,319	0,34
710,758	0,34
711,196	0,34
711,635	0,34
712,074	0,34
712,512	0,34
712,951	0,34
713,389	0,34
713,828	0,33
714,266	0,33
714,705	0,33
715,143	0,33
715,581	0,33
716,02	0,33
716,458	0,33
716,896	0,33
717,334	0,33
717,773	0,33
718,211	0,33
718,649	0,33
719,087	0,33
719,525	0,33
719,963	0,33
720,401	0,33
720,839	0,33
721,277	0,33
721,715	0,33
722,153	0,33
722,591	0,33
723,029	0,33
723,467	0,33
723,905	0,33
724,342	0,33
724,78	0,33
725,218	0,33
725,656	0,33
726,093	0,33
726,531	0,33
726,969	0,33
727,406	0,33
727,844	0,33
728,281	0,33
728,719	0,33
729,156	0,33
729,594	0,33
730,031	0,33
730,469	0,33
730,906	0,33
731,343	0,33
731,781	0,33
732,218	0,33
732,655	0,33
733,092	0,33
733,53	0,33
733,967	0,33
734,404	0,33
734,841	0,33
735,278	0,33
735,715	0,33
736,152	0,32
736,589	0,32
737,026	0,32
737,463	0,32
737,9	0,32
738,337	0,32
738,774	0,32
739,211	0,32
739,647	0,32
740,084	0,32
740,521	0,32
740,958	0,32
741,394	0,32
741,831	0,32
742,268	0,32
742,704	0,31
743,141	0,31
743,577	0,31
744,014	0,31
744,45	0,31
744,887	0,31
745,323	0,31
745,76	0,31
746,196	0,3
746,632	0,3
747,069	0,3
747,505	0,3
747,941	0,3
748,378	0,3
748,814	0,31
749,25	0,31
749,686	0,31
750,122	0,31
750,558	0,31
750,994	0,31
751,43	0,31
751,866	0,32
752,302	0,32
752,738	0,32
753,174	0,32
753,61	0,32
754,046	0,32
754,482	0,32
754,918	0,32
755,354	0,32
755,789	0,32
756,225	0,32
756,661	0,32
757,096	0,32
757,532	0,31
757,968	0,31
758,403	0,31
758,839	0,31
759,274	0,31
759,71	0,3
760,145	0,3
760,581	0,29
761,016	0,29
761,452	0,29
761,887	0,28
762,322	0,28
762,758	0,28
763,193	0,28
763,628	0,27
764,063	0,26
764,499	0,26
764,934	0,25
765,369	0,25
765,804	0,24
766,239	0,24
766,674	0,23
767,109	0,23
767,544	0,22
767,979	0,21
768,414	0,2
768,849	0,2
769,284	0,19
769,719	0,18
770,154	0,18
770,588	0,17
771,023	0,16
771,458	0,15
771,893	0,14
772,327	0,13
772,762	0,13
773,197	0,12
773,631	0,11
774,066	0,1
774,5	0,09
774,935	0,09
775,369	0,07
775,804	0,06
776,238	0,06
776,673	0,05
777,107	0,04
777,541	0,04
777,976	0,03
778,41	0,02
778,844	0,01
779,279	0,01
779,713	-0
780,147	-0,01
780,581	-0,02
781,015	-0,03
781,449	-0,04
781,883	-0,05
782,317	-0,07
782,751	-0,08
783,185	-0,09
783,619	-0,1
784,053	-0,11
784,487	-0,12
784,921	-0,12
785,355	-0,12
785,789	-0,13
786,223	-0,14
786,656	-0,15
787,09	-0,16
787,524	-0,16
787,957	-0,17
788,391	-0,19
788,825	-0,2
789,258	-0,21
789,692	-0,22
790,125	-0,24
790,559	-0,26
790,992	-0,28
791,426	-0,3
791,859	-0,32
792,293	-0,35
792,726	-0,36
793,159	-0,38
793,593	-0,4
794,026	-0,43
794,459	-0,45
794,892	-0,48
795,326	-0,5
795,759	-0,54
796,192	-0,58
796,625	-0,63
797,058	-0,65
797,491	-0,7
797,924	-0,73
798,357	-0,78
798,79	-0,82
799,223	-0,87
799,656	-0,92
800,089	-0,97
800,522	-1,01
800,955	-1,06
801,387	-1,12
801,82	-1,17
802,253	-1,23
802,686	-1,31
803,118	-1,37
803,551	-1,42
803,984	-1,46
804,416	-1,5
804,849	-1,54
805,281	-1,66
805,714	-1,99
806,146	-2,44
806,579	-2,7
807,011	-2,87
807,444	-2,96
807,876	-3,06
808,308	-3,09
808,741	-3,12
809,173	-3,17
809,605	-3,19
810,037	-3,27
810,47	-3,19
810,902	-3
811,334	-2,85
811,766	-2,71
812,198	-2,48
812,63	-2,06
813,062	-1,83
813,494	-1,73
813,926	-1,64
814,358	-1,58
814,79	-1,5
815,222	-1,44
815,654	-1,39
816,086	-1,33
816,518	-1,27
816,949	-1,22
817,381	-1,17
817,813	-1,16
818,245	-1,12
818,676	-1,08
819,108	-1,04
819,54	-1,03
819,971	-1
820,403	-0,95
820,834	-0,94
821,266	-0,89
821,697	-0,86
822,129	-0,85
822,56	-0,82
822,991	-0,8
823,423	-0,77
823,854	-0,76
824,286	-0,73
824,717	-0,72
825,148	-0,7
825,579	-0,69
826,01	-0,68
826,442	-0,67
826,873	-0,65
827,304	-0,62
827,735	-0,61
828,166	-0,61
828,597	-0,61
829,028	-0,6
829,459	-0,6
829,89	-0,6
830,321	-0,56
830,752	-0,57
831,183	-0,56
831,613	-0,55
832,044	-0,55
832,475	-0,54
832,906	-0,55
833,336	-0,55
833,767	-0,55
834,198	-0,55
834,628	-0,53
835,059	-0,55
835,49	-0,56
835,92	-0,53
836,351	-0,54
836,781	-0,54
837,212	-0,55
837,642	-0,55
838,072	-0,52
838,503	-0,53
838,933	-0,5
839,364	-0,51
839,794	-0,48
840,224	-0,47
840,654	-0,51
841,085	-0,52
841,515	-0,49
841,945	-0,5
842,375	-0,45
842,805	-0,45
843,235	-0,44
843,665	-0,46
844,095	-0,45
844,525	-0,47
844,955	-0,48
845,385	-0,46
845,815	-0,45
846,245	-0,47
846,675	-0,48
847,105	-0,49
847,534	-0,49
847,964	-0,48
848,394	-0,46
848,824	-0,5
849,253	-0,49
849,683	-0,49
850,112	-0,5
850,542	-0,53
850,972	-0,53
851,401	-0,5
851,831	-0,48
852,26	-0,49
852,69	-0,53
853,119	-0,52
853,548	-0,52
853,978	-0,52
854,407	-0,5
854,836	-0,5
855,266	-0,49
855,695	-0,5
856,124	-0,51
856,553	-0,53
856,983	-0,55
857,412	-0,54
857,841	-0,55
858,27	-0,56
858,699	-0,56
859,128	-0,59
859,557	-0,6
859,986	-0,62
860,415	-0,6
860,844	-0,57
861,273	-0,57
861,702	-0,57
862,13	-0,56
862,559	-0,58
862,988	-0,56
863,417	-0,55
863,845	-0,54
864,274	-0,55
864,703	-0,55
865,131	-0,55
865,56	-0,58
865,989	-0,61
866,417	-0,58
866,846	-0,58
867,274	-0,57
867,703	-0,59
868,131	-0,6
868,559	-0,6
868,988	-0,62
869,416	-0,61
869,844	-0,62
870,273	-0,64
870,701	-0,62
871,129	-0,65
871,557	-0,68
871,986	-0,68
872,414	-0,69
872,842	-0,66
873,27	-0,64
873,698	-0,6
874,126	-0,63
874,554	-0,62
874,982	-0,62
875,41	-0,64
875,838	-0,6
876,266	-0,56
876,694	-0,57
877,122	-0,56
877,549	-0,62
877,977	-0,59
878,405	-0,62
878,833	-0,59
879,26	-0,57
879,688	-0,57
880,116	-0,55
880,543	-0,53
880,971	-0,53
881,399	-0,56
881,826	-0,56
882,254	-0,54
882,681	-0,59
883,109	-0,54
883,536	-0,55
883,963	-0,57
884,391	-0,55
884,818	-0,53
885,245	-0,57
885,673	-0,59
886,1	-0,56
886,527	-0,56
886,954	-0,53
887,381	-0,54
887,809	-0,56
888,236	-0,57
888,663	-0,58
889,09	-0,62
889,517	-0,65
889,944	-0,64
890,371	-0,64
890,798	-0,64
891,225	-0,64
891,652	-0,67
892,078	-0,64
892,505	-0,67
892,932	-0,63
893,359	-0,65
893,786	-0,64
894,212	-0,6
894,639	-0,63
895,066	-0,64
895,492	-0,58
895,919	-0,59
896,346	-0,59
896,772	-0,59
897,199	-0,55
897,625	-0,58
898,052	-0,54
898,478	-0,53
898,904	-0,54
899,331	-0,54
899,757	-0,56
900,183	-0,57
900,61	-0,55
901,036	-0,56
901,462	-0,56
901,888	-0,56
902,315	-0,54
902,741	-0,6
903,167	-0,58
903,593	-0,61
904,019	-0,59
904,445	-0,56
904,871	-0,59
905,297	-0,62
905,723	-0,6
906,149	-0,59
906,575	-0,6
907,001	-0,59
907,427	-0,55
907,852	-0,56
908,278	-0,57
908,704	-0,54
909,13	-0,54
909,555	-0,53
909,981	-0,51
910,407	-0,51
910,832	-0,51
911,258	-0,51
911,684	-0,51
912,109	-0,51
912,535	-0,52
912,96	-0,47
913,386	-0,51
913,811	-0,5
914,236	-0,52
914,662	-0,5
915,087	-0,54
915,512	-0,55
915,938	-0,57
916,363	-0,55
916,788	-0,57
917,213	-0,55
917,639	-0,61
918,064	-0,58
918,489	-0,59
918,914	-0,6
919,339	-0,62
919,764	-0,59
920,189	-0,59
920,614	-0,62
921,039	-0,62
921,464	-0,58
921,889	-0,61
922,314	-0,62
922,738	-0,65
923,163	-0,67
923,588	-0,66
924,013	-0,65
924,437	-0,65
924,862	-0,66
925,287	-0,62
925,711	-0,63
926,136	-0,65
926,561	-0,62
926,985	-0,61
927,41	-0,58
927,834	-0,56
928,259	-0,53
928,683	-0,51
929,108	-0,48
929,532	-0,48
929,956	-0,48
930,381	-0,47
930,805	-0,46
931,229	-0,45
931,653	-0,44
932,078	-0,44
932,502	-0,45
932,926	-0,46
933,35	-0,46
933,774	-0,46
934,198	-0,44
934,622	-0,44
935,046	-0,44
935,47	-0,45
935,894	-0,45
936,318	-0,45
936,742	-0,45
937,166	-0,45
937,59	-0,44
938,014	-0,47
938,437	-0,47
938,861	-0,49
939,285	-0,5
939,709	-0,49
940,132	-0,5
940,556	-0,49
940,98	-0,49
941,403	-0,48
941,827	-0,48
942,25	-0,5
942,674	-0,48
943,097	-0,48
943,521	-0,47
943,944	-0,48
944,368	-0,48
944,791	-0,47
945,214	-0,48
945,638	-0,48
946,061	-0,51
946,484	-0,52
946,907	-0,51
947,331	-0,51
947,754	-0,55
948,177	-0,52
948,6	-0,51
949,023	-0,5
949,446	-0,5
949,869	-0,48
950,292	-0,48
950,715	-0,45
951,138	-0,43
951,561	-0,41
951,984	-0,41
952,407	-0,4
952,83	-0,38
953,252	-0,35
953,675	-0,35
954,098	-0,37
954,521	-0,36
954,943	-0,34
955,366	-0,36
955,789	-0,34
956,211	-0,36
956,634	-0,37
957,056	-0,34
957,479	-0,36
957,902	-0,38
958,324	-0,38
958,746	-0,36
959,169	-0,37
959,591	-0,37
960,014	-0,38
960,436	-0,38
960,858	-0,37
961,281	-0,37
961,703	-0,39
962,125	-0,38
962,547	-0,36
962,969	-0,37
963,391	-0,37
963,814	-0,38
964,236	-0,37
964,658	-0,34
965,08	-0,35
965,502	-0,34
965,924	-0,32
966,346	-0,32
966,768	-0,31
967,189	-0,33
967,611	-0,33
968,033	-0,33
968,455	-0,32
968,877	-0,32
969,298	-0,33
969,72	-0,34
970,142	-0,33
970,563	-0,33
970,985	-0,31
971,407	-0,31
971,828	-0,29
972,25	-0,28
972,671	-0,26
973,093	-0,26
973,514	-0,25
973,936	-0,24
974,357	-0,23
974,778	-0,23
975,2	-0,23
975,621	-0,23
976,042	-0,21
976,464	-0,2
976,885	-0,2
977,306	-0,19
977,727	-0,19
978,148	-0,18
978,57	-0,17
978,991	-0,15
979,412	-0,14
979,833	-0,13
980,254	-0,12
980,675	-0,13
981,096	-0,12
981,517	-0,1
981,937	-0,1
982,358	-0,08
982,779	-0,07
983,2	-0,06
983,621	-0,07
984,042	-0,05
984,462	-0,04
984,883	-0,03
985,304	-0,01
985,724	-0
986,145	0,01
986,565	0,02
986,986	0,03
987,407	0,03
987,827	0,04
988,248	0,06
988,668	0,07
989,088	0,07
989,509	0,08
989,929	0,09
990,35	0,1
990,77	0,11
991,19	0,12
991,61	0,13
992,031	0,13
992,451	0,14
992,871	0,15
993,291	0,16
993,711	0,16
994,131	0,17
994,551	0,18
994,971	0,18
995,391	0,19
995,811	0,19
996,231	0,19
996,651	0,2
997,071	0,21
997,491	0,21
997,911	0,22
998,331	0,22
998,75	0,23
999,17	0,23
999,59	0,24
1000,009	0,24
1000,429	0,24
1000,849	0,25
1001,268	0,25
1001,688	0,25
1002,107	0,26
1002,527	0,26
1002,946	0,26
1003,366	0,26
1003,785	0,26
1004,205	0,27
1004,624	0,27
1005,044	0,27
1005,463	0,27
1005,882	0,27
1006,301	0,27
1006,721	0,28
1007,14	0,28
1007,559	0,28
1007,978	0,28
1008,397	0,28
1008,816	0,28
1009,235	0,28
1009,655	0,28
1010,074	0,27
1010,492	0,27
1010,911	0,27
1011,33	0,27
1011,749	0,27
1012,168	0,27
1012,587	0,27
1013,006	0,27
1013,425	0,27
1013,843	0,27
1014,262	0,27
1014,681	0,27
1015,099	0,27
1015,518	0,27
1015,937	0,27
1016,355	0,27
1016,774	0,27
1017,192	0,27
1017,611	0,27
1018,029	0,27
1018,448	0,27
1018,866	0,27
1019,285	0,27
1019,703	0,27
1020,121	0,27
1020,54	0,27
1020,958	0,27
1021,376	0,27
1021,794	0,27
1022,213	0,27
1022,631	0,27
1023,049	0,27
1023,467	0,27
1023,885	0,27
1024,303	0,27
1024,721	0,27
1025,139	0,27
1025,557	0,27
1025,975	0,27
1026,393	0,26
1026,811	0,26
1027,229	0,26
1027,647	0,26
1028,065	0,26
1028,482	0,26
1028,9	0,26
1029,318	0,26
1029,735	0,26
1030,153	0,26
1030,571	0,26
1030,988	0,26
1031,406	0,26
1031,823	0,26
1032,241	0,26
1032,659	0,26
1033,076	0,26
1033,493	0,26
1033,911	0,26
1034,328	0,26
1034,746	0,26
1035,163	0,26
1035,58	0,26
1035,997	0,26
1036,415	0,26
1036,832	0,26
1037,249	0,26
1037,666	0,26
1038,083	0,26
1038,501	0,26
1038,918	0,26
1039,335	0,26
1039,752	0,26
1040,169	0,26
1040,586	0,26
1041,003	0,26
1041,419	0,26
1041,836	0,26
1042,253	0,26
1042,67	0,26
1043,087	0,25
1043,504	0,25
1043,92	0,25
1044,337	0,25
1044,754	0,25
1045,17	0,25
1045,587	0,25
1046,004	0,25
1046,42	0,25
1046,837	0,25
1047,253	0,25
1047,67	0,25
1048,086	0,25
1048,503	0,25
1048,919	0,25
1049,335	0,25
1049,752	0,25
1050,168	0,25
1050,584	0,25
1051,001	0,25
1051,417	0,25
1051,833	0,25
1052,249	0,25
1052,665	0,25
1053,081	0,25
1053,497	0,25
1053,914	0,25
1054,33	0,25
1054,746	0,25
1055,162	0,25
1055,578	0,25
1055,993	0,25
1056,409	0,26
1056,825	0,26
1057,241	0,26
1057,657	0,26
1058,073	0,26
1058,488	0,26
1058,904	0,26
1059,32	0,26
1059,736	0,26
1060,151	0,26
1060,567	0,26
1060,982	0,26
1061,398	0,26
1061,813	0,26
1062,229	0,26
1062,644	0,26
1063,06	0,26
1063,475	0,25
1063,891	0,25
1064,306	0,25
1064,721	0,25
1065,137	0,25
1065,552	0,25
1065,967	0,25
1066,382	0,25
1066,798	0,25
1067,213	0,25
1067,628	0,25
1068,043	0,25
1068,458	0,25
1068,873	0,25
1069,288	0,25
1069,703	0,25
1070,118	0,26
1070,533	0,26
1070,948	0,26
1071,363	0,26
1071,778	0,26
1072,193	0,26
1072,607	0,26
1073,022	0,26
1073,437	0,26
1073,852	0,26
1074,266	0,26
1074,681	0,26
1075,096	0,26
1075,51	0,26
1075,925	0,26
1076,339	0,26
1076,754	0,26
1077,168	0,26
1077,583	0,26
1077,997	0,26
1078,412	0,26
1078,826	0,26
1079,24	0,26
1079,655	0,25
1080,069	0,25
1080,483	0,25
1080,897	0,25
1081,312	0,25
1081,726	0,25
1082,14	0,25
1082,554	0,25
1082,968	0,25
1083,382	0,25
1083,796	0,25
1084,21	0,25
1084,624	0,24
1085,038	0,24
1085,452	0,24
1085,866	0,24
1086,28	0,24
1086,694	0,24
1087,108	0,24
1087,521	0,24
1087,935	0,23
1088,349	0,23
1088,763	0,23
1089,176	0,23
1089,59	0,23
1090,004	0,23
1090,417	0,22
1090,831	0,22
1091,244	0,22
1091,658	0,22
1092,071	0,22
1092,485	0,22
1092,898	0,21
1093,312	0,21
1093,725	0,21
1094,138	0,21
1094,552	0,21
1094,965	0,21
1095,378	0,21
1095,791	0,21
1096,205	0,2
1096,618	0,2
1097,031	0,2
1097,444	0,2
1097,857	0,2
1098,27	0,2
1098,683	0,2
1099,096	0,19
1099,509	0,19
1099,922	0,19
1100,335	0,18
1100,748	0,18
1101,161	0,18
1101,574	0,17
1101,986	0,17
1102,399	0,17
1102,812	0,16
1103,225	0,16
1103,637	0,16
1104,05	0,16
1104,463	0,16
1104,875	0,15
1105,288	0,15
1105,7	0,15
1106,113	0,14
1106,525	0,14
1106,938	0,14
1107,35	0,13
1107,763	0,13
1108,175	0,13
1108,588	0,12
1109	0,12
1109,412	0,11
1109,824	0,12
1110,237	0,11
1110,649	0,11
1111,061	0,1
