Data from 18C-808nm-8A_Absorbance__1240__01240.txt Node

Date: Mon Jul 17 17:08:03 CEST 2023
User: Laser008
Spectrometer: MAYP115816
Trigger mode: 0
Integration Time (sec): 2,500000E-1
Scans to average: 10
Electric dark correction enabled: true
Nonlinearity correction enabled: true
Boxcar width: 5
XAxis mode: Wavelengths
Number of Pixels in Spectrum: 2068
>>>>>Begin Spectral Data<<<<<
198,914	-0,73
199,384	-0,51
199,855	-0,38
200,325	-0,32
200,796	-0,28
201,266	-0,23
201,737	-0,22
202,207	-0,2
202,677	-0,19
203,147	-0,18
203,618	-0,14
204,088	-0,12
204,558	-0,11
205,028	-0,1
205,498	-0,09
205,968	-0,09
206,439	-0,11
206,909	-0,09
207,379	-0,09
207,849	-0,1
208,319	-0,1
208,789	-0,11
209,258	-0,12
209,728	-0,14
210,198	-0,15
210,668	-0,15
211,138	-0,14
211,608	-0,14
212,077	-0,14
212,547	-0,14
213,017	-0,15
213,486	-0,15
213,956	-0,16
214,426	-0,16
214,895	-0,15
215,365	-0,16
215,834	-0,16
216,304	-0,17
216,773	-0,17
217,243	-0,18
217,712	-0,2
218,181	-0,19
218,651	-0,19
219,12	-0,18
219,589	-0,18
220,058	-0,17
220,528	-0,18
220,997	-0,19
221,466	-0,2
221,935	-0,21
222,404	-0,2
222,873	-0,2
223,342	-0,2
223,812	-0,2
224,281	-0,2
224,749	-0,21
225,218	-0,22
225,687	-0,22
226,156	-0,21
226,625	-0,19
227,094	-0,19
227,563	-0,19
228,031	-0,2
228,5	-0,21
228,969	-0,21
229,438	-0,2
229,906	-0,19
230,375	-0,18
230,844	-0,18
231,312	-0,18
231,781	-0,19
232,249	-0,19
232,718	-0,19
233,186	-0,17
233,655	-0,17
234,123	-0,16
234,591	-0,17
235,06	-0,17
235,528	-0,18
235,996	-0,17
236,465	-0,17
236,933	-0,17
237,401	-0,17
237,869	-0,16
238,337	-0,16
238,805	-0,15
239,274	-0,15
239,742	-0,14
240,21	-0,15
240,678	-0,14
241,146	-0,14
241,614	-0,14
242,081	-0,14
242,549	-0,13
243,017	-0,13
243,485	-0,14
243,953	-0,14
244,421	-0,13
244,888	-0,13
245,356	-0,13
245,824	-0,12
246,291	-0,12
246,759	-0,13
247,227	-0,14
247,694	-0,13
248,162	-0,12
248,629	-0,11
249,097	-0,12
249,564	-0,12
250,032	-0,13
250,499	-0,13
250,967	-0,13
251,434	-0,13
251,901	-0,13
252,369	-0,13
252,836	-0,13
253,303	-0,14
253,77	-0,16
254,237	-0,15
254,705	-0,16
255,172	-0,15
255,639	-0,15
256,106	-0,17
256,573	-0,17
257,04	-0,17
257,507	-0,18
257,974	-0,19
258,441	-0,18
258,908	-0,19
259,375	-0,2
259,841	-0,21
260,308	-0,21
260,775	-0,22
261,242	-0,2
261,709	-0,2
262,175	-0,21
262,642	-0,21
263,109	-0,21
263,575	-0,22
264,042	-0,2
264,508	-0,2
264,975	-0,21
265,441	-0,22
265,908	-0,22
266,374	-0,22
266,841	-0,22
267,307	-0,21
267,773	-0,21
268,24	-0,21
268,706	-0,2
269,172	-0,21
269,639	-0,21
270,105	-0,2
270,571	-0,2
271,037	-0,21
271,503	-0,22
271,969	-0,21
272,435	-0,22
272,902	-0,24
273,368	-0,25
273,834	-0,25
274,3	-0,26
274,765	-0,25
275,231	-0,25
275,697	-0,24
276,163	-0,23
276,629	-0,22
277,095	-0,23
277,56	-0,22
278,026	-0,21
278,492	-0,2
278,958	-0,2
279,423	-0,19
279,889	-0,19
280,354	-0,21
280,82	-0,2
281,286	-0,22
281,751	-0,22
282,217	-0,21
282,682	-0,21
283,147	-0,21
283,613	-0,21
284,078	-0,22
284,544	-0,23
285,009	-0,24
285,474	-0,22
285,939	-0,24
286,405	-0,23
286,87	-0,22
287,335	-0,22
287,8	-0,22
288,265	-0,21
288,73	-0,23
289,195	-0,24
289,66	-0,24
290,125	-0,23
290,59	-0,24
291,055	-0,23
291,52	-0,23
291,985	-0,25
292,45	-0,26
292,915	-0,26
293,38	-0,26
293,844	-0,24
294,309	-0,22
294,774	-0,22
295,239	-0,22
295,703	-0,23
296,168	-0,21
296,632	-0,2
297,097	-0,19
297,562	-0,17
298,026	-0,17
298,491	-0,18
298,955	-0,19
299,419	-0,19
299,884	-0,19
300,348	-0,18
300,813	-0,17
301,277	-0,18
301,741	-0,18
302,205	-0,17
302,67	-0,17
303,134	-0,16
303,598	-0,17
304,062	-0,15
304,526	-0,14
304,99	-0,16
305,454	-0,16
305,919	-0,16
306,383	-0,16
306,847	-0,16
307,31	-0,17
307,774	-0,18
308,238	-0,17
308,702	-0,16
309,166	-0,18
309,63	-0,18
310,094	-0,15
310,557	-0,14
311,021	-0,14
311,485	-0,14
311,948	-0,13
312,412	-0,13
312,876	-0,12
313,339	-0,12
313,803	-0,13
314,266	-0,12
314,73	-0,13
315,193	-0,13
315,657	-0,13
316,12	-0,13
316,584	-0,12
317,047	-0,12
317,51	-0,1
317,973	-0,1
318,437	-0,1
318,9	-0,09
319,363	-0,08
319,826	-0,07
320,29	-0,08
320,753	-0,08
321,216	-0,08
321,679	-0,08
322,142	-0,08
322,605	-0,09
323,068	-0,09
323,531	-0,09
323,994	-0,08
324,457	-0,08
324,92	-0,08
325,382	-0,07
325,845	-0,06
326,308	-0,06
326,771	-0,05
327,233	-0,05
327,696	-0,04
328,159	-0,04
328,622	-0,02
329,084	-0,03
329,547	-0,02
330,009	-0,01
330,472	-0
330,934	0
331,397	0
331,859	0,01
332,322	0,01
332,784	0,01
333,246	0,02
333,709	0,02
334,171	0,02
334,633	0,02
335,096	0,02
335,558	0,02
336,02	0,02
336,482	0,02
336,944	0,03
337,406	0,04
337,868	0,04
338,331	0,04
338,793	0,04
339,255	0,05
339,717	0,05
340,178	0,06
340,64	0,07
341,102	0,08
341,564	0,09
342,026	0,1
342,488	0,1
342,949	0,12
343,411	0,14
343,873	0,16
344,335	0,19
344,796	0,22
345,258	0,25
345,719	0,28
346,181	0,31
346,643	0,33
347,104	0,35
347,566	0,37
348,027	0,39
348,488	0,41
348,95	0,42
349,411	0,43
349,873	0,44
350,334	0,46
350,795	0,47
351,256	0,47
351,718	0,48
352,179	0,48
352,64	0,48
353,101	0,48
353,562	0,49
354,023	0,49
354,484	0,49
354,945	0,49
355,406	0,49
355,867	0,49
356,328	0,49
356,789	0,5
357,25	0,5
357,711	0,5
358,172	0,5
358,633	0,5
359,093	0,5
359,554	0,51
360,015	0,51
360,476	0,51
360,936	0,51
361,397	0,51
361,858	0,51
362,318	0,51
362,779	0,51
363,239	0,51
363,7	0,51
364,16	0,51
364,621	0,51
365,081	0,51
365,541	0,51
366,002	0,51
366,462	0,51
366,922	0,5
367,383	0,5
367,843	0,5
368,303	0,5
368,763	0,5
369,223	0,51
369,684	0,51
370,144	0,51
370,604	0,51
371,064	0,51
371,524	0,51
371,984	0,51
372,444	0,51
372,904	0,5
373,363	0,5
373,823	0,5
374,283	0,5
374,743	0,5
375,203	0,5
375,663	0,5
376,122	0,5
376,582	0,5
377,042	0,5
377,501	0,5
377,961	0,5
378,42	0,5
378,88	0,5
379,34	0,5
379,799	0,5
380,259	0,5
380,718	0,5
381,177	0,5
381,637	0,5
382,096	0,5
382,555	0,5
383,015	0,5
383,474	0,5
383,933	0,5
384,393	0,5
384,852	0,5
385,311	0,5
385,77	0,5
386,229	0,5
386,688	0,5
387,147	0,5
387,606	0,5
388,065	0,49
388,524	0,49
388,983	0,49
389,442	0,49
389,901	0,49
390,36	0,49
390,819	0,49
391,277	0,49
391,736	0,49
392,195	0,49
392,654	0,49
393,112	0,49
393,571	0,49
394,03	0,49
394,488	0,49
394,947	0,49
395,405	0,49
395,864	0,49
396,322	0,49
396,781	0,49
397,239	0,49
397,698	0,49
398,156	0,49
398,614	0,49
399,073	0,49
399,531	0,49
399,989	0,49
400,447	0,49
400,905	0,49
401,364	0,49
401,822	0,49
402,28	0,49
402,738	0,49
403,196	0,49
403,654	0,49
404,112	0,49
404,57	0,49
405,028	0,49
405,486	0,49
405,944	0,48
406,402	0,48
406,859	0,48
407,317	0,48
407,775	0,48
408,233	0,48
408,691	0,48
409,148	0,48
409,606	0,48
410,064	0,48
410,521	0,48
410,979	0,48
411,436	0,48
411,894	0,48
412,351	0,48
412,809	0,48
413,266	0,48
413,724	0,48
414,181	0,48
414,638	0,48
415,096	0,48
415,553	0,48
416,01	0,48
416,467	0,48
416,925	0,48
417,382	0,48
417,839	0,48
418,296	0,48
418,753	0,48
419,21	0,48
419,667	0,48
420,124	0,48
420,581	0,48
421,038	0,48
421,495	0,48
421,952	0,48
422,409	0,48
422,866	0,48
423,322	0,48
423,779	0,48
424,236	0,48
424,693	0,48
425,149	0,48
425,606	0,48
426,063	0,48
426,519	0,48
426,976	0,48
427,433	0,48
427,889	0,48
428,346	0,48
428,802	0,48
429,258	0,48
429,715	0,48
430,171	0,48
430,628	0,48
431,084	0,48
431,54	0,48
431,997	0,48
432,453	0,48
432,909	0,48
433,365	0,47
433,821	0,47
434,277	0,47
434,734	0,47
435,19	0,47
435,646	0,47
436,102	0,47
436,558	0,47
437,014	0,47
437,47	0,47
437,925	0,47
438,381	0,47
438,837	0,47
439,293	0,47
439,749	0,47
440,205	0,47
440,66	0,47
441,116	0,47
441,572	0,47
442,027	0,47
442,483	0,47
442,939	0,47
443,394	0,47
443,85	0,47
444,305	0,47
444,761	0,47
445,216	0,47
445,672	0,47
446,127	0,48
446,582	0,48
447,038	0,48
447,493	0,48
447,948	0,48
448,403	0,48
448,859	0,48
449,314	0,48
449,769	0,48
450,224	0,48
450,679	0,48
451,134	0,48
451,589	0,48
452,044	0,48
452,499	0,48
452,954	0,48
453,409	0,48
453,864	0,48
454,319	0,48
454,774	0,48
455,229	0,48
455,684	0,48
456,138	0,48
456,593	0,48
457,048	0,48
457,503	0,48
457,957	0,48
458,412	0,48
458,866	0,48
459,321	0,48
459,776	0,48
460,23	0,48
460,685	0,48
461,139	0,48
461,593	0,48
462,048	0,48
462,502	0,48
462,957	0,48
463,411	0,48
463,865	0,48
464,319	0,48
464,774	0,48
465,228	0,48
465,682	0,48
466,136	0,48
466,59	0,49
467,044	0,49
467,499	0,49
467,953	0,49
468,407	0,49
468,861	0,49
469,315	0,49
469,768	0,49
470,222	0,49
470,676	0,49
471,13	0,49
471,584	0,49
472,038	0,49
472,491	0,49
472,945	0,49
473,399	0,49
473,852	0,49
474,306	0,49
474,76	0,49
475,213	0,49
475,667	0,49
476,12	0,5
476,574	0,5
477,027	0,5
477,481	0,5
477,934	0,5
478,388	0,5
478,841	0,5
479,294	0,5
479,748	0,5
480,201	0,51
480,654	0,51
481,107	0,51
481,561	0,51
482,014	0,51
482,467	0,51
482,92	0,51
483,373	0,51
483,826	0,51
484,279	0,51
484,732	0,52
485,185	0,52
485,638	0,52
486,091	0,52
486,544	0,52
486,997	0,52
487,449	0,52
487,902	0,52
488,355	0,53
488,808	0,53
489,26	0,53
489,713	0,53
490,166	0,53
490,618	0,54
491,071	0,54
491,523	0,54
491,976	0,54
492,429	0,54
492,881	0,54
493,333	0,55
493,786	0,55
494,238	0,55
494,691	0,55
495,143	0,55
495,595	0,56
496,048	0,56
496,5	0,56
496,952	0,56
497,404	0,56
497,856	0,57
498,309	0,57
498,761	0,57
499,213	0,57
499,665	0,58
500,117	0,58
500,569	0,58
501,021	0,59
501,473	0,59
501,925	0,59
502,377	0,59
502,828	0,6
503,28	0,6
503,732	0,6
504,184	0,6
504,636	0,61
505,087	0,61
505,539	0,61
505,991	0,61
506,442	0,62
506,894	0,62
507,345	0,62
507,797	0,63
508,249	0,63
508,7	0,63
509,151	0,63
509,603	0,64
510,054	0,64
510,506	0,64
510,957	0,64
511,408	0,65
511,86	0,65
512,311	0,65
512,762	0,65
513,213	0,66
513,665	0,66
514,116	0,66
514,567	0,66
515,018	0,66
515,469	0,67
515,92	0,67
516,371	0,67
516,822	0,67
517,273	0,68
517,724	0,68
518,175	0,68
518,626	0,68
519,076	0,68
519,527	0,69
519,978	0,69
520,429	0,69
520,88	0,69
521,33	0,69
521,781	0,69
522,232	0,69
522,682	0,69
523,133	0,7
523,583	0,7
524,034	0,7
524,484	0,7
524,935	0,7
525,385	0,7
525,836	0,7
526,286	0,7
526,736	0,7
527,187	0,7
527,637	0,7
528,087	0,7
528,538	0,7
528,988	0,7
529,438	0,7
529,888	0,7
530,338	0,7
530,788	0,7
531,238	0,7
531,688	0,7
532,139	0,7
532,589	0,7
533,038	0,7
533,488	0,7
533,938	0,69
534,388	0,69
534,838	0,69
535,288	0,69
535,738	0,69
536,187	0,69
536,637	0,68
537,087	0,68
537,537	0,68
537,986	0,68
538,436	0,67
538,885	0,67
539,335	0,67
539,785	0,67
540,234	0,66
540,684	0,66
541,133	0,66
541,582	0,65
542,032	0,65
542,481	0,65
542,931	0,65
543,38	0,64
543,829	0,64
544,278	0,64
544,728	0,63
545,177	0,63
545,626	0,63
546,075	0,63
546,524	0,62
546,973	0,62
547,422	0,62
547,871	0,62
548,32	0,62
548,769	0,61
549,218	0,61
549,667	0,61
550,116	0,61
550,565	0,61
551,014	0,61
551,463	0,6
551,911	0,6
552,36	0,6
552,809	0,6
553,258	0,59
553,706	0,59
554,155	0,59
554,603	0,59
555,052	0,59
555,501	0,58
555,949	0,58
556,398	0,58
556,846	0,58
557,294	0,57
557,743	0,57
558,191	0,57
558,64	0,57
559,088	0,56
559,536	0,56
559,985	0,56
560,433	0,55
560,881	0,55
561,329	0,55
561,777	0,55
562,225	0,54
562,674	0,54
563,122	0,54
563,57	0,54
564,018	0,54
564,466	0,53
564,914	0,53
565,362	0,53
565,809	0,53
566,257	0,52
566,705	0,52
567,153	0,52
567,601	0,52
568,048	0,51
568,496	0,51
568,944	0,51
569,392	0,51
569,839	0,5
570,287	0,5
570,734	0,5
571,182	0,5
571,63	0,5
572,077	0,49
572,525	0,49
572,972	0,49
573,419	0,49
573,867	0,49
574,314	0,48
574,761	0,48
575,209	0,48
575,656	0,48
576,103	0,48
576,551	0,47
576,998	0,47
577,445	0,47
577,892	0,47
578,339	0,47
578,786	0,47
579,233	0,47
579,68	0,46
580,127	0,46
580,574	0,46
581,021	0,46
581,468	0,46
581,915	0,46
582,362	0,45
582,809	0,45
583,255	0,45
583,702	0,45
584,149	0,45
584,596	0,45
585,042	0,45
585,489	0,44
585,936	0,44
586,382	0,44
586,829	0,44
587,275	0,44
587,722	0,44
588,168	0,44
588,615	0,44
589,061	0,44
589,508	0,43
589,954	0,43
590,4	0,43
590,847	0,43
591,293	0,43
591,739	0,43
592,185	0,43
592,632	0,43
593,078	0,43
593,524	0,43
593,97	0,43
594,416	0,42
594,862	0,42
595,308	0,42
595,754	0,42
596,2	0,42
596,646	0,42
597,092	0,42
597,538	0,42
597,984	0,42
598,43	0,42
598,876	0,41
599,321	0,41
599,767	0,41
600,213	0,41
600,659	0,41
601,104	0,41
601,55	0,41
601,995	0,41
602,441	0,41
602,887	0,41
603,332	0,41
603,778	0,41
604,223	0,41
604,668	0,4
605,114	0,4
605,559	0,4
606,005	0,4
606,45	0,4
606,895	0,4
607,341	0,4
607,786	0,4
608,231	0,4
608,676	0,4
609,121	0,39
609,566	0,39
610,012	0,39
610,457	0,38
610,902	0,38
611,347	0,38
611,792	0,38
612,237	0,38
612,682	0,38
613,127	0,37
613,571	0,38
614,016	0,38
614,461	0,38
614,906	0,38
615,351	0,38
615,795	0,38
616,24	0,38
616,685	0,38
617,129	0,38
617,574	0,38
618,019	0,38
618,463	0,38
618,908	0,38
619,352	0,38
619,797	0,38
620,241	0,38
620,686	0,38
621,13	0,38
621,574	0,38
622,019	0,38
622,463	0,38
622,907	0,38
623,352	0,38
623,796	0,38
624,24	0,38
624,684	0,38
625,128	0,38
625,572	0,38
626,016	0,38
626,461	0,38
626,905	0,38
627,349	0,38
627,793	0,38
628,236	0,38
628,68	0,38
629,124	0,38
629,568	0,38
630,012	0,37
630,456	0,37
630,9	0,37
631,343	0,37
631,787	0,37
632,231	0,37
632,674	0,37
633,118	0,37
633,562	0,37
634,005	0,37
634,449	0,37
634,892	0,37
635,336	0,37
635,779	0,37
636,223	0,37
636,666	0,37
637,109	0,37
637,553	0,37
637,996	0,37
638,439	0,37
638,883	0,37
639,326	0,37
639,769	0,37
640,212	0,37
640,655	0,37
641,099	0,37
641,542	0,37
641,985	0,37
642,428	0,37
642,871	0,37
643,314	0,37
643,757	0,37
644,2	0,37
644,643	0,37
645,085	0,37
645,528	0,37
645,971	0,37
646,414	0,36
646,857	0,36
647,299	0,36
647,742	0,36
648,185	0,36
648,627	0,36
649,07	0,36
649,513	0,36
649,955	0,36
650,398	0,36
650,84	0,36
651,283	0,36
651,725	0,36
652,168	0,36
652,61	0,36
653,052	0,36
653,495	0,36
653,937	0,28
654,379	0,22
654,821	0,23
655,264	0,23
655,706	0,23
656,148	0,23
656,59	0,23
657,032	0,23
657,474	0,23
657,916	0,23
658,358	0,22
658,8	0,28
659,242	0,36
659,684	0,36
660,126	0,36
660,568	0,36
661,01	0,36
661,452	0,36
661,894	0,36
662,335	0,36
662,777	0,36
663,219	0,36
663,661	0,36
664,102	0,36
664,544	0,36
664,985	0,36
665,427	0,36
665,869	0,36
666,31	0,36
666,752	0,36
667,193	0,36
667,634	0,36
668,076	0,36
668,517	0,36
668,959	0,36
669,4	0,36
669,841	0,36
670,282	0,36
670,724	0,36
671,165	0,36
671,606	0,35
672,047	0,35
672,488	0,35
672,929	0,35
673,37	0,35
673,811	0,35
674,252	0,35
674,693	0,35
675,134	0,35
675,575	0,35
676,016	0,35
676,457	0,35
676,898	0,35
677,339	0,35
677,78	0,35
678,22	0,35
678,661	0,35
679,102	0,35
679,542	0,35
679,983	0,35
680,424	0,35
680,864	0,35
681,305	0,35
681,745	0,35
682,186	0,35
682,626	0,35
683,067	0,35
683,507	0,35
683,948	0,35
684,388	0,35
684,828	0,35
685,269	0,35
685,709	0,35
686,149	0,35
686,589	0,34
687,029	0,34
687,47	0,34
687,91	0,34
688,35	0,34
688,79	0,34
689,23	0,34
689,67	0,34
690,11	0,34
690,55	0,34
690,99	0,34
691,43	0,34
691,87	0,34
692,31	0,34
692,749	0,34
693,189	0,34
693,629	0,34
694,069	0,34
694,508	0,34
694,948	0,34
695,388	0,34
695,827	0,34
696,267	0,34
696,706	0,34
697,146	0,34
697,586	0,34
698,025	0,34
698,464	0,34
698,904	0,34
699,343	0,34
699,783	0,34
700,222	0,34
700,661	0,34
701,101	0,34
701,54	0,34
701,979	0,34
702,418	0,34
702,857	0,34
703,297	0,34
703,736	0,34
704,175	0,34
704,614	0,34
705,053	0,34
705,492	0,34
705,931	0,34
706,37	0,34
706,809	0,33
707,248	0,33
707,687	0,33
708,125	0,33
708,564	0,33
709,003	0,33
709,442	0,33
709,88	0,33
710,319	0,33
710,758	0,33
711,196	0,33
711,635	0,33
712,074	0,33
712,512	0,33
712,951	0,33
713,389	0,33
713,828	0,33
714,266	0,33
714,705	0,33
715,143	0,33
715,581	0,33
716,02	0,33
716,458	0,32
716,896	0,32
717,334	0,32
717,773	0,32
718,211	0,32
718,649	0,32
719,087	0,32
719,525	0,32
719,963	0,32
720,401	0,32
720,839	0,32
721,277	0,32
721,715	0,32
722,153	0,32
722,591	0,32
723,029	0,32
723,467	0,32
723,905	0,32
724,342	0,32
724,78	0,32
725,218	0,32
725,656	0,32
726,093	0,32
726,531	0,32
726,969	0,32
727,406	0,32
727,844	0,32
728,281	0,32
728,719	0,32
729,156	0,32
729,594	0,32
730,031	0,32
730,469	0,32
730,906	0,32
731,343	0,32
731,781	0,32
732,218	0,32
732,655	0,32
733,092	0,32
733,53	0,32
733,967	0,32
734,404	0,32
734,841	0,32
735,278	0,32
735,715	0,32
736,152	0,32
736,589	0,32
737,026	0,32
737,463	0,32
737,9	0,32
738,337	0,31
738,774	0,31
739,211	0,31
739,647	0,31
740,084	0,31
740,521	0,31
740,958	0,31
741,394	0,31
741,831	0,31
742,268	0,31
742,704	0,31
743,141	0,31
743,577	0,31
744,014	0,3
744,45	0,3
744,887	0,3
745,323	0,3
745,76	0,3
746,196	0,3
746,632	0,3
747,069	0,3
747,505	0,3
747,941	0,3
748,378	0,3
748,814	0,3
749,25	0,3
749,686	0,3
750,122	0,3
750,558	0,3
750,994	0,31
751,43	0,31
751,866	0,31
752,302	0,31
752,738	0,31
753,174	0,31
753,61	0,31
754,046	0,31
754,482	0,31
754,918	0,31
755,354	0,31
755,789	0,31
756,225	0,31
756,661	0,31
757,096	0,31
757,532	0,31
757,968	0,31
758,403	0,31
758,839	0,3
759,274	0,3
759,71	0,3
760,145	0,29
760,581	0,29
761,016	0,29
761,452	0,28
761,887	0,28
762,322	0,28
762,758	0,27
763,193	0,27
763,628	0,26
764,063	0,26
764,499	0,25
764,934	0,25
765,369	0,24
765,804	0,24
766,239	0,23
766,674	0,23
767,109	0,22
767,544	0,22
767,979	0,21
768,414	0,2
768,849	0,19
769,284	0,18
769,719	0,18
770,154	0,17
770,588	0,16
771,023	0,15
771,458	0,14
771,893	0,14
772,327	0,12
772,762	0,12
773,197	0,11
773,631	0,11
774,066	0,1
774,5	0,09
774,935	0,08
775,369	0,07
775,804	0,06
776,238	0,05
776,673	0,04
777,107	0,03
777,541	0,03
777,976	0,02
778,41	0,01
778,844	0
779,279	-0
779,713	-0,01
780,147	-0,02
780,581	-0,03
781,015	-0,04
781,449	-0,05
781,883	-0,06
782,317	-0,07
782,751	-0,08
783,185	-0,08
783,619	-0,09
784,053	-0,1
784,487	-0,1
784,921	-0,11
785,355	-0,11
785,789	-0,11
786,223	-0,12
786,656	-0,13
787,09	-0,14
787,524	-0,15
787,957	-0,16
788,391	-0,18
788,825	-0,19
789,258	-0,21
789,692	-0,22
790,125	-0,24
790,559	-0,26
790,992	-0,27
791,426	-0,3
791,859	-0,31
792,293	-0,34
792,726	-0,36
793,159	-0,38
793,593	-0,4
794,026	-0,42
794,459	-0,45
794,892	-0,48
795,326	-0,5
795,759	-0,54
796,192	-0,58
796,625	-0,63
797,058	-0,65
797,491	-0,7
797,924	-0,74
798,357	-0,79
798,79	-0,83
799,223	-0,87
799,656	-0,92
800,089	-0,97
800,522	-1,02
800,955	-1,06
801,387	-1,12
801,82	-1,17
802,253	-1,23
802,686	-1,31
803,118	-1,36
803,551	-1,42
803,984	-1,46
804,416	-1,5
804,849	-1,53
805,281	-1,64
805,714	-1,98
806,146	-2,45
806,579	-2,71
807,011	-2,87
807,444	-2,96
807,876	-3,06
808,308	-3,09
808,741	-3,12
809,173	-3,17
809,605	-3,2
810,037	-3,27
810,47	-3,19
810,902	-3
811,334	-2,85
811,766	-2,7
812,198	-2,48
812,63	-2,05
813,062	-1,82
813,494	-1,72
813,926	-1,63
814,358	-1,58
814,79	-1,5
815,222	-1,44
815,654	-1,39
816,086	-1,32
816,518	-1,27
816,949	-1,21
817,381	-1,17
817,813	-1,15
818,245	-1,11
818,676	-1,07
819,108	-1,04
819,54	-1,02
819,971	-1
820,403	-0,95
820,834	-0,94
821,266	-0,89
821,697	-0,87
822,129	-0,85
822,56	-0,83
822,991	-0,8
823,423	-0,78
823,854	-0,77
824,286	-0,74
824,717	-0,72
825,148	-0,7
825,579	-0,7
826,01	-0,68
826,442	-0,67
826,873	-0,66
827,304	-0,62
827,735	-0,62
828,166	-0,62
828,597	-0,63
829,028	-0,62
829,459	-0,62
829,89	-0,63
830,321	-0,58
830,752	-0,59
831,183	-0,58
831,613	-0,57
832,044	-0,56
832,475	-0,54
832,906	-0,55
833,336	-0,56
833,767	-0,56
834,198	-0,55
834,628	-0,52
835,059	-0,55
835,49	-0,55
835,92	-0,52
836,351	-0,51
836,781	-0,52
837,212	-0,53
837,642	-0,54
838,072	-0,51
838,503	-0,53
838,933	-0,5
839,364	-0,52
839,794	-0,5
840,224	-0,5
840,654	-0,54
841,085	-0,55
841,515	-0,52
841,945	-0,52
842,375	-0,47
842,805	-0,46
843,235	-0,45
843,665	-0,47
844,095	-0,44
844,525	-0,47
844,955	-0,47
845,385	-0,45
845,815	-0,43
846,245	-0,46
846,675	-0,47
847,105	-0,49
847,534	-0,49
847,964	-0,48
848,394	-0,46
848,824	-0,49
849,253	-0,49
849,683	-0,49
850,112	-0,5
850,542	-0,53
850,972	-0,53
851,401	-0,51
851,831	-0,49
852,26	-0,51
852,69	-0,53
853,119	-0,53
853,548	-0,54
853,978	-0,54
854,407	-0,52
854,836	-0,53
855,266	-0,52
855,695	-0,53
856,124	-0,55
856,553	-0,55
856,983	-0,56
857,412	-0,56
857,841	-0,57
858,27	-0,57
858,699	-0,58
859,128	-0,61
859,557	-0,62
859,986	-0,63
860,415	-0,61
860,844	-0,58
861,273	-0,59
861,702	-0,6
862,13	-0,58
862,559	-0,6
862,988	-0,57
863,417	-0,56
863,845	-0,56
864,274	-0,56
864,703	-0,55
865,131	-0,55
865,56	-0,55
865,989	-0,57
866,417	-0,54
866,846	-0,55
867,274	-0,54
867,703	-0,56
868,131	-0,58
868,559	-0,57
868,988	-0,61
869,416	-0,6
869,844	-0,62
870,273	-0,65
870,701	-0,64
871,129	-0,67
871,557	-0,69
871,986	-0,69
872,414	-0,71
872,842	-0,68
873,27	-0,66
873,698	-0,62
874,126	-0,65
874,554	-0,63
874,982	-0,63
875,41	-0,65
875,838	-0,6
876,266	-0,58
876,694	-0,58
877,122	-0,57
877,549	-0,62
877,977	-0,59
878,405	-0,63
878,833	-0,61
879,26	-0,58
879,688	-0,58
880,116	-0,56
880,543	-0,54
880,971	-0,53
881,399	-0,55
881,826	-0,56
882,254	-0,54
882,681	-0,58
883,109	-0,54
883,536	-0,54
883,963	-0,56
884,391	-0,55
884,818	-0,54
885,245	-0,58
885,673	-0,59
886,1	-0,57
886,527	-0,57
886,954	-0,53
887,381	-0,54
887,809	-0,55
888,236	-0,56
888,663	-0,56
889,09	-0,6
889,517	-0,62
889,944	-0,62
890,371	-0,6
890,798	-0,61
891,225	-0,61
891,652	-0,64
892,078	-0,61
892,505	-0,64
892,932	-0,6
893,359	-0,62
893,786	-0,61
894,212	-0,58
894,639	-0,59
895,066	-0,62
895,492	-0,56
895,919	-0,57
896,346	-0,56
896,772	-0,57
897,199	-0,54
897,625	-0,56
898,052	-0,54
898,478	-0,53
898,904	-0,55
899,331	-0,54
899,757	-0,55
900,183	-0,57
900,61	-0,55
901,036	-0,56
901,462	-0,56
901,888	-0,55
902,315	-0,54
902,741	-0,58
903,167	-0,56
903,593	-0,59
904,019	-0,59
904,445	-0,55
904,871	-0,59
905,297	-0,6
905,723	-0,6
906,149	-0,59
906,575	-0,61
907,001	-0,62
907,427	-0,58
907,852	-0,58
908,278	-0,58
908,704	-0,55
909,13	-0,55
909,555	-0,54
909,981	-0,53
910,407	-0,53
910,832	-0,52
911,258	-0,53
911,684	-0,53
912,109	-0,53
912,535	-0,56
912,96	-0,51
913,386	-0,56
913,811	-0,56
914,236	-0,58
914,662	-0,56
915,087	-0,59
915,512	-0,58
915,938	-0,6
916,363	-0,59
916,788	-0,6
917,213	-0,57
917,639	-0,62
918,064	-0,59
918,489	-0,59
918,914	-0,59
919,339	-0,6
919,764	-0,57
920,189	-0,57
920,614	-0,59
921,039	-0,6
921,464	-0,56
921,889	-0,6
922,314	-0,61
922,738	-0,64
923,163	-0,65
923,588	-0,65
924,013	-0,65
924,437	-0,65
924,862	-0,67
925,287	-0,62
925,711	-0,63
926,136	-0,64
926,561	-0,61
926,985	-0,6
927,41	-0,57
927,834	-0,55
928,259	-0,52
928,683	-0,51
929,108	-0,49
929,532	-0,5
929,956	-0,5
930,381	-0,49
930,805	-0,49
931,229	-0,48
931,653	-0,47
932,078	-0,47
932,502	-0,48
932,926	-0,49
933,35	-0,48
933,774	-0,47
934,198	-0,45
934,622	-0,43
935,046	-0,44
935,47	-0,45
935,894	-0,45
936,318	-0,45
936,742	-0,44
937,166	-0,45
937,59	-0,44
938,014	-0,47
938,437	-0,48
938,861	-0,5
939,285	-0,51
939,709	-0,5
940,132	-0,5
940,556	-0,5
940,98	-0,5
941,403	-0,49
941,827	-0,48
942,25	-0,5
942,674	-0,49
943,097	-0,48
943,521	-0,48
943,944	-0,49
944,368	-0,47
944,791	-0,46
945,214	-0,49
945,638	-0,49
946,061	-0,52
946,484	-0,53
946,907	-0,51
947,331	-0,51
947,754	-0,55
948,177	-0,52
948,6	-0,52
949,023	-0,53
949,446	-0,53
949,869	-0,5
950,292	-0,51
950,715	-0,48
951,138	-0,46
951,561	-0,44
951,984	-0,45
952,407	-0,43
952,83	-0,42
953,252	-0,38
953,675	-0,38
954,098	-0,38
954,521	-0,38
954,943	-0,37
955,366	-0,37
955,789	-0,35
956,211	-0,37
956,634	-0,37
957,056	-0,34
957,479	-0,35
957,902	-0,37
958,324	-0,37
958,746	-0,35
959,169	-0,36
959,591	-0,37
960,014	-0,38
960,436	-0,38
960,858	-0,38
961,281	-0,38
961,703	-0,4
962,125	-0,4
962,547	-0,38
962,969	-0,39
963,391	-0,39
963,814	-0,41
964,236	-0,39
964,658	-0,36
965,08	-0,37
965,502	-0,36
965,924	-0,33
966,346	-0,34
966,768	-0,33
967,189	-0,35
967,611	-0,33
968,033	-0,33
968,455	-0,31
968,877	-0,33
969,298	-0,35
969,72	-0,35
970,142	-0,35
970,563	-0,35
970,985	-0,34
971,407	-0,33
971,828	-0,31
972,25	-0,3
972,671	-0,29
973,093	-0,29
973,514	-0,27
973,936	-0,25
974,357	-0,24
974,778	-0,24
975,2	-0,23
975,621	-0,22
976,042	-0,2
976,464	-0,19
976,885	-0,19
977,306	-0,18
977,727	-0,18
978,148	-0,17
978,57	-0,15
978,991	-0,14
979,412	-0,12
979,833	-0,12
980,254	-0,12
980,675	-0,13
981,096	-0,12
981,517	-0,1
981,937	-0,1
982,358	-0,08
982,779	-0,07
983,2	-0,08
983,621	-0,07
984,042	-0,06
984,462	-0,04
984,883	-0,03
985,304	-0,02
985,724	-0,01
986,145	-0
986,565	0,01
986,986	0,02
987,407	0,03
987,827	0,04
988,248	0,05
988,668	0,06
989,088	0,07
989,509	0,08
989,929	0,08
990,35	0,1
990,77	0,1
991,19	0,11
991,61	0,12
992,031	0,13
992,451	0,14
992,871	0,15
993,291	0,16
993,711	0,16
994,131	0,17
994,551	0,18
994,971	0,18
995,391	0,19
995,811	0,19
996,231	0,19
996,651	0,2
997,071	0,2
997,491	0,21
997,911	0,21
998,331	0,22
998,75	0,22
999,17	0,23
999,59	0,23
1000,009	0,23
1000,429	0,24
1000,849	0,24
1001,268	0,25
1001,688	0,25
1002,107	0,25
1002,527	0,25
1002,946	0,26
1003,366	0,26
1003,785	0,26
1004,205	0,26
1004,624	0,26
1005,044	0,27
1005,463	0,27
1005,882	0,27
1006,301	0,27
1006,721	0,27
1007,14	0,27
1007,559	0,27
1007,978	0,27
1008,397	0,27
1008,816	0,27
1009,235	0,27
1009,655	0,27
1010,074	0,27
1010,492	0,27
1010,911	0,27
1011,33	0,27
1011,749	0,26
1012,168	0,26
1012,587	0,26
1013,006	0,26
1013,425	0,26
1013,843	0,26
1014,262	0,26
1014,681	0,26
1015,099	0,26
1015,518	0,26
1015,937	0,26
1016,355	0,26
1016,774	0,26
1017,192	0,26
1017,611	0,26
1018,029	0,26
1018,448	0,26
1018,866	0,26
1019,285	0,26
1019,703	0,26
1020,121	0,26
1020,54	0,26
1020,958	0,26
1021,376	0,27
1021,794	0,26
1022,213	0,26
1022,631	0,26
1023,049	0,26
1023,467	0,26
1023,885	0,26
1024,303	0,26
1024,721	0,26
1025,139	0,26
1025,557	0,26
1025,975	0,26
1026,393	0,26
1026,811	0,26
1027,229	0,26
1027,647	0,26
1028,065	0,26
1028,482	0,26
1028,9	0,26
1029,318	0,26
1029,735	0,26
1030,153	0,26
1030,571	0,26
1030,988	0,26
1031,406	0,26
1031,823	0,26
1032,241	0,26
1032,659	0,26
1033,076	0,26
1033,493	0,26
1033,911	0,26
1034,328	0,26
1034,746	0,26
1035,163	0,26
1035,58	0,25
1035,997	0,25
1036,415	0,25
1036,832	0,25
1037,249	0,25
1037,666	0,25
1038,083	0,25
1038,501	0,25
1038,918	0,25
1039,335	0,25
1039,752	0,25
1040,169	0,25
1040,586	0,25
1041,003	0,25
1041,419	0,25
1041,836	0,25
1042,253	0,25
1042,67	0,25
1043,087	0,25
1043,504	0,25
1043,92	0,25
1044,337	0,25
1044,754	0,25
1045,17	0,24
1045,587	0,24
1046,004	0,24
1046,42	0,24
1046,837	0,24
1047,253	0,24
1047,67	0,24
1048,086	0,24
1048,503	0,24
1048,919	0,24
1049,335	0,24
1049,752	0,24
1050,168	0,24
1050,584	0,24
1051,001	0,24
1051,417	0,24
1051,833	0,24
1052,249	0,24
1052,665	0,24
1053,081	0,24
1053,497	0,25
1053,914	0,25
1054,33	0,25
1054,746	0,25
1055,162	0,25
1055,578	0,25
1055,993	0,25
1056,409	0,25
1056,825	0,25
1057,241	0,25
1057,657	0,25
1058,073	0,25
1058,488	0,25
1058,904	0,25
1059,32	0,25
1059,736	0,25
1060,151	0,25
1060,567	0,25
1060,982	0,25
1061,398	0,25
1061,813	0,25
1062,229	0,25
1062,644	0,25
1063,06	0,25
1063,475	0,25
1063,891	0,25
1064,306	0,25
1064,721	0,25
1065,137	0,25
1065,552	0,25
1065,967	0,25
1066,382	0,25
1066,798	0,25
1067,213	0,25
1067,628	0,25
1068,043	0,25
1068,458	0,25
1068,873	0,25
1069,288	0,25
1069,703	0,25
1070,118	0,25
1070,533	0,25
1070,948	0,25
1071,363	0,25
1071,778	0,25
1072,193	0,25
1072,607	0,25
1073,022	0,25
1073,437	0,25
1073,852	0,26
1074,266	0,26
1074,681	0,26
1075,096	0,26
1075,51	0,26
1075,925	0,26
1076,339	0,25
1076,754	0,25
1077,168	0,25
1077,583	0,25
1077,997	0,25
1078,412	0,25
1078,826	0,25
1079,24	0,25
1079,655	0,25
1080,069	0,25
1080,483	0,25
1080,897	0,25
1081,312	0,25
1081,726	0,25
1082,14	0,24
1082,554	0,24
1082,968	0,24
1083,382	0,24
1083,796	0,24
1084,21	0,24
1084,624	0,24
1085,038	0,24
1085,452	0,24
1085,866	0,24
1086,28	0,24
1086,694	0,24
1087,108	0,24
1087,521	0,23
1087,935	0,23
1088,349	0,23
1088,763	0,23
1089,176	0,23
1089,59	0,23
1090,004	0,22
1090,417	0,22
1090,831	0,22
1091,244	0,22
1091,658	0,21
1092,071	0,21
1092,485	0,21
1092,898	0,21
1093,312	0,21
1093,725	0,21
1094,138	0,21
1094,552	0,21
1094,965	0,2
1095,378	0,2
1095,791	0,2
1096,205	0,2
1096,618	0,2
1097,031	0,2
1097,444	0,2
1097,857	0,2
1098,27	0,19
1098,683	0,19
1099,096	0,19
1099,509	0,19
1099,922	0,18
1100,335	0,18
1100,748	0,17
1101,161	0,17
1101,574	0,17
1101,986	0,16
1102,399	0,16
1102,812	0,16
1103,225	0,16
1103,637	0,15
1104,05	0,15
1104,463	0,15
1104,875	0,15
1105,288	0,15
1105,7	0,15
1106,113	0,14
1106,525	0,14
1106,938	0,14
1107,35	0,13
1107,763	0,13
1108,175	0,13
1108,588	0,13
1109	0,13
1109,412	0,12
1109,824	0,13
1110,237	0,13
1110,649	0,13
1111,061	0,12
