Data from 18C-808nm-8A_Absorbance__984__00984.txt Node

Date: Mon Jul 17 16:57:23 CEST 2023
User: Laser008
Spectrometer: MAYP115816
Trigger mode: 0
Integration Time (sec): 2,500000E-1
Scans to average: 10
Electric dark correction enabled: true
Nonlinearity correction enabled: true
Boxcar width: 5
XAxis mode: Wavelengths
Number of Pixels in Spectrum: 2068
>>>>>Begin Spectral Data<<<<<
198,914	-0,66
199,384	-0,46
199,855	-0,36
200,325	-0,28
200,796	-0,26
201,266	-0,22
201,737	-0,2
202,207	-0,19
202,677	-0,17
203,147	-0,16
203,618	-0,13
204,088	-0,12
204,558	-0,11
205,028	-0,1
205,498	-0,1
205,968	-0,1
206,439	-0,11
206,909	-0,11
207,379	-0,11
207,849	-0,12
208,319	-0,12
208,789	-0,13
209,258	-0,13
209,728	-0,14
210,198	-0,14
210,668	-0,14
211,138	-0,14
211,608	-0,14
212,077	-0,14
212,547	-0,14
213,017	-0,15
213,486	-0,15
213,956	-0,15
214,426	-0,16
214,895	-0,16
215,365	-0,16
215,834	-0,16
216,304	-0,17
216,773	-0,17
217,243	-0,18
217,712	-0,19
218,181	-0,18
218,651	-0,18
219,12	-0,17
219,589	-0,17
220,058	-0,16
220,528	-0,18
220,997	-0,18
221,466	-0,19
221,935	-0,19
222,404	-0,18
222,873	-0,17
223,342	-0,18
223,812	-0,18
224,281	-0,18
224,749	-0,19
225,218	-0,2
225,687	-0,19
226,156	-0,19
226,625	-0,18
227,094	-0,17
227,563	-0,18
228,031	-0,19
228,5	-0,19
228,969	-0,2
229,438	-0,19
229,906	-0,18
230,375	-0,17
230,844	-0,17
231,312	-0,17
231,781	-0,18
232,249	-0,17
232,718	-0,17
233,186	-0,15
233,655	-0,15
234,123	-0,15
234,591	-0,15
235,06	-0,15
235,528	-0,16
235,996	-0,15
236,465	-0,15
236,933	-0,15
237,401	-0,16
237,869	-0,15
238,337	-0,15
238,805	-0,14
239,274	-0,14
239,742	-0,13
240,21	-0,13
240,678	-0,12
241,146	-0,12
241,614	-0,12
242,081	-0,11
242,549	-0,11
243,017	-0,12
243,485	-0,12
243,953	-0,13
244,421	-0,12
244,888	-0,12
245,356	-0,13
245,824	-0,13
246,291	-0,13
246,759	-0,14
247,227	-0,15
247,694	-0,14
248,162	-0,13
248,629	-0,12
249,097	-0,12
249,564	-0,13
250,032	-0,14
250,499	-0,13
250,967	-0,14
251,434	-0,15
251,901	-0,14
252,369	-0,14
252,836	-0,15
253,303	-0,16
253,77	-0,18
254,237	-0,17
254,705	-0,17
255,172	-0,17
255,639	-0,17
256,106	-0,18
256,573	-0,18
257,04	-0,18
257,507	-0,18
257,974	-0,19
258,441	-0,17
258,908	-0,17
259,375	-0,18
259,841	-0,18
260,308	-0,19
260,775	-0,19
261,242	-0,18
261,709	-0,19
262,175	-0,2
262,642	-0,2
263,109	-0,2
263,575	-0,21
264,042	-0,19
264,508	-0,19
264,975	-0,21
265,441	-0,21
265,908	-0,21
266,374	-0,2
266,841	-0,2
267,307	-0,2
267,773	-0,18
268,24	-0,19
268,706	-0,19
269,172	-0,2
269,639	-0,22
270,105	-0,2
270,571	-0,2
271,037	-0,2
271,503	-0,22
271,969	-0,21
272,435	-0,21
272,902	-0,22
273,368	-0,24
273,834	-0,23
274,3	-0,24
274,765	-0,24
275,231	-0,24
275,697	-0,24
276,163	-0,23
276,629	-0,23
277,095	-0,23
277,56	-0,22
278,026	-0,22
278,492	-0,2
278,958	-0,2
279,423	-0,2
279,889	-0,19
280,354	-0,19
280,82	-0,19
281,286	-0,2
281,751	-0,2
282,217	-0,2
282,682	-0,21
283,147	-0,21
283,613	-0,22
284,078	-0,22
284,544	-0,23
285,009	-0,24
285,474	-0,23
285,939	-0,24
286,405	-0,23
286,87	-0,23
287,335	-0,23
287,8	-0,22
288,265	-0,21
288,73	-0,22
289,195	-0,24
289,66	-0,23
290,125	-0,22
290,59	-0,22
291,055	-0,21
291,52	-0,21
291,985	-0,21
292,45	-0,22
292,915	-0,22
293,38	-0,22
293,844	-0,2
294,309	-0,18
294,774	-0,18
295,239	-0,19
295,703	-0,2
296,168	-0,19
296,632	-0,19
297,097	-0,17
297,562	-0,17
298,026	-0,17
298,491	-0,18
298,955	-0,18
299,419	-0,17
299,884	-0,17
300,348	-0,16
300,813	-0,15
301,277	-0,16
301,741	-0,16
302,205	-0,16
302,67	-0,16
303,134	-0,16
303,598	-0,15
304,062	-0,15
304,526	-0,15
304,99	-0,16
305,454	-0,16
305,919	-0,15
306,383	-0,15
306,847	-0,15
307,31	-0,17
307,774	-0,18
308,238	-0,17
308,702	-0,17
309,166	-0,18
309,63	-0,18
310,094	-0,15
310,557	-0,15
311,021	-0,15
311,485	-0,16
311,948	-0,15
312,412	-0,14
312,876	-0,13
313,339	-0,14
313,803	-0,14
314,266	-0,14
314,73	-0,15
315,193	-0,15
315,657	-0,14
316,12	-0,14
316,584	-0,13
317,047	-0,13
317,51	-0,11
317,973	-0,11
318,437	-0,1
318,9	-0,09
319,363	-0,08
319,826	-0,08
320,29	-0,09
320,753	-0,09
321,216	-0,09
321,679	-0,09
322,142	-0,08
322,605	-0,1
323,068	-0,1
323,531	-0,1
323,994	-0,09
324,457	-0,09
324,92	-0,08
325,382	-0,07
325,845	-0,06
326,308	-0,05
326,771	-0,05
327,233	-0,05
327,696	-0,04
328,159	-0,03
328,622	-0,02
329,084	-0,02
329,547	-0,02
330,009	-0,03
330,472	-0,02
330,934	-0,01
331,397	-0,01
331,859	-0
332,322	0
332,784	0
333,246	0
333,709	-0
334,171	0,01
334,633	0,01
335,096	0,01
335,558	0,01
336,02	0,01
336,482	0,01
336,944	0,02
337,406	0,03
337,868	0,03
338,331	0,03
338,793	0,04
339,255	0,04
339,717	0,05
340,178	0,05
340,64	0,06
341,102	0,07
341,564	0,07
342,026	0,08
342,488	0,08
342,949	0,09
343,411	0,11
343,873	0,13
344,335	0,15
344,796	0,17
345,258	0,2
345,719	0,22
346,181	0,25
346,643	0,27
347,104	0,29
347,566	0,31
348,027	0,33
348,488	0,33
348,95	0,34
349,411	0,35
349,873	0,36
350,334	0,37
350,795	0,38
351,256	0,38
351,718	0,39
352,179	0,39
352,64	0,39
353,101	0,39
353,562	0,39
354,023	0,39
354,484	0,39
354,945	0,39
355,406	0,39
355,867	0,4
356,328	0,4
356,789	0,4
357,25	0,4
357,711	0,4
358,172	0,4
358,633	0,41
359,093	0,41
359,554	0,41
360,015	0,41
360,476	0,41
360,936	0,41
361,397	0,41
361,858	0,41
362,318	0,41
362,779	0,41
363,239	0,41
363,7	0,41
364,16	0,41
364,621	0,41
365,081	0,41
365,541	0,41
366,002	0,41
366,462	0,41
366,922	0,41
367,383	0,41
367,843	0,41
368,303	0,41
368,763	0,41
369,223	0,41
369,684	0,41
370,144	0,41
370,604	0,41
371,064	0,41
371,524	0,41
371,984	0,41
372,444	0,41
372,904	0,41
373,363	0,4
373,823	0,4
374,283	0,4
374,743	0,4
375,203	0,4
375,663	0,4
376,122	0,4
376,582	0,4
377,042	0,4
377,501	0,4
377,961	0,4
378,42	0,4
378,88	0,4
379,34	0,4
379,799	0,4
380,259	0,4
380,718	0,4
381,177	0,4
381,637	0,4
382,096	0,4
382,555	0,4
383,015	0,4
383,474	0,4
383,933	0,4
384,393	0,4
384,852	0,4
385,311	0,4
385,77	0,4
386,229	0,4
386,688	0,4
387,147	0,4
387,606	0,4
388,065	0,4
388,524	0,4
388,983	0,4
389,442	0,4
389,901	0,4
390,36	0,4
390,819	0,4
391,277	0,39
391,736	0,39
392,195	0,39
392,654	0,39
393,112	0,39
393,571	0,39
394,03	0,39
394,488	0,39
394,947	0,39
395,405	0,39
395,864	0,39
396,322	0,39
396,781	0,39
397,239	0,39
397,698	0,39
398,156	0,39
398,614	0,39
399,073	0,39
399,531	0,39
399,989	0,39
400,447	0,39
400,905	0,39
401,364	0,39
401,822	0,39
402,28	0,39
402,738	0,39
403,196	0,39
403,654	0,39
404,112	0,39
404,57	0,39
405,028	0,39
405,486	0,39
405,944	0,39
406,402	0,39
406,859	0,39
407,317	0,39
407,775	0,39
408,233	0,39
408,691	0,39
409,148	0,39
409,606	0,39
410,064	0,39
410,521	0,39
410,979	0,39
411,436	0,39
411,894	0,39
412,351	0,39
412,809	0,39
413,266	0,39
413,724	0,39
414,181	0,39
414,638	0,39
415,096	0,38
415,553	0,38
416,01	0,38
416,467	0,38
416,925	0,38
417,382	0,38
417,839	0,38
418,296	0,38
418,753	0,38
419,21	0,38
419,667	0,38
420,124	0,38
420,581	0,38
421,038	0,38
421,495	0,38
421,952	0,38
422,409	0,38
422,866	0,38
423,322	0,38
423,779	0,38
424,236	0,38
424,693	0,38
425,149	0,38
425,606	0,38
426,063	0,38
426,519	0,38
426,976	0,38
427,433	0,38
427,889	0,38
428,346	0,38
428,802	0,38
429,258	0,38
429,715	0,38
430,171	0,38
430,628	0,38
431,084	0,38
431,54	0,38
431,997	0,38
432,453	0,38
432,909	0,38
433,365	0,38
433,821	0,38
434,277	0,38
434,734	0,38
435,19	0,38
435,646	0,38
436,102	0,38
436,558	0,38
437,014	0,38
437,47	0,38
437,925	0,38
438,381	0,38
438,837	0,38
439,293	0,38
439,749	0,38
440,205	0,38
440,66	0,38
441,116	0,38
441,572	0,38
442,027	0,38
442,483	0,38
442,939	0,38
443,394	0,38
443,85	0,38
444,305	0,38
444,761	0,38
445,216	0,38
445,672	0,38
446,127	0,38
446,582	0,38
447,038	0,38
447,493	0,38
447,948	0,38
448,403	0,38
448,859	0,38
449,314	0,38
449,769	0,38
450,224	0,38
450,679	0,38
451,134	0,38
451,589	0,38
452,044	0,38
452,499	0,38
452,954	0,38
453,409	0,38
453,864	0,38
454,319	0,38
454,774	0,38
455,229	0,38
455,684	0,38
456,138	0,38
456,593	0,38
457,048	0,38
457,503	0,38
457,957	0,38
458,412	0,38
458,866	0,38
459,321	0,38
459,776	0,38
460,23	0,38
460,685	0,38
461,139	0,38
461,593	0,38
462,048	0,38
462,502	0,38
462,957	0,38
463,411	0,38
463,865	0,38
464,319	0,38
464,774	0,38
465,228	0,38
465,682	0,39
466,136	0,39
466,59	0,39
467,044	0,39
467,499	0,39
467,953	0,39
468,407	0,39
468,861	0,39
469,315	0,39
469,768	0,39
470,222	0,39
470,676	0,39
471,13	0,39
471,584	0,39
472,038	0,39
472,491	0,39
472,945	0,39
473,399	0,39
473,852	0,39
474,306	0,39
474,76	0,39
475,213	0,39
475,667	0,39
476,12	0,39
476,574	0,39
477,027	0,39
477,481	0,39
477,934	0,4
478,388	0,4
478,841	0,4
479,294	0,4
479,748	0,4
480,201	0,4
480,654	0,4
481,107	0,4
481,561	0,4
482,014	0,4
482,467	0,4
482,92	0,4
483,373	0,41
483,826	0,41
484,279	0,41
484,732	0,41
485,185	0,41
485,638	0,41
486,091	0,41
486,544	0,41
486,997	0,41
487,449	0,41
487,902	0,41
488,355	0,42
488,808	0,42
489,26	0,42
489,713	0,42
490,166	0,42
490,618	0,42
491,071	0,42
491,523	0,42
491,976	0,43
492,429	0,43
492,881	0,43
493,333	0,43
493,786	0,43
494,238	0,43
494,691	0,44
495,143	0,44
495,595	0,44
496,048	0,44
496,5	0,44
496,952	0,44
497,404	0,45
497,856	0,45
498,309	0,45
498,761	0,45
499,213	0,45
499,665	0,46
500,117	0,46
500,569	0,46
501,021	0,46
501,473	0,46
501,925	0,47
502,377	0,47
502,828	0,47
503,28	0,47
503,732	0,48
504,184	0,48
504,636	0,48
505,087	0,48
505,539	0,48
505,991	0,49
506,442	0,49
506,894	0,49
507,345	0,49
507,797	0,49
508,249	0,5
508,7	0,5
509,151	0,5
509,603	0,5
510,054	0,5
510,506	0,51
510,957	0,51
511,408	0,51
511,86	0,51
512,311	0,51
512,762	0,52
513,213	0,52
513,665	0,52
514,116	0,52
514,567	0,52
515,018	0,52
515,469	0,53
515,92	0,53
516,371	0,53
516,822	0,53
517,273	0,53
517,724	0,54
518,175	0,54
518,626	0,54
519,076	0,54
519,527	0,54
519,978	0,54
520,429	0,54
520,88	0,54
521,33	0,55
521,781	0,55
522,232	0,55
522,682	0,55
523,133	0,55
523,583	0,55
524,034	0,55
524,484	0,55
524,935	0,56
525,385	0,56
525,836	0,56
526,286	0,56
526,736	0,56
527,187	0,56
527,637	0,56
528,087	0,56
528,538	0,56
528,988	0,56
529,438	0,56
529,888	0,56
530,338	0,56
530,788	0,56
531,238	0,56
531,688	0,55
532,139	0,55
532,589	0,55
533,038	0,55
533,488	0,55
533,938	0,55
534,388	0,55
534,838	0,55
535,288	0,55
535,738	0,55
536,187	0,55
536,637	0,55
537,087	0,54
537,537	0,54
537,986	0,54
538,436	0,54
538,885	0,54
539,335	0,53
539,785	0,53
540,234	0,53
540,684	0,53
541,133	0,53
541,582	0,52
542,032	0,52
542,481	0,52
542,931	0,52
543,38	0,52
543,829	0,51
544,278	0,51
544,728	0,51
545,177	0,51
545,626	0,51
546,075	0,5
546,524	0,5
546,973	0,5
547,422	0,5
547,871	0,5
548,32	0,5
548,769	0,5
549,218	0,5
549,667	0,5
550,116	0,49
550,565	0,49
551,014	0,49
551,463	0,49
551,911	0,49
552,36	0,49
552,809	0,49
553,258	0,48
553,706	0,48
554,155	0,48
554,603	0,48
555,052	0,48
555,501	0,48
555,949	0,48
556,398	0,47
556,846	0,47
557,294	0,47
557,743	0,47
558,191	0,47
558,64	0,46
559,088	0,46
559,536	0,46
559,985	0,46
560,433	0,46
560,881	0,45
561,329	0,45
561,777	0,45
562,225	0,45
562,674	0,45
563,122	0,45
563,57	0,44
564,018	0,44
564,466	0,44
564,914	0,44
565,362	0,44
565,809	0,44
566,257	0,43
566,705	0,43
567,153	0,43
567,601	0,43
568,048	0,43
568,496	0,43
568,944	0,42
569,392	0,42
569,839	0,42
570,287	0,42
570,734	0,42
571,182	0,42
571,63	0,42
572,077	0,41
572,525	0,41
572,972	0,41
573,419	0,41
573,867	0,41
574,314	0,41
574,761	0,4
575,209	0,4
575,656	0,4
576,103	0,4
576,551	0,4
576,998	0,4
577,445	0,4
577,892	0,4
578,339	0,4
578,786	0,4
579,233	0,39
579,68	0,39
580,127	0,39
580,574	0,39
581,021	0,39
581,468	0,39
581,915	0,39
582,362	0,39
582,809	0,38
583,255	0,38
583,702	0,38
584,149	0,38
584,596	0,38
585,042	0,38
585,489	0,38
585,936	0,38
586,382	0,38
586,829	0,38
587,275	0,38
587,722	0,37
588,168	0,37
588,615	0,37
589,061	0,37
589,508	0,37
589,954	0,37
590,4	0,37
590,847	0,37
591,293	0,37
591,739	0,37
592,185	0,37
592,632	0,37
593,078	0,37
593,524	0,37
593,97	0,37
594,416	0,37
594,862	0,36
595,308	0,36
595,754	0,36
596,2	0,36
596,646	0,36
597,092	0,36
597,538	0,36
597,984	0,36
598,43	0,36
598,876	0,36
599,321	0,36
599,767	0,36
600,213	0,36
600,659	0,36
601,104	0,36
601,55	0,35
601,995	0,35
602,441	0,35
602,887	0,35
603,332	0,35
603,778	0,35
604,223	0,35
604,668	0,35
605,114	0,35
605,559	0,35
606,005	0,35
606,45	0,35
606,895	0,35
607,341	0,35
607,786	0,35
608,231	0,35
608,676	0,35
609,121	0,34
609,566	0,34
610,012	0,34
610,457	0,33
610,902	0,33
611,347	0,33
611,792	0,33
612,237	0,33
612,682	0,33
613,127	0,33
613,571	0,33
614,016	0,33
614,461	0,33
614,906	0,33
615,351	0,33
615,795	0,33
616,24	0,33
616,685	0,34
617,129	0,34
617,574	0,34
618,019	0,34
618,463	0,34
618,908	0,34
619,352	0,34
619,797	0,34
620,241	0,34
620,686	0,34
621,13	0,34
621,574	0,34
622,019	0,33
622,463	0,33
622,907	0,33
623,352	0,33
623,796	0,33
624,24	0,33
624,684	0,33
625,128	0,33
625,572	0,33
626,016	0,33
626,461	0,33
626,905	0,33
627,349	0,33
627,793	0,33
628,236	0,33
628,68	0,33
629,124	0,33
629,568	0,33
630,012	0,33
630,456	0,33
630,9	0,33
631,343	0,33
631,787	0,33
632,231	0,33
632,674	0,33
633,118	0,33
633,562	0,33
634,005	0,33
634,449	0,33
634,892	0,33
635,336	0,33
635,779	0,33
636,223	0,33
636,666	0,33
637,109	0,33
637,553	0,33
637,996	0,33
638,439	0,33
638,883	0,33
639,326	0,33
639,769	0,33
640,212	0,33
640,655	0,32
641,099	0,32
641,542	0,32
641,985	0,32
642,428	0,32
642,871	0,32
643,314	0,32
643,757	0,32
644,2	0,32
644,643	0,32
645,085	0,32
645,528	0,32
645,971	0,32
646,414	0,32
646,857	0,32
647,299	0,32
647,742	0,32
648,185	0,32
648,627	0,32
649,07	0,32
649,513	0,32
649,955	0,32
650,398	0,32
650,84	0,32
651,283	0,32
651,725	0,32
652,168	0,32
652,61	0,32
653,052	0,32
653,495	0,32
653,937	0,25
654,379	0,2
654,821	0,2
655,264	0,2
655,706	0,2
656,148	0,2
656,59	0,2
657,032	0,21
657,474	0,21
657,916	0,2
658,358	0,2
658,8	0,25
659,242	0,32
659,684	0,32
660,126	0,32
660,568	0,32
661,01	0,32
661,452	0,32
661,894	0,32
662,335	0,32
662,777	0,32
663,219	0,32
663,661	0,32
664,102	0,32
664,544	0,32
664,985	0,32
665,427	0,32
665,869	0,32
666,31	0,32
666,752	0,32
667,193	0,32
667,634	0,32
668,076	0,32
668,517	0,32
668,959	0,32
669,4	0,32
669,841	0,32
670,282	0,32
670,724	0,31
671,165	0,31
671,606	0,31
672,047	0,31
672,488	0,31
672,929	0,31
673,37	0,31
673,811	0,31
674,252	0,31
674,693	0,31
675,134	0,31
675,575	0,31
676,016	0,31
676,457	0,31
676,898	0,31
677,339	0,31
677,78	0,31
678,22	0,31
678,661	0,31
679,102	0,31
679,542	0,31
679,983	0,31
680,424	0,31
680,864	0,31
681,305	0,31
681,745	0,31
682,186	0,31
682,626	0,31
683,067	0,31
683,507	0,31
683,948	0,31
684,388	0,31
684,828	0,31
685,269	0,31
685,709	0,31
686,149	0,31
686,589	0,31
687,029	0,31
687,47	0,31
687,91	0,3
688,35	0,3
688,79	0,3
689,23	0,3
689,67	0,3
690,11	0,3
690,55	0,3
690,99	0,3
691,43	0,3
691,87	0,3
692,31	0,3
692,749	0,3
693,189	0,3
693,629	0,3
694,069	0,3
694,508	0,3
694,948	0,3
695,388	0,3
695,827	0,3
696,267	0,3
696,706	0,3
697,146	0,3
697,586	0,3
698,025	0,3
698,464	0,31
698,904	0,31
699,343	0,31
699,783	0,31
700,222	0,31
700,661	0,31
701,101	0,31
701,54	0,31
701,979	0,3
702,418	0,3
702,857	0,3
703,297	0,3
703,736	0,3
704,175	0,3
704,614	0,3
705,053	0,3
705,492	0,3
705,931	0,3
706,37	0,3
706,809	0,3
707,248	0,3
707,687	0,3
708,125	0,29
708,564	0,29
709,003	0,29
709,442	0,29
709,88	0,29
710,319	0,29
710,758	0,29
711,196	0,29
711,635	0,29
712,074	0,29
712,512	0,29
712,951	0,29
713,389	0,29
713,828	0,29
714,266	0,29
714,705	0,29
715,143	0,29
715,581	0,29
716,02	0,29
716,458	0,29
716,896	0,29
717,334	0,29
717,773	0,29
718,211	0,29
718,649	0,29
719,087	0,29
719,525	0,29
719,963	0,29
720,401	0,29
720,839	0,29
721,277	0,29
721,715	0,29
722,153	0,29
722,591	0,29
723,029	0,29
723,467	0,29
723,905	0,29
724,342	0,29
724,78	0,29
725,218	0,29
725,656	0,29
726,093	0,29
726,531	0,29
726,969	0,29
727,406	0,29
727,844	0,29
728,281	0,29
728,719	0,29
729,156	0,29
729,594	0,29
730,031	0,29
730,469	0,29
730,906	0,28
731,343	0,28
731,781	0,28
732,218	0,28
732,655	0,28
733,092	0,28
733,53	0,28
733,967	0,28
734,404	0,28
734,841	0,28
735,278	0,28
735,715	0,28
736,152	0,28
736,589	0,28
737,026	0,28
737,463	0,28
737,9	0,28
738,337	0,28
738,774	0,28
739,211	0,28
739,647	0,27
740,084	0,27
740,521	0,27
740,958	0,27
741,394	0,27
741,831	0,27
742,268	0,27
742,704	0,27
743,141	0,27
743,577	0,27
744,014	0,27
744,45	0,27
744,887	0,26
745,323	0,26
745,76	0,26
746,196	0,26
746,632	0,26
747,069	0,26
747,505	0,26
747,941	0,26
748,378	0,26
748,814	0,26
749,25	0,26
749,686	0,26
750,122	0,27
750,558	0,27
750,994	0,27
751,43	0,27
751,866	0,27
752,302	0,27
752,738	0,27
753,174	0,27
753,61	0,27
754,046	0,27
754,482	0,27
754,918	0,27
755,354	0,27
755,789	0,27
756,225	0,27
756,661	0,27
757,096	0,27
757,532	0,27
757,968	0,27
758,403	0,27
758,839	0,27
759,274	0,27
759,71	0,26
760,145	0,26
760,581	0,25
761,016	0,25
761,452	0,25
761,887	0,24
762,322	0,24
762,758	0,24
763,193	0,23
763,628	0,23
764,063	0,22
764,499	0,22
764,934	0,21
765,369	0,21
765,804	0,21
766,239	0,2
766,674	0,2
767,109	0,19
767,544	0,19
767,979	0,18
768,414	0,17
768,849	0,16
769,284	0,16
769,719	0,15
770,154	0,15
770,588	0,14
771,023	0,13
771,458	0,13
771,893	0,12
772,327	0,1
772,762	0,1
773,197	0,09
773,631	0,09
774,066	0,08
774,5	0,07
774,935	0,06
775,369	0,05
775,804	0,04
776,238	0,04
776,673	0,03
777,107	0,03
777,541	0,02
777,976	0,01
778,41	0
778,844	-0,01
779,279	-0,01
779,713	-0,02
780,147	-0,02
780,581	-0,03
781,015	-0,04
781,449	-0,05
781,883	-0,05
782,317	-0,07
782,751	-0,07
783,185	-0,08
783,619	-0,09
784,053	-0,1
784,487	-0,1
784,921	-0,11
785,355	-0,12
785,789	-0,13
786,223	-0,14
786,656	-0,15
787,09	-0,16
787,524	-0,16
787,957	-0,17
788,391	-0,19
788,825	-0,21
789,258	-0,22
789,692	-0,23
790,125	-0,25
790,559	-0,27
790,992	-0,29
791,426	-0,31
791,859	-0,32
792,293	-0,36
792,726	-0,37
793,159	-0,4
793,593	-0,41
794,026	-0,44
794,459	-0,47
794,892	-0,5
795,326	-0,52
795,759	-0,56
796,192	-0,61
796,625	-0,65
797,058	-0,68
797,491	-0,72
797,924	-0,76
798,357	-0,81
798,79	-0,85
799,223	-0,9
799,656	-0,95
800,089	-1
800,522	-1,05
800,955	-1,09
801,387	-1,15
801,82	-1,2
802,253	-1,27
802,686	-1,35
803,118	-1,4
803,551	-1,45
803,984	-1,5
804,416	-1,54
804,849	-1,58
805,281	-1,72
805,714	-2,1
806,146	-2,5
806,579	-2,74
807,011	-2,89
807,444	-2,98
807,876	-3,06
808,308	-3,1
808,741	-3,13
809,173	-3,18
809,605	-3,2
810,037	-3,27
810,47	-3,18
810,902	-2,98
811,334	-2,83
811,766	-2,68
812,198	-2,44
812,63	-2,03
813,062	-1,83
813,494	-1,73
813,926	-1,64
814,358	-1,59
814,79	-1,51
815,222	-1,45
815,654	-1,4
816,086	-1,34
816,518	-1,28
816,949	-1,23
817,381	-1,18
817,813	-1,17
818,245	-1,12
818,676	-1,08
819,108	-1,05
819,54	-1,03
819,971	-1,01
820,403	-0,95
820,834	-0,94
821,266	-0,9
821,697	-0,87
822,129	-0,86
822,56	-0,83
822,991	-0,81
823,423	-0,78
823,854	-0,77
824,286	-0,74
824,717	-0,73
825,148	-0,72
825,579	-0,7
826,01	-0,69
826,442	-0,68
826,873	-0,66
827,304	-0,62
827,735	-0,61
828,166	-0,61
828,597	-0,61
829,028	-0,59
829,459	-0,61
829,89	-0,61
830,321	-0,56
830,752	-0,57
831,183	-0,55
831,613	-0,54
832,044	-0,53
832,475	-0,52
832,906	-0,53
833,336	-0,53
833,767	-0,55
834,198	-0,52
834,628	-0,5
835,059	-0,54
835,49	-0,54
835,92	-0,52
836,351	-0,53
836,781	-0,54
837,212	-0,55
837,642	-0,55
838,072	-0,54
838,503	-0,54
838,933	-0,53
839,364	-0,53
839,794	-0,5
840,224	-0,48
840,654	-0,52
841,085	-0,53
841,515	-0,49
841,945	-0,5
842,375	-0,45
842,805	-0,44
843,235	-0,43
843,665	-0,44
844,095	-0,43
844,525	-0,46
844,955	-0,47
845,385	-0,45
845,815	-0,42
846,245	-0,44
846,675	-0,45
847,105	-0,47
847,534	-0,47
847,964	-0,45
848,394	-0,44
848,824	-0,47
849,253	-0,47
849,683	-0,47
850,112	-0,48
850,542	-0,52
850,972	-0,52
851,401	-0,49
851,831	-0,47
852,26	-0,47
852,69	-0,51
853,119	-0,5
853,548	-0,5
853,978	-0,51
854,407	-0,49
854,836	-0,49
855,266	-0,47
855,695	-0,48
856,124	-0,5
856,553	-0,51
856,983	-0,54
857,412	-0,53
857,841	-0,52
858,27	-0,53
858,699	-0,53
859,128	-0,56
859,557	-0,58
859,986	-0,6
860,415	-0,57
860,844	-0,55
861,273	-0,55
861,702	-0,56
862,13	-0,54
862,559	-0,56
862,988	-0,54
863,417	-0,53
863,845	-0,51
864,274	-0,52
864,703	-0,5
865,131	-0,5
865,56	-0,51
865,989	-0,53
866,417	-0,5
866,846	-0,51
867,274	-0,5
867,703	-0,53
868,131	-0,54
868,559	-0,54
868,988	-0,57
869,416	-0,57
869,844	-0,59
870,273	-0,62
870,701	-0,61
871,129	-0,64
871,557	-0,66
871,986	-0,66
872,414	-0,67
872,842	-0,63
873,27	-0,62
873,698	-0,58
874,126	-0,61
874,554	-0,59
874,982	-0,59
875,41	-0,61
875,838	-0,57
876,266	-0,54
876,694	-0,54
877,122	-0,54
877,549	-0,59
877,977	-0,57
878,405	-0,59
878,833	-0,56
879,26	-0,55
879,688	-0,55
880,116	-0,54
880,543	-0,53
880,971	-0,52
881,399	-0,55
881,826	-0,55
882,254	-0,54
882,681	-0,57
883,109	-0,53
883,536	-0,54
883,963	-0,57
884,391	-0,55
884,818	-0,54
885,245	-0,56
885,673	-0,57
886,1	-0,54
886,527	-0,54
886,954	-0,5
887,381	-0,51
887,809	-0,52
888,236	-0,54
888,663	-0,55
889,09	-0,58
889,517	-0,6
889,944	-0,61
890,371	-0,59
890,798	-0,59
891,225	-0,6
891,652	-0,62
892,078	-0,6
892,505	-0,63
892,932	-0,59
893,359	-0,6
893,786	-0,6
894,212	-0,57
894,639	-0,59
895,066	-0,62
895,492	-0,56
895,919	-0,57
896,346	-0,57
896,772	-0,58
897,199	-0,55
897,625	-0,57
898,052	-0,53
898,478	-0,52
898,904	-0,53
899,331	-0,52
899,757	-0,54
900,183	-0,55
900,61	-0,54
901,036	-0,54
901,462	-0,53
901,888	-0,52
902,315	-0,51
902,741	-0,57
903,167	-0,55
903,593	-0,58
904,019	-0,56
904,445	-0,53
904,871	-0,56
905,297	-0,58
905,723	-0,57
906,149	-0,58
906,575	-0,58
907,001	-0,59
907,427	-0,56
907,852	-0,55
908,278	-0,54
908,704	-0,53
909,13	-0,51
909,555	-0,51
909,981	-0,49
910,407	-0,5
910,832	-0,5
911,258	-0,5
911,684	-0,49
912,109	-0,5
912,535	-0,52
912,96	-0,49
913,386	-0,52
913,811	-0,53
914,236	-0,54
914,662	-0,52
915,087	-0,56
915,512	-0,55
915,938	-0,57
916,363	-0,56
916,788	-0,57
917,213	-0,55
917,639	-0,59
918,064	-0,56
918,489	-0,56
918,914	-0,57
919,339	-0,58
919,764	-0,55
920,189	-0,55
920,614	-0,57
921,039	-0,58
921,464	-0,54
921,889	-0,57
922,314	-0,58
922,738	-0,62
923,163	-0,64
923,588	-0,64
924,013	-0,64
924,437	-0,64
924,862	-0,65
925,287	-0,61
925,711	-0,61
926,136	-0,62
926,561	-0,61
926,985	-0,6
927,41	-0,57
927,834	-0,54
928,259	-0,51
928,683	-0,49
929,108	-0,47
929,532	-0,49
929,956	-0,48
930,381	-0,46
930,805	-0,46
931,229	-0,45
931,653	-0,43
932,078	-0,43
932,502	-0,44
932,926	-0,44
933,35	-0,44
933,774	-0,42
934,198	-0,4
934,622	-0,39
935,046	-0,4
935,47	-0,4
935,894	-0,4
936,318	-0,4
936,742	-0,41
937,166	-0,41
937,59	-0,41
938,014	-0,43
938,437	-0,45
938,861	-0,45
939,285	-0,46
939,709	-0,46
940,132	-0,47
940,556	-0,47
940,98	-0,46
941,403	-0,43
941,827	-0,43
942,25	-0,45
942,674	-0,44
943,097	-0,43
943,521	-0,43
943,944	-0,44
944,368	-0,44
944,791	-0,43
945,214	-0,45
945,638	-0,46
946,061	-0,49
946,484	-0,49
946,907	-0,48
947,331	-0,48
947,754	-0,52
948,177	-0,5
948,6	-0,5
949,023	-0,49
949,446	-0,49
949,869	-0,47
950,292	-0,47
950,715	-0,45
951,138	-0,44
951,561	-0,41
951,984	-0,41
952,407	-0,39
952,83	-0,38
953,252	-0,34
953,675	-0,34
954,098	-0,35
954,521	-0,33
954,943	-0,32
955,366	-0,33
955,789	-0,31
956,211	-0,34
956,634	-0,35
957,056	-0,33
957,479	-0,34
957,902	-0,36
958,324	-0,36
958,746	-0,34
959,169	-0,35
959,591	-0,36
960,014	-0,37
960,436	-0,36
960,858	-0,36
961,281	-0,35
961,703	-0,37
962,125	-0,37
962,547	-0,35
962,969	-0,36
963,391	-0,37
963,814	-0,38
964,236	-0,37
964,658	-0,34
965,08	-0,36
965,502	-0,35
965,924	-0,33
966,346	-0,32
966,768	-0,32
967,189	-0,33
967,611	-0,33
968,033	-0,33
968,455	-0,31
968,877	-0,32
969,298	-0,33
969,72	-0,34
970,142	-0,32
970,563	-0,32
970,985	-0,31
971,407	-0,31
971,828	-0,29
972,25	-0,28
972,671	-0,27
973,093	-0,27
973,514	-0,25
973,936	-0,24
974,357	-0,22
974,778	-0,22
975,2	-0,22
975,621	-0,21
976,042	-0,2
976,464	-0,19
976,885	-0,18
977,306	-0,17
977,727	-0,17
978,148	-0,16
978,57	-0,15
978,991	-0,13
979,412	-0,12
979,833	-0,12
980,254	-0,11
980,675	-0,12
981,096	-0,11
981,517	-0,1
981,937	-0,09
982,358	-0,08
982,779	-0,07
983,2	-0,08
983,621	-0,07
984,042	-0,06
984,462	-0,06
984,883	-0,05
985,304	-0,03
985,724	-0,02
986,145	-0,01
986,565	0
986,986	0,01
987,407	0,02
987,827	0,03
988,248	0,04
988,668	0,05
989,088	0,06
989,509	0,07
989,929	0,08
990,35	0,08
990,77	0,09
991,19	0,1
991,61	0,11
992,031	0,11
992,451	0,12
992,871	0,13
993,291	0,13
993,711	0,14
994,131	0,14
994,551	0,14
994,971	0,15
995,391	0,15
995,811	0,16
996,231	0,16
996,651	0,16
997,071	0,17
997,491	0,17
997,911	0,18
998,331	0,18
998,75	0,19
999,17	0,19
999,59	0,19
1000,009	0,19
1000,429	0,2
1000,849	0,2
1001,268	0,2
1001,688	0,2
1002,107	0,2
1002,527	0,21
1002,946	0,21
1003,366	0,21
1003,785	0,21
1004,205	0,22
1004,624	0,22
1005,044	0,22
1005,463	0,22
1005,882	0,22
1006,301	0,22
1006,721	0,22
1007,14	0,23
1007,559	0,23
1007,978	0,23
1008,397	0,23
1008,816	0,22
1009,235	0,22
1009,655	0,22
1010,074	0,22
1010,492	0,22
1010,911	0,22
1011,33	0,22
1011,749	0,22
1012,168	0,22
1012,587	0,22
1013,006	0,21
1013,425	0,21
1013,843	0,21
1014,262	0,21
1014,681	0,21
1015,099	0,21
1015,518	0,21
1015,937	0,21
1016,355	0,21
1016,774	0,21
1017,192	0,21
1017,611	0,21
1018,029	0,21
1018,448	0,21
1018,866	0,21
1019,285	0,22
1019,703	0,22
1020,121	0,22
1020,54	0,22
1020,958	0,22
1021,376	0,22
1021,794	0,22
1022,213	0,22
1022,631	0,22
1023,049	0,22
1023,467	0,22
1023,885	0,22
1024,303	0,22
1024,721	0,21
1025,139	0,21
1025,557	0,21
1025,975	0,21
1026,393	0,21
1026,811	0,21
1027,229	0,21
1027,647	0,21
1028,065	0,21
1028,482	0,21
1028,9	0,21
1029,318	0,21
1029,735	0,21
1030,153	0,21
1030,571	0,21
1030,988	0,21
1031,406	0,21
1031,823	0,21
1032,241	0,21
1032,659	0,21
1033,076	0,21
1033,493	0,21
1033,911	0,21
1034,328	0,21
1034,746	0,21
1035,163	0,21
1035,58	0,21
1035,997	0,21
1036,415	0,21
1036,832	0,21
1037,249	0,21
1037,666	0,21
1038,083	0,2
1038,501	0,2
1038,918	0,2
1039,335	0,2
1039,752	0,2
1040,169	0,2
1040,586	0,2
1041,003	0,2
1041,419	0,2
1041,836	0,2
1042,253	0,2
1042,67	0,2
1043,087	0,2
1043,504	0,2
1043,92	0,2
1044,337	0,2
1044,754	0,2
1045,17	0,2
1045,587	0,2
1046,004	0,19
1046,42	0,19
1046,837	0,19
1047,253	0,19
1047,67	0,19
1048,086	0,19
1048,503	0,19
1048,919	0,19
1049,335	0,19
1049,752	0,19
1050,168	0,19
1050,584	0,19
1051,001	0,19
1051,417	0,19
1051,833	0,19
1052,249	0,19
1052,665	0,19
1053,081	0,19
1053,497	0,19
1053,914	0,2
1054,33	0,2
1054,746	0,2
1055,162	0,2
1055,578	0,2
1055,993	0,2
1056,409	0,2
1056,825	0,2
1057,241	0,2
1057,657	0,2
1058,073	0,2
1058,488	0,2
1058,904	0,2
1059,32	0,2
1059,736	0,2
1060,151	0,2
1060,567	0,2
1060,982	0,2
1061,398	0,2
1061,813	0,2
1062,229	0,2
1062,644	0,2
1063,06	0,2
1063,475	0,2
1063,891	0,2
1064,306	0,2
1064,721	0,2
1065,137	0,2
1065,552	0,19
1065,967	0,19
1066,382	0,19
1066,798	0,19
1067,213	0,19
1067,628	0,19
1068,043	0,2
1068,458	0,2
1068,873	0,2
1069,288	0,2
1069,703	0,2
1070,118	0,2
1070,533	0,2
1070,948	0,2
1071,363	0,2
1071,778	0,2
1072,193	0,2
1072,607	0,2
1073,022	0,2
1073,437	0,2
1073,852	0,2
1074,266	0,21
1074,681	0,21
1075,096	0,21
1075,51	0,21
1075,925	0,21
1076,339	0,21
1076,754	0,21
1077,168	0,21
1077,583	0,2
1077,997	0,2
1078,412	0,2
1078,826	0,2
1079,24	0,2
1079,655	0,2
1080,069	0,2
1080,483	0,2
1080,897	0,2
1081,312	0,2
1081,726	0,2
1082,14	0,2
1082,554	0,19
1082,968	0,19
1083,382	0,19
1083,796	0,19
1084,21	0,19
1084,624	0,19
1085,038	0,19
1085,452	0,19
1085,866	0,19
1086,28	0,19
1086,694	0,19
1087,108	0,19
1087,521	0,19
1087,935	0,19
1088,349	0,18
1088,763	0,18
1089,176	0,18
1089,59	0,18
1090,004	0,18
1090,417	0,18
1090,831	0,17
1091,244	0,17
1091,658	0,17
1092,071	0,17
1092,485	0,17
1092,898	0,17
1093,312	0,17
1093,725	0,17
1094,138	0,17
1094,552	0,16
1094,965	0,16
1095,378	0,16
1095,791	0,16
1096,205	0,16
1096,618	0,16
1097,031	0,16
1097,444	0,16
1097,857	0,16
1098,27	0,16
1098,683	0,15
1099,096	0,15
1099,509	0,15
1099,922	0,15
1100,335	0,14
1100,748	0,14
1101,161	0,14
1101,574	0,13
1101,986	0,13
1102,399	0,13
1102,812	0,12
1103,225	0,12
1103,637	0,12
1104,05	0,12
1104,463	0,12
1104,875	0,12
1105,288	0,11
1105,7	0,11
1106,113	0,11
1106,525	0,11
1106,938	0,11
1107,35	0,1
1107,763	0,1
1108,175	0,1
1108,588	0,1
1109	0,1
1109,412	0,09
1109,824	0,09
1110,237	0,09
1110,649	0,09
1111,061	0,09
