Data from 18C-808nm-8A_Absorbance__1247__01247.txt Node

Date: Mon Jul 17 17:08:21 CEST 2023
User: Laser008
Spectrometer: MAYP115816
Trigger mode: 0
Integration Time (sec): 2,500000E-1
Scans to average: 10
Electric dark correction enabled: true
Nonlinearity correction enabled: true
Boxcar width: 5
XAxis mode: Wavelengths
Number of Pixels in Spectrum: 2068
>>>>>Begin Spectral Data<<<<<
198,914	-0,74
199,384	-0,51
199,855	-0,39
200,325	-0,31
200,796	-0,27
201,266	-0,22
201,737	-0,21
202,207	-0,21
202,677	-0,19
203,147	-0,17
203,618	-0,14
204,088	-0,12
204,558	-0,11
205,028	-0,1
205,498	-0,11
205,968	-0,12
206,439	-0,13
206,909	-0,12
207,379	-0,12
207,849	-0,13
208,319	-0,13
208,789	-0,15
209,258	-0,14
209,728	-0,16
210,198	-0,15
210,668	-0,15
211,138	-0,14
211,608	-0,14
212,077	-0,14
212,547	-0,13
213,017	-0,14
213,486	-0,14
213,956	-0,15
214,426	-0,15
214,895	-0,14
215,365	-0,15
215,834	-0,15
216,304	-0,16
216,773	-0,16
217,243	-0,17
217,712	-0,18
218,181	-0,18
218,651	-0,19
219,12	-0,18
219,589	-0,18
220,058	-0,17
220,528	-0,18
220,997	-0,19
221,466	-0,2
221,935	-0,2
222,404	-0,2
222,873	-0,18
223,342	-0,18
223,812	-0,18
224,281	-0,18
224,749	-0,18
225,218	-0,2
225,687	-0,2
226,156	-0,19
226,625	-0,17
227,094	-0,17
227,563	-0,17
228,031	-0,18
228,5	-0,18
228,969	-0,19
229,438	-0,19
229,906	-0,17
230,375	-0,17
230,844	-0,16
231,312	-0,16
231,781	-0,17
232,249	-0,17
232,718	-0,17
233,186	-0,16
233,655	-0,16
234,123	-0,16
234,591	-0,16
235,06	-0,17
235,528	-0,17
235,996	-0,16
236,465	-0,15
236,933	-0,14
237,401	-0,14
237,869	-0,13
238,337	-0,13
238,805	-0,11
239,274	-0,1
239,742	-0,1
240,21	-0,1
240,678	-0,1
241,146	-0,09
241,614	-0,1
242,081	-0,09
242,549	-0,09
243,017	-0,1
243,485	-0,1
243,953	-0,11
244,421	-0,11
244,888	-0,11
245,356	-0,12
245,824	-0,12
246,291	-0,12
246,759	-0,14
247,227	-0,14
247,694	-0,13
248,162	-0,12
248,629	-0,12
249,097	-0,12
249,564	-0,13
250,032	-0,14
250,499	-0,14
250,967	-0,14
251,434	-0,14
251,901	-0,13
252,369	-0,14
252,836	-0,15
253,303	-0,17
253,77	-0,17
254,237	-0,17
254,705	-0,17
255,172	-0,16
255,639	-0,16
256,106	-0,17
256,573	-0,17
257,04	-0,18
257,507	-0,18
257,974	-0,19
258,441	-0,16
258,908	-0,17
259,375	-0,18
259,841	-0,18
260,308	-0,18
260,775	-0,18
261,242	-0,17
261,709	-0,18
262,175	-0,19
262,642	-0,19
263,109	-0,18
263,575	-0,2
264,042	-0,19
264,508	-0,19
264,975	-0,21
265,441	-0,22
265,908	-0,23
266,374	-0,22
266,841	-0,22
267,307	-0,22
267,773	-0,2
268,24	-0,21
268,706	-0,2
269,172	-0,2
269,639	-0,21
270,105	-0,18
270,571	-0,19
271,037	-0,18
271,503	-0,19
271,969	-0,18
272,435	-0,19
272,902	-0,21
273,368	-0,21
273,834	-0,2
274,3	-0,21
274,765	-0,21
275,231	-0,21
275,697	-0,21
276,163	-0,21
276,629	-0,21
277,095	-0,21
277,56	-0,21
278,026	-0,21
278,492	-0,19
278,958	-0,21
279,423	-0,21
279,889	-0,21
280,354	-0,21
280,82	-0,21
281,286	-0,22
281,751	-0,22
282,217	-0,22
282,682	-0,22
283,147	-0,23
283,613	-0,24
284,078	-0,23
284,544	-0,25
285,009	-0,25
285,474	-0,24
285,939	-0,25
286,405	-0,24
286,87	-0,23
287,335	-0,23
287,8	-0,22
288,265	-0,2
288,73	-0,22
289,195	-0,24
289,66	-0,24
290,125	-0,23
290,59	-0,23
291,055	-0,23
291,52	-0,23
291,985	-0,23
292,45	-0,25
292,915	-0,24
293,38	-0,25
293,844	-0,23
294,309	-0,21
294,774	-0,2
295,239	-0,21
295,703	-0,22
296,168	-0,2
296,632	-0,2
297,097	-0,19
297,562	-0,17
298,026	-0,18
298,491	-0,17
298,955	-0,17
299,419	-0,17
299,884	-0,17
300,348	-0,16
300,813	-0,16
301,277	-0,16
301,741	-0,15
302,205	-0,16
302,67	-0,15
303,134	-0,15
303,598	-0,15
304,062	-0,14
304,526	-0,14
304,99	-0,15
305,454	-0,15
305,919	-0,14
306,383	-0,15
306,847	-0,15
307,31	-0,16
307,774	-0,17
308,238	-0,16
308,702	-0,16
309,166	-0,18
309,63	-0,18
310,094	-0,15
310,557	-0,15
311,021	-0,15
311,485	-0,14
311,948	-0,13
312,412	-0,12
312,876	-0,11
313,339	-0,11
313,803	-0,12
314,266	-0,11
314,73	-0,12
315,193	-0,12
315,657	-0,11
316,12	-0,11
316,584	-0,1
317,047	-0,1
317,51	-0,1
317,973	-0,1
318,437	-0,09
318,9	-0,08
319,363	-0,08
319,826	-0,07
320,29	-0,08
320,753	-0,08
321,216	-0,08
321,679	-0,08
322,142	-0,07
322,605	-0,08
323,068	-0,08
323,531	-0,09
323,994	-0,08
324,457	-0,07
324,92	-0,06
325,382	-0,05
325,845	-0,05
326,308	-0,04
326,771	-0,04
327,233	-0,03
327,696	-0,03
328,159	-0,02
328,622	-0,01
329,084	-0,02
329,547	-0,01
330,009	-0,01
330,472	-0
330,934	-0
331,397	0
331,859	0,01
332,322	0
332,784	0
333,246	0,01
333,709	0,01
334,171	0,02
334,633	0,02
335,096	0,02
335,558	0,02
336,02	0,02
336,482	0,02
336,944	0,03
337,406	0,04
337,868	0,06
338,331	0,05
338,793	0,06
339,255	0,06
339,717	0,07
340,178	0,07
340,64	0,08
341,102	0,09
341,564	0,1
342,026	0,11
342,488	0,11
342,949	0,11
343,411	0,14
343,873	0,16
344,335	0,18
344,796	0,22
345,258	0,25
345,719	0,28
346,181	0,3
346,643	0,33
347,104	0,36
347,566	0,38
348,027	0,4
348,488	0,41
348,95	0,43
349,411	0,44
349,873	0,45
350,334	0,47
350,795	0,48
351,256	0,48
351,718	0,49
352,179	0,49
352,64	0,49
353,101	0,5
353,562	0,5
354,023	0,5
354,484	0,5
354,945	0,5
355,406	0,5
355,867	0,5
356,328	0,5
356,789	0,51
357,25	0,51
357,711	0,51
358,172	0,51
358,633	0,52
359,093	0,52
359,554	0,52
360,015	0,52
360,476	0,52
360,936	0,52
361,397	0,52
361,858	0,52
362,318	0,52
362,779	0,52
363,239	0,52
363,7	0,52
364,16	0,52
364,621	0,52
365,081	0,52
365,541	0,52
366,002	0,52
366,462	0,52
366,922	0,52
367,383	0,52
367,843	0,52
368,303	0,52
368,763	0,52
369,223	0,52
369,684	0,52
370,144	0,52
370,604	0,52
371,064	0,52
371,524	0,52
371,984	0,52
372,444	0,52
372,904	0,52
373,363	0,52
373,823	0,51
374,283	0,51
374,743	0,51
375,203	0,51
375,663	0,51
376,122	0,51
376,582	0,51
377,042	0,51
377,501	0,51
377,961	0,51
378,42	0,51
378,88	0,51
379,34	0,51
379,799	0,51
380,259	0,51
380,718	0,51
381,177	0,51
381,637	0,51
382,096	0,51
382,555	0,51
383,015	0,51
383,474	0,51
383,933	0,51
384,393	0,51
384,852	0,51
385,311	0,51
385,77	0,51
386,229	0,51
386,688	0,51
387,147	0,51
387,606	0,51
388,065	0,51
388,524	0,51
388,983	0,5
389,442	0,5
389,901	0,5
390,36	0,5
390,819	0,5
391,277	0,5
391,736	0,5
392,195	0,5
392,654	0,5
393,112	0,5
393,571	0,5
394,03	0,5
394,488	0,5
394,947	0,5
395,405	0,5
395,864	0,5
396,322	0,5
396,781	0,5
397,239	0,5
397,698	0,5
398,156	0,5
398,614	0,5
399,073	0,5
399,531	0,5
399,989	0,5
400,447	0,5
400,905	0,5
401,364	0,5
401,822	0,5
402,28	0,5
402,738	0,5
403,196	0,5
403,654	0,5
404,112	0,5
404,57	0,5
405,028	0,5
405,486	0,5
405,944	0,5
406,402	0,5
406,859	0,5
407,317	0,5
407,775	0,5
408,233	0,5
408,691	0,5
409,148	0,5
409,606	0,49
410,064	0,49
410,521	0,49
410,979	0,49
411,436	0,49
411,894	0,49
412,351	0,49
412,809	0,49
413,266	0,49
413,724	0,49
414,181	0,49
414,638	0,49
415,096	0,49
415,553	0,49
416,01	0,49
416,467	0,49
416,925	0,49
417,382	0,49
417,839	0,49
418,296	0,49
418,753	0,49
419,21	0,49
419,667	0,49
420,124	0,49
420,581	0,49
421,038	0,49
421,495	0,49
421,952	0,49
422,409	0,49
422,866	0,49
423,322	0,49
423,779	0,49
424,236	0,49
424,693	0,49
425,149	0,49
425,606	0,49
426,063	0,49
426,519	0,49
426,976	0,49
427,433	0,49
427,889	0,49
428,346	0,49
428,802	0,49
429,258	0,49
429,715	0,49
430,171	0,49
430,628	0,49
431,084	0,49
431,54	0,49
431,997	0,49
432,453	0,49
432,909	0,49
433,365	0,49
433,821	0,48
434,277	0,48
434,734	0,48
435,19	0,48
435,646	0,48
436,102	0,48
436,558	0,48
437,014	0,48
437,47	0,48
437,925	0,48
438,381	0,48
438,837	0,49
439,293	0,49
439,749	0,49
440,205	0,48
440,66	0,48
441,116	0,48
441,572	0,48
442,027	0,48
442,483	0,48
442,939	0,48
443,394	0,48
443,85	0,48
444,305	0,48
444,761	0,48
445,216	0,49
445,672	0,49
446,127	0,49
446,582	0,49
447,038	0,49
447,493	0,49
447,948	0,49
448,403	0,49
448,859	0,49
449,314	0,49
449,769	0,49
450,224	0,49
450,679	0,49
451,134	0,49
451,589	0,49
452,044	0,49
452,499	0,49
452,954	0,49
453,409	0,49
453,864	0,49
454,319	0,49
454,774	0,49
455,229	0,49
455,684	0,49
456,138	0,49
456,593	0,49
457,048	0,49
457,503	0,49
457,957	0,49
458,412	0,49
458,866	0,49
459,321	0,49
459,776	0,49
460,23	0,49
460,685	0,49
461,139	0,49
461,593	0,49
462,048	0,49
462,502	0,49
462,957	0,49
463,411	0,49
463,865	0,49
464,319	0,49
464,774	0,5
465,228	0,5
465,682	0,5
466,136	0,5
466,59	0,5
467,044	0,5
467,499	0,5
467,953	0,5
468,407	0,5
468,861	0,5
469,315	0,5
469,768	0,5
470,222	0,5
470,676	0,5
471,13	0,5
471,584	0,5
472,038	0,5
472,491	0,5
472,945	0,5
473,399	0,5
473,852	0,5
474,306	0,5
474,76	0,51
475,213	0,51
475,667	0,51
476,12	0,51
476,574	0,51
477,027	0,51
477,481	0,51
477,934	0,51
478,388	0,51
478,841	0,51
479,294	0,51
479,748	0,52
480,201	0,52
480,654	0,52
481,107	0,52
481,561	0,52
482,014	0,52
482,467	0,52
482,92	0,52
483,373	0,52
483,826	0,52
484,279	0,53
484,732	0,53
485,185	0,53
485,638	0,53
486,091	0,53
486,544	0,53
486,997	0,53
487,449	0,53
487,902	0,54
488,355	0,54
488,808	0,54
489,26	0,54
489,713	0,54
490,166	0,54
490,618	0,55
491,071	0,55
491,523	0,55
491,976	0,55
492,429	0,55
492,881	0,56
493,333	0,56
493,786	0,56
494,238	0,56
494,691	0,56
495,143	0,57
495,595	0,57
496,048	0,57
496,5	0,57
496,952	0,58
497,404	0,58
497,856	0,58
498,309	0,58
498,761	0,59
499,213	0,59
499,665	0,59
500,117	0,59
500,569	0,6
501,021	0,6
501,473	0,6
501,925	0,6
502,377	0,61
502,828	0,61
503,28	0,61
503,732	0,61
504,184	0,62
504,636	0,62
505,087	0,62
505,539	0,62
505,991	0,63
506,442	0,63
506,894	0,63
507,345	0,63
507,797	0,64
508,249	0,64
508,7	0,64
509,151	0,65
509,603	0,65
510,054	0,65
510,506	0,65
510,957	0,66
511,408	0,66
511,86	0,66
512,311	0,66
512,762	0,67
513,213	0,67
513,665	0,67
514,116	0,67
514,567	0,68
515,018	0,68
515,469	0,68
515,92	0,68
516,371	0,68
516,822	0,69
517,273	0,69
517,724	0,69
518,175	0,69
518,626	0,7
519,076	0,7
519,527	0,7
519,978	0,7
520,429	0,7
520,88	0,7
521,33	0,7
521,781	0,71
522,232	0,71
522,682	0,71
523,133	0,71
523,583	0,71
524,034	0,71
524,484	0,71
524,935	0,71
525,385	0,71
525,836	0,71
526,286	0,71
526,736	0,71
527,187	0,72
527,637	0,72
528,087	0,72
528,538	0,71
528,988	0,71
529,438	0,71
529,888	0,71
530,338	0,71
530,788	0,71
531,238	0,71
531,688	0,71
532,139	0,71
532,589	0,71
533,038	0,71
533,488	0,71
533,938	0,71
534,388	0,71
534,838	0,7
535,288	0,7
535,738	0,7
536,187	0,7
536,637	0,7
537,087	0,69
537,537	0,69
537,986	0,69
538,436	0,69
538,885	0,68
539,335	0,68
539,785	0,68
540,234	0,68
540,684	0,67
541,133	0,67
541,582	0,67
542,032	0,66
542,481	0,66
542,931	0,66
543,38	0,65
543,829	0,65
544,278	0,65
544,728	0,65
545,177	0,64
545,626	0,64
546,075	0,64
546,524	0,64
546,973	0,63
547,422	0,63
547,871	0,63
548,32	0,63
548,769	0,63
549,218	0,63
549,667	0,62
550,116	0,62
550,565	0,62
551,014	0,62
551,463	0,62
551,911	0,61
552,36	0,61
552,809	0,61
553,258	0,61
553,706	0,6
554,155	0,6
554,603	0,6
555,052	0,6
555,501	0,59
555,949	0,59
556,398	0,59
556,846	0,59
557,294	0,58
557,743	0,58
558,191	0,58
558,64	0,58
559,088	0,57
559,536	0,57
559,985	0,57
560,433	0,56
560,881	0,56
561,329	0,56
561,777	0,56
562,225	0,55
562,674	0,55
563,122	0,55
563,57	0,55
564,018	0,55
564,466	0,54
564,914	0,54
565,362	0,54
565,809	0,54
566,257	0,53
566,705	0,53
567,153	0,53
567,601	0,53
568,048	0,52
568,496	0,52
568,944	0,52
569,392	0,52
569,839	0,51
570,287	0,51
570,734	0,51
571,182	0,51
571,63	0,51
572,077	0,5
572,525	0,5
572,972	0,5
573,419	0,5
573,867	0,5
574,314	0,49
574,761	0,49
575,209	0,49
575,656	0,49
576,103	0,49
576,551	0,49
576,998	0,48
577,445	0,48
577,892	0,48
578,339	0,48
578,786	0,48
579,233	0,48
579,68	0,47
580,127	0,47
580,574	0,47
581,021	0,47
581,468	0,47
581,915	0,47
582,362	0,46
582,809	0,46
583,255	0,46
583,702	0,46
584,149	0,46
584,596	0,46
585,042	0,45
585,489	0,45
585,936	0,45
586,382	0,45
586,829	0,45
587,275	0,45
587,722	0,45
588,168	0,45
588,615	0,45
589,061	0,44
589,508	0,44
589,954	0,44
590,4	0,44
590,847	0,44
591,293	0,44
591,739	0,44
592,185	0,44
592,632	0,44
593,078	0,44
593,524	0,44
593,97	0,44
594,416	0,43
594,862	0,43
595,308	0,43
595,754	0,43
596,2	0,43
596,646	0,43
597,092	0,43
597,538	0,43
597,984	0,43
598,43	0,42
598,876	0,42
599,321	0,42
599,767	0,42
600,213	0,42
600,659	0,42
601,104	0,42
601,55	0,42
601,995	0,42
602,441	0,42
602,887	0,42
603,332	0,42
603,778	0,42
604,223	0,41
604,668	0,41
605,114	0,41
605,559	0,41
606,005	0,41
606,45	0,41
606,895	0,41
607,341	0,41
607,786	0,41
608,231	0,41
608,676	0,41
609,121	0,4
609,566	0,4
610,012	0,4
610,457	0,39
610,902	0,39
611,347	0,39
611,792	0,39
612,237	0,38
612,682	0,38
613,127	0,38
613,571	0,38
614,016	0,39
614,461	0,39
614,906	0,39
615,351	0,39
615,795	0,39
616,24	0,39
616,685	0,39
617,129	0,39
617,574	0,39
618,019	0,39
618,463	0,39
618,908	0,39
619,352	0,39
619,797	0,39
620,241	0,39
620,686	0,39
621,13	0,39
621,574	0,39
622,019	0,39
622,463	0,39
622,907	0,39
623,352	0,39
623,796	0,39
624,24	0,39
624,684	0,39
625,128	0,39
625,572	0,39
626,016	0,39
626,461	0,39
626,905	0,39
627,349	0,39
627,793	0,39
628,236	0,39
628,68	0,39
629,124	0,38
629,568	0,38
630,012	0,38
630,456	0,38
630,9	0,38
631,343	0,38
631,787	0,38
632,231	0,38
632,674	0,38
633,118	0,38
633,562	0,38
634,005	0,38
634,449	0,38
634,892	0,38
635,336	0,38
635,779	0,38
636,223	0,38
636,666	0,38
637,109	0,38
637,553	0,38
637,996	0,38
638,439	0,38
638,883	0,38
639,326	0,38
639,769	0,38
640,212	0,38
640,655	0,38
641,099	0,38
641,542	0,38
641,985	0,38
642,428	0,38
642,871	0,38
643,314	0,38
643,757	0,38
644,2	0,38
644,643	0,38
645,085	0,38
645,528	0,38
645,971	0,37
646,414	0,37
646,857	0,37
647,299	0,37
647,742	0,37
648,185	0,37
648,627	0,37
649,07	0,37
649,513	0,37
649,955	0,37
650,398	0,37
650,84	0,37
651,283	0,37
651,725	0,37
652,168	0,37
652,61	0,37
653,052	0,37
653,495	0,37
653,937	0,29
654,379	0,23
654,821	0,24
655,264	0,24
655,706	0,24
656,148	0,24
656,59	0,24
657,032	0,24
657,474	0,24
657,916	0,24
658,358	0,23
658,8	0,29
659,242	0,37
659,684	0,37
660,126	0,37
660,568	0,37
661,01	0,37
661,452	0,37
661,894	0,37
662,335	0,37
662,777	0,37
663,219	0,37
663,661	0,37
664,102	0,36
664,544	0,36
664,985	0,36
665,427	0,36
665,869	0,36
666,31	0,36
666,752	0,36
667,193	0,36
667,634	0,36
668,076	0,36
668,517	0,36
668,959	0,36
669,4	0,36
669,841	0,36
670,282	0,36
670,724	0,36
671,165	0,36
671,606	0,36
672,047	0,36
672,488	0,36
672,929	0,36
673,37	0,36
673,811	0,36
674,252	0,36
674,693	0,36
675,134	0,36
675,575	0,36
676,016	0,36
676,457	0,36
676,898	0,36
677,339	0,36
677,78	0,36
678,22	0,36
678,661	0,36
679,102	0,36
679,542	0,36
679,983	0,36
680,424	0,36
680,864	0,36
681,305	0,36
681,745	0,36
682,186	0,36
682,626	0,36
683,067	0,36
683,507	0,36
683,948	0,36
684,388	0,36
684,828	0,36
685,269	0,36
685,709	0,35
686,149	0,35
686,589	0,35
687,029	0,35
687,47	0,35
687,91	0,35
688,35	0,35
688,79	0,35
689,23	0,35
689,67	0,35
690,11	0,35
690,55	0,35
690,99	0,35
691,43	0,35
691,87	0,35
692,31	0,35
692,749	0,35
693,189	0,35
693,629	0,35
694,069	0,34
694,508	0,34
694,948	0,34
695,388	0,34
695,827	0,35
696,267	0,35
696,706	0,35
697,146	0,35
697,586	0,35
698,025	0,35
698,464	0,35
698,904	0,35
699,343	0,35
699,783	0,35
700,222	0,35
700,661	0,35
701,101	0,35
701,54	0,35
701,979	0,35
702,418	0,35
702,857	0,35
703,297	0,35
703,736	0,35
704,175	0,35
704,614	0,35
705,053	0,35
705,492	0,35
705,931	0,34
706,37	0,34
706,809	0,34
707,248	0,34
707,687	0,34
708,125	0,34
708,564	0,34
709,003	0,34
709,442	0,34
709,88	0,34
710,319	0,34
710,758	0,34
711,196	0,34
711,635	0,34
712,074	0,34
712,512	0,34
712,951	0,34
713,389	0,34
713,828	0,34
714,266	0,34
714,705	0,33
715,143	0,33
715,581	0,33
716,02	0,33
716,458	0,33
716,896	0,33
717,334	0,33
717,773	0,33
718,211	0,33
718,649	0,33
719,087	0,33
719,525	0,33
719,963	0,33
720,401	0,33
720,839	0,33
721,277	0,33
721,715	0,33
722,153	0,33
722,591	0,33
723,029	0,33
723,467	0,33
723,905	0,33
724,342	0,33
724,78	0,33
725,218	0,33
725,656	0,33
726,093	0,33
726,531	0,33
726,969	0,33
727,406	0,33
727,844	0,33
728,281	0,33
728,719	0,33
729,156	0,33
729,594	0,33
730,031	0,33
730,469	0,33
730,906	0,33
731,343	0,33
731,781	0,33
732,218	0,33
732,655	0,33
733,092	0,33
733,53	0,33
733,967	0,33
734,404	0,33
734,841	0,33
735,278	0,33
735,715	0,33
736,152	0,33
736,589	0,33
737,026	0,32
737,463	0,32
737,9	0,32
738,337	0,32
738,774	0,32
739,211	0,32
739,647	0,32
740,084	0,32
740,521	0,32
740,958	0,32
741,394	0,32
741,831	0,32
742,268	0,32
742,704	0,32
743,141	0,31
743,577	0,31
744,014	0,31
744,45	0,31
744,887	0,31
745,323	0,31
745,76	0,31
746,196	0,31
746,632	0,31
747,069	0,31
747,505	0,31
747,941	0,31
748,378	0,31
748,814	0,31
749,25	0,31
749,686	0,31
750,122	0,31
750,558	0,31
750,994	0,31
751,43	0,32
751,866	0,32
752,302	0,32
752,738	0,32
753,174	0,32
753,61	0,32
754,046	0,32
754,482	0,32
754,918	0,32
755,354	0,32
755,789	0,32
756,225	0,32
756,661	0,32
757,096	0,32
757,532	0,32
757,968	0,32
758,403	0,31
758,839	0,31
759,274	0,31
759,71	0,31
760,145	0,3
760,581	0,3
761,016	0,29
761,452	0,29
761,887	0,29
762,322	0,28
762,758	0,28
763,193	0,28
763,628	0,27
764,063	0,27
764,499	0,26
764,934	0,25
765,369	0,25
765,804	0,24
766,239	0,24
766,674	0,23
767,109	0,23
767,544	0,22
767,979	0,21
768,414	0,2
768,849	0,2
769,284	0,19
769,719	0,19
770,154	0,18
770,588	0,17
771,023	0,17
771,458	0,16
771,893	0,15
772,327	0,14
772,762	0,13
773,197	0,12
773,631	0,11
774,066	0,1
774,5	0,1
774,935	0,09
775,369	0,08
775,804	0,07
776,238	0,06
776,673	0,05
777,107	0,05
777,541	0,04
777,976	0,03
778,41	0,03
778,844	0,01
779,279	0
779,713	-0
780,147	-0,02
780,581	-0,02
781,015	-0,03
781,449	-0,05
781,883	-0,05
782,317	-0,07
782,751	-0,08
783,185	-0,08
783,619	-0,08
784,053	-0,09
784,487	-0,09
784,921	-0,1
785,355	-0,1
785,789	-0,12
786,223	-0,12
786,656	-0,14
787,09	-0,15
787,524	-0,15
787,957	-0,16
788,391	-0,18
788,825	-0,2
789,258	-0,21
789,692	-0,23
790,125	-0,24
790,559	-0,25
790,992	-0,27
791,426	-0,3
791,859	-0,31
792,293	-0,34
792,726	-0,36
793,159	-0,38
793,593	-0,4
794,026	-0,42
794,459	-0,45
794,892	-0,48
795,326	-0,5
795,759	-0,54
796,192	-0,58
796,625	-0,62
797,058	-0,65
797,491	-0,69
797,924	-0,73
798,357	-0,78
798,79	-0,83
799,223	-0,87
799,656	-0,93
800,089	-0,98
800,522	-1,02
800,955	-1,06
801,387	-1,12
801,82	-1,17
802,253	-1,24
802,686	-1,32
803,118	-1,37
803,551	-1,42
803,984	-1,47
804,416	-1,51
804,849	-1,54
805,281	-1,66
805,714	-2,01
806,146	-2,46
806,579	-2,72
807,011	-2,88
807,444	-2,97
807,876	-3,06
808,308	-3,1
808,741	-3,13
809,173	-3,18
809,605	-3,2
810,037	-3,28
810,47	-3,2
810,902	-3
811,334	-2,86
811,766	-2,71
812,198	-2,49
812,63	-2,06
813,062	-1,83
813,494	-1,73
813,926	-1,64
814,358	-1,58
814,79	-1,5
815,222	-1,44
815,654	-1,39
816,086	-1,32
816,518	-1,27
816,949	-1,21
817,381	-1,17
817,813	-1,15
818,245	-1,11
818,676	-1,07
819,108	-1,04
819,54	-1,03
819,971	-1
820,403	-0,95
820,834	-0,93
821,266	-0,89
821,697	-0,87
822,129	-0,85
822,56	-0,82
822,991	-0,8
823,423	-0,77
823,854	-0,76
824,286	-0,74
824,717	-0,73
825,148	-0,71
825,579	-0,7
826,01	-0,69
826,442	-0,68
826,873	-0,67
827,304	-0,64
827,735	-0,63
828,166	-0,63
828,597	-0,62
829,028	-0,61
829,459	-0,62
829,89	-0,62
830,321	-0,58
830,752	-0,59
831,183	-0,58
831,613	-0,56
832,044	-0,56
832,475	-0,55
832,906	-0,57
833,336	-0,58
833,767	-0,58
834,198	-0,57
834,628	-0,55
835,059	-0,57
835,49	-0,57
835,92	-0,54
836,351	-0,55
836,781	-0,55
837,212	-0,56
837,642	-0,55
838,072	-0,53
838,503	-0,53
838,933	-0,51
839,364	-0,51
839,794	-0,5
840,224	-0,5
840,654	-0,54
841,085	-0,55
841,515	-0,53
841,945	-0,54
842,375	-0,49
842,805	-0,48
843,235	-0,47
843,665	-0,48
844,095	-0,47
844,525	-0,49
844,955	-0,48
845,385	-0,46
845,815	-0,44
846,245	-0,45
846,675	-0,46
847,105	-0,48
847,534	-0,48
847,964	-0,46
848,394	-0,46
848,824	-0,48
849,253	-0,48
849,683	-0,48
850,112	-0,49
850,542	-0,53
850,972	-0,53
851,401	-0,5
851,831	-0,49
852,26	-0,5
852,69	-0,53
853,119	-0,52
853,548	-0,53
853,978	-0,53
854,407	-0,51
854,836	-0,51
855,266	-0,5
855,695	-0,5
856,124	-0,51
856,553	-0,52
856,983	-0,54
857,412	-0,53
857,841	-0,55
858,27	-0,55
858,699	-0,55
859,128	-0,59
859,557	-0,6
859,986	-0,62
860,415	-0,6
860,844	-0,58
861,273	-0,58
861,702	-0,59
862,13	-0,57
862,559	-0,58
862,988	-0,56
863,417	-0,55
863,845	-0,54
864,274	-0,55
864,703	-0,54
865,131	-0,55
865,56	-0,56
865,989	-0,58
866,417	-0,55
866,846	-0,55
867,274	-0,54
867,703	-0,56
868,131	-0,58
868,559	-0,58
868,988	-0,6
869,416	-0,59
869,844	-0,6
870,273	-0,63
870,701	-0,61
871,129	-0,64
871,557	-0,67
871,986	-0,67
872,414	-0,68
872,842	-0,65
873,27	-0,64
873,698	-0,6
874,126	-0,64
874,554	-0,63
874,982	-0,63
875,41	-0,65
875,838	-0,61
876,266	-0,58
876,694	-0,59
877,122	-0,58
877,549	-0,64
877,977	-0,6
878,405	-0,63
878,833	-0,6
879,26	-0,57
879,688	-0,57
880,116	-0,54
880,543	-0,51
880,971	-0,5
881,399	-0,52
881,826	-0,53
882,254	-0,51
882,681	-0,55
883,109	-0,51
883,536	-0,52
883,963	-0,55
884,391	-0,54
884,818	-0,53
885,245	-0,58
885,673	-0,6
886,1	-0,57
886,527	-0,57
886,954	-0,53
887,381	-0,55
887,809	-0,56
888,236	-0,57
888,663	-0,58
889,09	-0,61
889,517	-0,62
889,944	-0,61
890,371	-0,6
890,798	-0,61
891,225	-0,62
891,652	-0,65
892,078	-0,63
892,505	-0,66
892,932	-0,6
893,359	-0,62
893,786	-0,62
894,212	-0,59
894,639	-0,6
895,066	-0,63
895,492	-0,57
895,919	-0,57
896,346	-0,56
896,772	-0,57
897,199	-0,53
897,625	-0,57
898,052	-0,53
898,478	-0,51
898,904	-0,53
899,331	-0,53
899,757	-0,54
900,183	-0,57
900,61	-0,55
901,036	-0,56
901,462	-0,55
901,888	-0,54
902,315	-0,53
902,741	-0,58
903,167	-0,57
903,593	-0,6
904,019	-0,58
904,445	-0,54
904,871	-0,56
905,297	-0,58
905,723	-0,57
906,149	-0,57
906,575	-0,58
907,001	-0,57
907,427	-0,55
907,852	-0,55
908,278	-0,55
908,704	-0,54
909,13	-0,54
909,555	-0,53
909,981	-0,52
910,407	-0,52
910,832	-0,51
911,258	-0,51
911,684	-0,53
912,109	-0,52
912,535	-0,53
912,96	-0,49
913,386	-0,53
913,811	-0,52
914,236	-0,54
914,662	-0,51
915,087	-0,55
915,512	-0,56
915,938	-0,58
916,363	-0,56
916,788	-0,58
917,213	-0,55
917,639	-0,6
918,064	-0,57
918,489	-0,58
918,914	-0,59
919,339	-0,6
919,764	-0,57
920,189	-0,56
920,614	-0,58
921,039	-0,59
921,464	-0,55
921,889	-0,58
922,314	-0,6
922,738	-0,62
923,163	-0,64
923,588	-0,63
924,013	-0,63
924,437	-0,63
924,862	-0,64
925,287	-0,6
925,711	-0,62
926,136	-0,64
926,561	-0,61
926,985	-0,59
927,41	-0,56
927,834	-0,54
928,259	-0,51
928,683	-0,49
929,108	-0,46
929,532	-0,47
929,956	-0,46
930,381	-0,45
930,805	-0,45
931,229	-0,45
931,653	-0,44
932,078	-0,44
932,502	-0,46
932,926	-0,47
933,35	-0,46
933,774	-0,46
934,198	-0,45
934,622	-0,44
935,046	-0,45
935,47	-0,45
935,894	-0,44
936,318	-0,44
936,742	-0,44
937,166	-0,44
937,59	-0,44
938,014	-0,46
938,437	-0,46
938,861	-0,47
939,285	-0,48
939,709	-0,48
940,132	-0,48
940,556	-0,49
940,98	-0,48
941,403	-0,47
941,827	-0,47
942,25	-0,48
942,674	-0,47
943,097	-0,47
943,521	-0,46
943,944	-0,48
944,368	-0,46
944,791	-0,45
945,214	-0,47
945,638	-0,48
946,061	-0,51
946,484	-0,52
946,907	-0,51
947,331	-0,51
947,754	-0,55
948,177	-0,53
948,6	-0,53
949,023	-0,54
949,446	-0,54
949,869	-0,51
950,292	-0,51
950,715	-0,48
951,138	-0,46
951,561	-0,44
951,984	-0,45
952,407	-0,43
952,83	-0,4
953,252	-0,36
953,675	-0,35
954,098	-0,36
954,521	-0,35
954,943	-0,34
955,366	-0,34
955,789	-0,34
956,211	-0,36
956,634	-0,36
957,056	-0,35
957,479	-0,36
957,902	-0,38
958,324	-0,38
958,746	-0,37
959,169	-0,38
959,591	-0,39
960,014	-0,4
960,436	-0,39
960,858	-0,38
961,281	-0,38
961,703	-0,39
962,125	-0,38
962,547	-0,36
962,969	-0,37
963,391	-0,37
963,814	-0,38
964,236	-0,37
964,658	-0,34
965,08	-0,35
965,502	-0,34
965,924	-0,32
966,346	-0,32
966,768	-0,32
967,189	-0,34
967,611	-0,34
968,033	-0,33
968,455	-0,31
968,877	-0,32
969,298	-0,33
969,72	-0,34
970,142	-0,33
970,563	-0,33
970,985	-0,32
971,407	-0,32
971,828	-0,3
972,25	-0,3
972,671	-0,28
973,093	-0,28
973,514	-0,27
973,936	-0,26
974,357	-0,24
974,778	-0,25
975,2	-0,25
975,621	-0,24
976,042	-0,22
976,464	-0,21
976,885	-0,2
977,306	-0,19
977,727	-0,19
978,148	-0,17
978,57	-0,16
978,991	-0,15
979,412	-0,13
979,833	-0,12
980,254	-0,11
980,675	-0,11
981,096	-0,1
981,517	-0,09
981,937	-0,08
982,358	-0,07
982,779	-0,06
983,2	-0,06
983,621	-0,05
984,042	-0,04
984,462	-0,03
984,883	-0,02
985,304	-0
985,724	0
986,145	0,01
986,565	0,03
986,986	0,03
987,407	0,04
987,827	0,05
988,248	0,06
988,668	0,07
989,088	0,08
989,509	0,09
989,929	0,1
990,35	0,11
990,77	0,12
991,19	0,13
991,61	0,14
992,031	0,14
992,451	0,15
992,871	0,16
993,291	0,17
993,711	0,17
994,131	0,18
994,551	0,19
994,971	0,19
995,391	0,19
995,811	0,2
996,231	0,2
996,651	0,21
997,071	0,21
997,491	0,22
997,911	0,23
998,331	0,23
998,75	0,23
999,17	0,24
999,59	0,24
1000,009	0,24
1000,429	0,25
1000,849	0,25
1001,268	0,26
1001,688	0,26
1002,107	0,26
1002,527	0,26
1002,946	0,27
1003,366	0,27
1003,785	0,27
1004,205	0,27
1004,624	0,27
1005,044	0,27
1005,463	0,28
1005,882	0,28
1006,301	0,28
1006,721	0,28
1007,14	0,28
1007,559	0,28
1007,978	0,28
1008,397	0,28
1008,816	0,28
1009,235	0,28
1009,655	0,28
1010,074	0,28
1010,492	0,28
1010,911	0,27
1011,33	0,27
1011,749	0,27
1012,168	0,27
1012,587	0,27
1013,006	0,27
1013,425	0,27
1013,843	0,27
1014,262	0,27
1014,681	0,27
1015,099	0,27
1015,518	0,27
1015,937	0,27
1016,355	0,27
1016,774	0,27
1017,192	0,27
1017,611	0,27
1018,029	0,27
1018,448	0,27
1018,866	0,27
1019,285	0,27
1019,703	0,27
1020,121	0,27
1020,54	0,27
1020,958	0,27
1021,376	0,27
1021,794	0,27
1022,213	0,27
1022,631	0,27
1023,049	0,27
1023,467	0,27
1023,885	0,27
1024,303	0,27
1024,721	0,27
1025,139	0,27
1025,557	0,27
1025,975	0,27
1026,393	0,27
1026,811	0,27
1027,229	0,27
1027,647	0,27
1028,065	0,26
1028,482	0,26
1028,9	0,26
1029,318	0,26
1029,735	0,26
1030,153	0,26
1030,571	0,26
1030,988	0,26
1031,406	0,26
1031,823	0,26
1032,241	0,26
1032,659	0,26
1033,076	0,26
1033,493	0,26
1033,911	0,26
1034,328	0,26
1034,746	0,26
1035,163	0,26
1035,58	0,26
1035,997	0,26
1036,415	0,26
1036,832	0,26
1037,249	0,26
1037,666	0,26
1038,083	0,26
1038,501	0,26
1038,918	0,26
1039,335	0,26
1039,752	0,26
1040,169	0,26
1040,586	0,26
1041,003	0,26
1041,419	0,26
1041,836	0,26
1042,253	0,26
1042,67	0,26
1043,087	0,26
1043,504	0,26
1043,92	0,25
1044,337	0,25
1044,754	0,25
1045,17	0,25
1045,587	0,25
1046,004	0,25
1046,42	0,25
1046,837	0,25
1047,253	0,25
1047,67	0,25
1048,086	0,25
1048,503	0,25
1048,919	0,25
1049,335	0,25
1049,752	0,25
1050,168	0,25
1050,584	0,25
1051,001	0,25
1051,417	0,25
1051,833	0,25
1052,249	0,25
1052,665	0,25
1053,081	0,25
1053,497	0,25
1053,914	0,25
1054,33	0,25
1054,746	0,25
1055,162	0,26
1055,578	0,26
1055,993	0,26
1056,409	0,26
1056,825	0,26
1057,241	0,26
1057,657	0,26
1058,073	0,26
1058,488	0,26
1058,904	0,26
1059,32	0,26
1059,736	0,26
1060,151	0,26
1060,567	0,26
1060,982	0,26
1061,398	0,26
1061,813	0,26
1062,229	0,26
1062,644	0,26
1063,06	0,26
1063,475	0,26
1063,891	0,26
1064,306	0,26
1064,721	0,26
1065,137	0,26
1065,552	0,26
1065,967	0,26
1066,382	0,26
1066,798	0,26
1067,213	0,26
1067,628	0,26
1068,043	0,26
1068,458	0,26
1068,873	0,26
1069,288	0,26
1069,703	0,26
1070,118	0,26
1070,533	0,26
1070,948	0,26
1071,363	0,26
1071,778	0,26
1072,193	0,26
1072,607	0,26
1073,022	0,26
1073,437	0,26
1073,852	0,26
1074,266	0,26
1074,681	0,26
1075,096	0,26
1075,51	0,26
1075,925	0,26
1076,339	0,26
1076,754	0,26
1077,168	0,26
1077,583	0,26
1077,997	0,26
1078,412	0,26
1078,826	0,26
1079,24	0,26
1079,655	0,26
1080,069	0,26
1080,483	0,25
1080,897	0,25
1081,312	0,25
1081,726	0,25
1082,14	0,25
1082,554	0,25
1082,968	0,25
1083,382	0,25
1083,796	0,25
1084,21	0,25
1084,624	0,25
1085,038	0,25
1085,452	0,25
1085,866	0,24
1086,28	0,24
1086,694	0,24
1087,108	0,24
1087,521	0,24
1087,935	0,24
1088,349	0,24
1088,763	0,24
1089,176	0,23
1089,59	0,23
1090,004	0,23
1090,417	0,23
1090,831	0,23
1091,244	0,23
1091,658	0,22
1092,071	0,22
1092,485	0,22
1092,898	0,22
1093,312	0,22
1093,725	0,22
1094,138	0,22
1094,552	0,22
1094,965	0,21
1095,378	0,21
1095,791	0,21
1096,205	0,21
1096,618	0,21
1097,031	0,2
1097,444	0,2
1097,857	0,2
1098,27	0,2
1098,683	0,2
1099,096	0,19
1099,509	0,19
1099,922	0,19
1100,335	0,18
1100,748	0,18
1101,161	0,18
1101,574	0,17
1101,986	0,17
1102,399	0,17
1102,812	0,16
1103,225	0,16
1103,637	0,15
1104,05	0,15
1104,463	0,15
1104,875	0,15
1105,288	0,15
1105,7	0,14
1106,113	0,14
1106,525	0,14
1106,938	0,14
1107,35	0,13
1107,763	0,13
1108,175	0,13
1108,588	0,13
1109	0,13
1109,412	0,12
1109,824	0,12
1110,237	0,13
1110,649	0,12
1111,061	0,11
