Data from 18C-808nm-8A_Absorbance__1418__01418.txt Node

Date: Mon Jul 17 17:15:28 CEST 2023
User: Laser008
Spectrometer: MAYP115816
Trigger mode: 0
Integration Time (sec): 2,500000E-1
Scans to average: 10
Electric dark correction enabled: true
Nonlinearity correction enabled: true
Boxcar width: 5
XAxis mode: Wavelengths
Number of Pixels in Spectrum: 2068
>>>>>Begin Spectral Data<<<<<
198,914	-0,69
199,384	-0,47
199,855	-0,36
200,325	-0,29
200,796	-0,27
201,266	-0,22
201,737	-0,22
202,207	-0,2
202,677	-0,2
203,147	-0,18
203,618	-0,15
204,088	-0,14
204,558	-0,13
205,028	-0,12
205,498	-0,13
205,968	-0,12
206,439	-0,13
206,909	-0,12
207,379	-0,13
207,849	-0,13
208,319	-0,13
208,789	-0,14
209,258	-0,13
209,728	-0,14
210,198	-0,14
210,668	-0,13
211,138	-0,12
211,608	-0,13
212,077	-0,13
212,547	-0,12
213,017	-0,13
213,486	-0,13
213,956	-0,13
214,426	-0,14
214,895	-0,14
215,365	-0,15
215,834	-0,16
216,304	-0,17
216,773	-0,17
217,243	-0,18
217,712	-0,19
218,181	-0,18
218,651	-0,18
219,12	-0,18
219,589	-0,18
220,058	-0,17
220,528	-0,17
220,997	-0,17
221,466	-0,18
221,935	-0,18
222,404	-0,19
222,873	-0,18
223,342	-0,19
223,812	-0,18
224,281	-0,18
224,749	-0,19
225,218	-0,2
225,687	-0,2
226,156	-0,19
226,625	-0,18
227,094	-0,17
227,563	-0,17
228,031	-0,18
228,5	-0,18
228,969	-0,18
229,438	-0,18
229,906	-0,16
230,375	-0,16
230,844	-0,15
231,312	-0,16
231,781	-0,17
232,249	-0,16
232,718	-0,16
233,186	-0,15
233,655	-0,15
234,123	-0,15
234,591	-0,15
235,06	-0,15
235,528	-0,16
235,996	-0,16
236,465	-0,15
236,933	-0,15
237,401	-0,16
237,869	-0,14
238,337	-0,14
238,805	-0,13
239,274	-0,13
239,742	-0,12
240,21	-0,13
240,678	-0,12
241,146	-0,12
241,614	-0,12
242,081	-0,12
242,549	-0,11
243,017	-0,12
243,485	-0,12
243,953	-0,13
244,421	-0,12
244,888	-0,13
245,356	-0,12
245,824	-0,12
246,291	-0,12
246,759	-0,13
247,227	-0,13
247,694	-0,13
248,162	-0,12
248,629	-0,11
249,097	-0,12
249,564	-0,14
250,032	-0,14
250,499	-0,15
250,967	-0,15
251,434	-0,16
251,901	-0,15
252,369	-0,15
252,836	-0,16
253,303	-0,18
253,77	-0,19
254,237	-0,18
254,705	-0,17
255,172	-0,16
255,639	-0,17
256,106	-0,18
256,573	-0,18
257,04	-0,18
257,507	-0,19
257,974	-0,19
258,441	-0,17
258,908	-0,18
259,375	-0,2
259,841	-0,2
260,308	-0,21
260,775	-0,2
261,242	-0,19
261,709	-0,2
262,175	-0,21
262,642	-0,2
263,109	-0,19
263,575	-0,2
264,042	-0,18
264,508	-0,18
264,975	-0,2
265,441	-0,2
265,908	-0,21
266,374	-0,2
266,841	-0,2
267,307	-0,21
267,773	-0,2
268,24	-0,21
268,706	-0,21
269,172	-0,22
269,639	-0,23
270,105	-0,21
270,571	-0,22
271,037	-0,22
271,503	-0,22
271,969	-0,22
272,435	-0,21
272,902	-0,23
273,368	-0,25
273,834	-0,23
274,3	-0,23
274,765	-0,23
275,231	-0,23
275,697	-0,23
276,163	-0,22
276,629	-0,22
277,095	-0,23
277,56	-0,23
278,026	-0,23
278,492	-0,21
278,958	-0,22
279,423	-0,22
279,889	-0,21
280,354	-0,22
280,82	-0,21
281,286	-0,22
281,751	-0,22
282,217	-0,21
282,682	-0,2
283,147	-0,21
283,613	-0,2
284,078	-0,2
284,544	-0,22
285,009	-0,23
285,474	-0,21
285,939	-0,23
286,405	-0,22
286,87	-0,22
287,335	-0,21
287,8	-0,21
288,265	-0,19
288,73	-0,22
289,195	-0,23
289,66	-0,23
290,125	-0,21
290,59	-0,22
291,055	-0,21
291,52	-0,22
291,985	-0,22
292,45	-0,23
292,915	-0,23
293,38	-0,24
293,844	-0,22
294,309	-0,22
294,774	-0,2
295,239	-0,21
295,703	-0,22
296,168	-0,2
296,632	-0,19
297,097	-0,18
297,562	-0,17
298,026	-0,18
298,491	-0,18
298,955	-0,17
299,419	-0,16
299,884	-0,16
300,348	-0,14
300,813	-0,14
301,277	-0,15
301,741	-0,16
302,205	-0,16
302,67	-0,15
303,134	-0,14
303,598	-0,14
304,062	-0,13
304,526	-0,14
304,99	-0,14
305,454	-0,14
305,919	-0,14
306,383	-0,14
306,847	-0,13
307,31	-0,14
307,774	-0,14
308,238	-0,14
308,702	-0,14
309,166	-0,15
309,63	-0,15
310,094	-0,13
310,557	-0,13
311,021	-0,13
311,485	-0,12
311,948	-0,12
312,412	-0,11
312,876	-0,1
313,339	-0,11
313,803	-0,11
314,266	-0,12
314,73	-0,12
315,193	-0,12
315,657	-0,12
316,12	-0,11
316,584	-0,1
317,047	-0,1
317,51	-0,09
317,973	-0,09
318,437	-0,09
318,9	-0,08
319,363	-0,07
319,826	-0,07
320,29	-0,07
320,753	-0,06
321,216	-0,06
321,679	-0,07
322,142	-0,07
322,605	-0,08
323,068	-0,07
323,531	-0,07
323,994	-0,07
324,457	-0,06
324,92	-0,05
325,382	-0,04
325,845	-0,04
326,308	-0,03
326,771	-0,02
327,233	-0,01
327,696	-0
328,159	0
328,622	0,02
329,084	0,01
329,547	0,01
330,009	0
330,472	0,01
330,934	0,01
331,397	0,01
331,859	0,02
332,322	0,02
332,784	0,02
333,246	0,03
333,709	0,03
334,171	0,04
334,633	0,05
335,096	0,05
335,558	0,05
336,02	0,05
336,482	0,04
336,944	0,05
337,406	0,05
337,868	0,05
338,331	0,05
338,793	0,06
339,255	0,07
339,717	0,07
340,178	0,08
340,64	0,08
341,102	0,09
341,564	0,1
342,026	0,11
342,488	0,12
342,949	0,12
343,411	0,15
343,873	0,17
344,335	0,19
344,796	0,22
345,258	0,25
345,719	0,29
346,181	0,32
346,643	0,35
347,104	0,38
347,566	0,4
348,027	0,42
348,488	0,43
348,95	0,44
349,411	0,46
349,873	0,48
350,334	0,49
350,795	0,5
351,256	0,5
351,718	0,51
352,179	0,51
352,64	0,51
353,101	0,52
353,562	0,52
354,023	0,52
354,484	0,52
354,945	0,52
355,406	0,52
355,867	0,53
356,328	0,53
356,789	0,53
357,25	0,53
357,711	0,53
358,172	0,53
358,633	0,53
359,093	0,53
359,554	0,53
360,015	0,53
360,476	0,54
360,936	0,54
361,397	0,54
361,858	0,54
362,318	0,54
362,779	0,54
363,239	0,54
363,7	0,54
364,16	0,54
364,621	0,54
365,081	0,54
365,541	0,54
366,002	0,54
366,462	0,54
366,922	0,54
367,383	0,54
367,843	0,54
368,303	0,54
368,763	0,54
369,223	0,54
369,684	0,54
370,144	0,54
370,604	0,54
371,064	0,54
371,524	0,54
371,984	0,54
372,444	0,54
372,904	0,54
373,363	0,54
373,823	0,53
374,283	0,53
374,743	0,53
375,203	0,53
375,663	0,53
376,122	0,53
376,582	0,53
377,042	0,53
377,501	0,53
377,961	0,53
378,42	0,53
378,88	0,53
379,34	0,53
379,799	0,53
380,259	0,53
380,718	0,53
381,177	0,53
381,637	0,53
382,096	0,53
382,555	0,53
383,015	0,53
383,474	0,53
383,933	0,53
384,393	0,53
384,852	0,53
385,311	0,53
385,77	0,53
386,229	0,53
386,688	0,53
387,147	0,53
387,606	0,52
388,065	0,52
388,524	0,52
388,983	0,52
389,442	0,52
389,901	0,52
390,36	0,52
390,819	0,52
391,277	0,52
391,736	0,52
392,195	0,52
392,654	0,52
393,112	0,52
393,571	0,52
394,03	0,52
394,488	0,52
394,947	0,52
395,405	0,52
395,864	0,52
396,322	0,52
396,781	0,52
397,239	0,52
397,698	0,52
398,156	0,52
398,614	0,52
399,073	0,52
399,531	0,52
399,989	0,52
400,447	0,52
400,905	0,52
401,364	0,52
401,822	0,52
402,28	0,52
402,738	0,51
403,196	0,51
403,654	0,51
404,112	0,51
404,57	0,51
405,028	0,51
405,486	0,51
405,944	0,51
406,402	0,51
406,859	0,51
407,317	0,51
407,775	0,51
408,233	0,51
408,691	0,51
409,148	0,51
409,606	0,51
410,064	0,51
410,521	0,51
410,979	0,51
411,436	0,51
411,894	0,51
412,351	0,51
412,809	0,51
413,266	0,51
413,724	0,51
414,181	0,51
414,638	0,51
415,096	0,51
415,553	0,51
416,01	0,51
416,467	0,51
416,925	0,51
417,382	0,51
417,839	0,51
418,296	0,51
418,753	0,51
419,21	0,51
419,667	0,51
420,124	0,51
420,581	0,51
421,038	0,51
421,495	0,51
421,952	0,51
422,409	0,51
422,866	0,51
423,322	0,51
423,779	0,51
424,236	0,51
424,693	0,51
425,149	0,51
425,606	0,51
426,063	0,51
426,519	0,51
426,976	0,51
427,433	0,51
427,889	0,51
428,346	0,51
428,802	0,51
429,258	0,51
429,715	0,51
430,171	0,5
430,628	0,5
431,084	0,5
431,54	0,5
431,997	0,5
432,453	0,5
432,909	0,5
433,365	0,5
433,821	0,5
434,277	0,5
434,734	0,5
435,19	0,5
435,646	0,5
436,102	0,5
436,558	0,5
437,014	0,5
437,47	0,5
437,925	0,5
438,381	0,5
438,837	0,5
439,293	0,5
439,749	0,5
440,205	0,5
440,66	0,5
441,116	0,5
441,572	0,5
442,027	0,5
442,483	0,5
442,939	0,5
443,394	0,5
443,85	0,5
444,305	0,5
444,761	0,5
445,216	0,5
445,672	0,5
446,127	0,5
446,582	0,5
447,038	0,5
447,493	0,5
447,948	0,5
448,403	0,5
448,859	0,5
449,314	0,5
449,769	0,5
450,224	0,5
450,679	0,5
451,134	0,5
451,589	0,5
452,044	0,5
452,499	0,5
452,954	0,51
453,409	0,51
453,864	0,51
454,319	0,51
454,774	0,51
455,229	0,51
455,684	0,51
456,138	0,51
456,593	0,51
457,048	0,51
457,503	0,51
457,957	0,51
458,412	0,51
458,866	0,51
459,321	0,51
459,776	0,51
460,23	0,51
460,685	0,51
461,139	0,51
461,593	0,51
462,048	0,51
462,502	0,51
462,957	0,51
463,411	0,51
463,865	0,51
464,319	0,51
464,774	0,51
465,228	0,51
465,682	0,51
466,136	0,51
466,59	0,51
467,044	0,52
467,499	0,52
467,953	0,52
468,407	0,52
468,861	0,52
469,315	0,52
469,768	0,52
470,222	0,52
470,676	0,52
471,13	0,52
471,584	0,52
472,038	0,52
472,491	0,52
472,945	0,52
473,399	0,52
473,852	0,52
474,306	0,53
474,76	0,53
475,213	0,53
475,667	0,53
476,12	0,53
476,574	0,53
477,027	0,53
477,481	0,53
477,934	0,53
478,388	0,53
478,841	0,53
479,294	0,54
479,748	0,54
480,201	0,54
480,654	0,54
481,107	0,54
481,561	0,54
482,014	0,54
482,467	0,54
482,92	0,55
483,373	0,55
483,826	0,55
484,279	0,55
484,732	0,55
485,185	0,55
485,638	0,55
486,091	0,56
486,544	0,56
486,997	0,56
487,449	0,56
487,902	0,56
488,355	0,56
488,808	0,57
489,26	0,57
489,713	0,57
490,166	0,57
490,618	0,57
491,071	0,58
491,523	0,58
491,976	0,58
492,429	0,58
492,881	0,58
493,333	0,59
493,786	0,59
494,238	0,59
494,691	0,59
495,143	0,6
495,595	0,6
496,048	0,6
496,5	0,6
496,952	0,61
497,404	0,61
497,856	0,61
498,309	0,61
498,761	0,62
499,213	0,62
499,665	0,62
500,117	0,63
500,569	0,63
501,021	0,63
501,473	0,63
501,925	0,64
502,377	0,64
502,828	0,64
503,28	0,65
503,732	0,65
504,184	0,65
504,636	0,65
505,087	0,66
505,539	0,66
505,991	0,66
506,442	0,67
506,894	0,67
507,345	0,67
507,797	0,68
508,249	0,68
508,7	0,68
509,151	0,68
509,603	0,69
510,054	0,69
510,506	0,69
510,957	0,7
511,408	0,7
511,86	0,7
512,311	0,71
512,762	0,71
513,213	0,71
513,665	0,71
514,116	0,72
514,567	0,72
515,018	0,72
515,469	0,72
515,92	0,73
516,371	0,73
516,822	0,73
517,273	0,73
517,724	0,74
518,175	0,74
518,626	0,74
519,076	0,74
519,527	0,74
519,978	0,74
520,429	0,75
520,88	0,75
521,33	0,75
521,781	0,75
522,232	0,75
522,682	0,75
523,133	0,76
523,583	0,76
524,034	0,76
524,484	0,76
524,935	0,76
525,385	0,76
525,836	0,76
526,286	0,76
526,736	0,76
527,187	0,76
527,637	0,76
528,087	0,76
528,538	0,76
528,988	0,76
529,438	0,76
529,888	0,76
530,338	0,76
530,788	0,76
531,238	0,76
531,688	0,76
532,139	0,75
532,589	0,75
533,038	0,75
533,488	0,75
533,938	0,75
534,388	0,75
534,838	0,75
535,288	0,75
535,738	0,74
536,187	0,74
536,637	0,74
537,087	0,74
537,537	0,73
537,986	0,73
538,436	0,73
538,885	0,72
539,335	0,72
539,785	0,72
540,234	0,71
540,684	0,71
541,133	0,71
541,582	0,7
542,032	0,7
542,481	0,7
542,931	0,69
543,38	0,69
543,829	0,69
544,278	0,68
544,728	0,68
545,177	0,68
545,626	0,67
546,075	0,67
546,524	0,67
546,973	0,67
547,422	0,66
547,871	0,66
548,32	0,66
548,769	0,66
549,218	0,65
549,667	0,65
550,116	0,65
550,565	0,65
551,014	0,64
551,463	0,64
551,911	0,64
552,36	0,64
552,809	0,63
553,258	0,63
553,706	0,63
554,155	0,62
554,603	0,62
555,052	0,62
555,501	0,61
555,949	0,61
556,398	0,61
556,846	0,61
557,294	0,6
557,743	0,6
558,191	0,59
558,64	0,59
559,088	0,59
559,536	0,58
559,985	0,58
560,433	0,58
560,881	0,57
561,329	0,57
561,777	0,57
562,225	0,57
562,674	0,56
563,122	0,56
563,57	0,56
564,018	0,55
564,466	0,55
564,914	0,55
565,362	0,55
565,809	0,54
566,257	0,54
566,705	0,54
567,153	0,53
567,601	0,53
568,048	0,53
568,496	0,53
568,944	0,52
569,392	0,52
569,839	0,52
570,287	0,52
570,734	0,51
571,182	0,51
571,63	0,51
572,077	0,51
572,525	0,5
572,972	0,5
573,419	0,5
573,867	0,5
574,314	0,49
574,761	0,49
575,209	0,49
575,656	0,49
576,103	0,48
576,551	0,48
576,998	0,48
577,445	0,48
577,892	0,48
578,339	0,48
578,786	0,47
579,233	0,47
579,68	0,47
580,127	0,47
580,574	0,47
581,021	0,46
581,468	0,46
581,915	0,46
582,362	0,46
582,809	0,46
583,255	0,45
583,702	0,45
584,149	0,45
584,596	0,45
585,042	0,45
585,489	0,45
585,936	0,44
586,382	0,44
586,829	0,44
587,275	0,44
587,722	0,44
588,168	0,44
588,615	0,44
589,061	0,43
589,508	0,43
589,954	0,43
590,4	0,43
590,847	0,43
591,293	0,43
591,739	0,43
592,185	0,43
592,632	0,42
593,078	0,42
593,524	0,42
593,97	0,42
594,416	0,42
594,862	0,42
595,308	0,42
595,754	0,42
596,2	0,42
596,646	0,42
597,092	0,41
597,538	0,41
597,984	0,41
598,43	0,41
598,876	0,41
599,321	0,41
599,767	0,41
600,213	0,41
600,659	0,41
601,104	0,41
601,55	0,4
601,995	0,4
602,441	0,4
602,887	0,4
603,332	0,4
603,778	0,4
604,223	0,4
604,668	0,4
605,114	0,4
605,559	0,4
606,005	0,4
606,45	0,4
606,895	0,4
607,341	0,4
607,786	0,39
608,231	0,39
608,676	0,39
609,121	0,39
609,566	0,38
610,012	0,38
610,457	0,38
610,902	0,37
611,347	0,37
611,792	0,37
612,237	0,37
612,682	0,37
613,127	0,37
613,571	0,37
614,016	0,37
614,461	0,37
614,906	0,37
615,351	0,37
615,795	0,37
616,24	0,37
616,685	0,37
617,129	0,37
617,574	0,37
618,019	0,37
618,463	0,37
618,908	0,37
619,352	0,37
619,797	0,37
620,241	0,37
620,686	0,37
621,13	0,37
621,574	0,37
622,019	0,37
622,463	0,37
622,907	0,37
623,352	0,37
623,796	0,37
624,24	0,37
624,684	0,37
625,128	0,37
625,572	0,37
626,016	0,37
626,461	0,37
626,905	0,37
627,349	0,37
627,793	0,37
628,236	0,36
628,68	0,36
629,124	0,36
629,568	0,36
630,012	0,36
630,456	0,36
630,9	0,36
631,343	0,36
631,787	0,36
632,231	0,36
632,674	0,36
633,118	0,36
633,562	0,36
634,005	0,36
634,449	0,36
634,892	0,36
635,336	0,36
635,779	0,36
636,223	0,36
636,666	0,36
637,109	0,36
637,553	0,36
637,996	0,36
638,439	0,36
638,883	0,36
639,326	0,35
639,769	0,35
640,212	0,35
640,655	0,35
641,099	0,35
641,542	0,35
641,985	0,35
642,428	0,35
642,871	0,35
643,314	0,35
643,757	0,35
644,2	0,35
644,643	0,35
645,085	0,35
645,528	0,35
645,971	0,35
646,414	0,35
646,857	0,35
647,299	0,35
647,742	0,35
648,185	0,35
648,627	0,35
649,07	0,35
649,513	0,35
649,955	0,35
650,398	0,35
650,84	0,35
651,283	0,35
651,725	0,35
652,168	0,35
652,61	0,35
653,052	0,35
653,495	0,34
653,937	0,27
654,379	0,21
654,821	0,22
655,264	0,22
655,706	0,22
656,148	0,22
656,59	0,22
657,032	0,22
657,474	0,22
657,916	0,22
658,358	0,21
658,8	0,27
659,242	0,34
659,684	0,34
660,126	0,34
660,568	0,34
661,01	0,34
661,452	0,34
661,894	0,34
662,335	0,34
662,777	0,34
663,219	0,34
663,661	0,34
664,102	0,34
664,544	0,34
664,985	0,34
665,427	0,34
665,869	0,34
666,31	0,34
666,752	0,34
667,193	0,34
667,634	0,34
668,076	0,34
668,517	0,34
668,959	0,34
669,4	0,34
669,841	0,34
670,282	0,34
670,724	0,34
671,165	0,34
671,606	0,34
672,047	0,34
672,488	0,34
672,929	0,34
673,37	0,34
673,811	0,34
674,252	0,34
674,693	0,34
675,134	0,33
675,575	0,33
676,016	0,33
676,457	0,33
676,898	0,33
677,339	0,33
677,78	0,33
678,22	0,33
678,661	0,33
679,102	0,33
679,542	0,33
679,983	0,33
680,424	0,33
680,864	0,33
681,305	0,33
681,745	0,33
682,186	0,33
682,626	0,33
683,067	0,33
683,507	0,33
683,948	0,33
684,388	0,33
684,828	0,33
685,269	0,33
685,709	0,33
686,149	0,33
686,589	0,33
687,029	0,33
687,47	0,33
687,91	0,32
688,35	0,32
688,79	0,32
689,23	0,32
689,67	0,32
690,11	0,32
690,55	0,32
690,99	0,32
691,43	0,32
691,87	0,32
692,31	0,32
692,749	0,32
693,189	0,32
693,629	0,32
694,069	0,32
694,508	0,32
694,948	0,32
695,388	0,32
695,827	0,32
696,267	0,32
696,706	0,32
697,146	0,32
697,586	0,32
698,025	0,32
698,464	0,33
698,904	0,33
699,343	0,33
699,783	0,33
700,222	0,33
700,661	0,33
701,101	0,33
701,54	0,33
701,979	0,33
702,418	0,33
702,857	0,33
703,297	0,32
703,736	0,32
704,175	0,32
704,614	0,32
705,053	0,32
705,492	0,32
705,931	0,32
706,37	0,32
706,809	0,32
707,248	0,32
707,687	0,32
708,125	0,32
708,564	0,32
709,003	0,32
709,442	0,32
709,88	0,32
710,319	0,32
710,758	0,32
711,196	0,31
711,635	0,31
712,074	0,31
712,512	0,31
712,951	0,31
713,389	0,31
713,828	0,31
714,266	0,31
714,705	0,31
715,143	0,31
715,581	0,31
716,02	0,31
716,458	0,31
716,896	0,31
717,334	0,31
717,773	0,31
718,211	0,31
718,649	0,31
719,087	0,31
719,525	0,31
719,963	0,31
720,401	0,31
720,839	0,31
721,277	0,31
721,715	0,31
722,153	0,31
722,591	0,31
723,029	0,31
723,467	0,31
723,905	0,31
724,342	0,31
724,78	0,31
725,218	0,31
725,656	0,31
726,093	0,31
726,531	0,31
726,969	0,31
727,406	0,31
727,844	0,31
728,281	0,31
728,719	0,31
729,156	0,31
729,594	0,31
730,031	0,31
730,469	0,31
730,906	0,3
731,343	0,3
731,781	0,3
732,218	0,3
732,655	0,3
733,092	0,3
733,53	0,3
733,967	0,3
734,404	0,3
734,841	0,3
735,278	0,3
735,715	0,3
736,152	0,3
736,589	0,3
737,026	0,3
737,463	0,3
737,9	0,3
738,337	0,3
738,774	0,3
739,211	0,3
739,647	0,3
740,084	0,3
740,521	0,3
740,958	0,3
741,394	0,3
741,831	0,29
742,268	0,29
742,704	0,29
743,141	0,29
743,577	0,29
744,014	0,29
744,45	0,29
744,887	0,29
745,323	0,29
745,76	0,28
746,196	0,28
746,632	0,28
747,069	0,28
747,505	0,28
747,941	0,28
748,378	0,28
748,814	0,28
749,25	0,29
749,686	0,29
750,122	0,29
750,558	0,29
750,994	0,29
751,43	0,29
751,866	0,3
752,302	0,3
752,738	0,3
753,174	0,3
753,61	0,3
754,046	0,3
754,482	0,3
754,918	0,3
755,354	0,3
755,789	0,3
756,225	0,3
756,661	0,3
757,096	0,3
757,532	0,3
757,968	0,29
758,403	0,29
758,839	0,29
759,274	0,29
759,71	0,29
760,145	0,28
760,581	0,28
761,016	0,28
761,452	0,27
761,887	0,27
762,322	0,27
762,758	0,26
763,193	0,26
763,628	0,25
764,063	0,25
764,499	0,24
764,934	0,24
765,369	0,23
765,804	0,23
766,239	0,22
766,674	0,22
767,109	0,21
767,544	0,21
767,979	0,2
768,414	0,19
768,849	0,18
769,284	0,18
769,719	0,17
770,154	0,17
770,588	0,16
771,023	0,15
771,458	0,14
771,893	0,13
772,327	0,12
772,762	0,12
773,197	0,11
773,631	0,1
774,066	0,09
774,5	0,08
774,935	0,08
775,369	0,06
775,804	0,06
776,238	0,05
776,673	0,04
777,107	0,03
777,541	0,03
777,976	0,02
778,41	0,02
778,844	0,01
779,279	0,01
779,713	0
780,147	-0,01
780,581	-0,01
781,015	-0,02
781,449	-0,03
781,883	-0,04
782,317	-0,06
782,751	-0,07
783,185	-0,08
783,619	-0,08
784,053	-0,09
784,487	-0,1
784,921	-0,11
785,355	-0,12
785,789	-0,12
786,223	-0,14
786,656	-0,15
787,09	-0,16
787,524	-0,16
787,957	-0,17
788,391	-0,18
788,825	-0,2
789,258	-0,21
789,692	-0,22
790,125	-0,23
790,559	-0,24
790,992	-0,26
791,426	-0,28
791,859	-0,29
792,293	-0,33
792,726	-0,35
793,159	-0,36
793,593	-0,38
794,026	-0,4
794,459	-0,43
794,892	-0,46
795,326	-0,49
795,759	-0,52
796,192	-0,57
796,625	-0,61
797,058	-0,63
797,491	-0,68
797,924	-0,71
798,357	-0,76
798,79	-0,8
799,223	-0,85
799,656	-0,9
800,089	-0,95
800,522	-0,99
800,955	-1,04
801,387	-1,09
801,82	-1,15
802,253	-1,21
802,686	-1,29
803,118	-1,34
803,551	-1,39
803,984	-1,44
804,416	-1,47
804,849	-1,5
805,281	-1,6
805,714	-1,96
806,146	-2,43
806,579	-2,7
807,011	-2,86
807,444	-2,96
807,876	-3,05
808,308	-3,08
808,741	-3,11
809,173	-3,16
809,605	-3,18
810,037	-3,26
810,47	-3,18
810,902	-2,98
811,334	-2,83
811,766	-2,67
812,198	-2,43
812,63	-2
813,062	-1,79
813,494	-1,69
813,926	-1,6
814,358	-1,55
814,79	-1,47
815,222	-1,41
815,654	-1,36
816,086	-1,3
816,518	-1,24
816,949	-1,19
817,381	-1,15
817,813	-1,13
818,245	-1,09
818,676	-1,05
819,108	-1,02
819,54	-1
819,971	-0,98
820,403	-0,93
820,834	-0,91
821,266	-0,86
821,697	-0,84
822,129	-0,83
822,56	-0,81
822,991	-0,78
823,423	-0,75
823,854	-0,74
824,286	-0,72
824,717	-0,7
825,148	-0,68
825,579	-0,67
826,01	-0,66
826,442	-0,65
826,873	-0,63
827,304	-0,59
827,735	-0,58
828,166	-0,58
828,597	-0,58
829,028	-0,58
829,459	-0,58
829,89	-0,59
830,321	-0,55
830,752	-0,56
831,183	-0,55
831,613	-0,54
832,044	-0,54
832,475	-0,54
832,906	-0,56
833,336	-0,56
833,767	-0,57
834,198	-0,56
834,628	-0,54
835,059	-0,56
835,49	-0,57
835,92	-0,55
836,351	-0,54
836,781	-0,54
837,212	-0,55
837,642	-0,55
838,072	-0,52
838,503	-0,53
838,933	-0,51
839,364	-0,52
839,794	-0,5
840,224	-0,49
840,654	-0,53
841,085	-0,53
841,515	-0,51
841,945	-0,52
842,375	-0,47
842,805	-0,46
843,235	-0,45
843,665	-0,47
844,095	-0,45
844,525	-0,48
844,955	-0,48
845,385	-0,46
845,815	-0,45
846,245	-0,47
846,675	-0,47
847,105	-0,5
847,534	-0,5
847,964	-0,48
848,394	-0,47
848,824	-0,5
849,253	-0,49
849,683	-0,49
850,112	-0,5
850,542	-0,53
850,972	-0,52
851,401	-0,5
851,831	-0,48
852,26	-0,49
852,69	-0,53
853,119	-0,52
853,548	-0,52
853,978	-0,52
854,407	-0,5
854,836	-0,5
855,266	-0,49
855,695	-0,51
856,124	-0,52
856,553	-0,53
856,983	-0,54
857,412	-0,54
857,841	-0,55
858,27	-0,55
858,699	-0,55
859,128	-0,58
859,557	-0,59
859,986	-0,6
860,415	-0,58
860,844	-0,55
861,273	-0,55
861,702	-0,57
862,13	-0,54
862,559	-0,57
862,988	-0,54
863,417	-0,54
863,845	-0,54
864,274	-0,54
864,703	-0,54
865,131	-0,55
865,56	-0,55
865,989	-0,58
866,417	-0,55
866,846	-0,55
867,274	-0,54
867,703	-0,57
868,131	-0,57
868,559	-0,57
868,988	-0,59
869,416	-0,59
869,844	-0,6
870,273	-0,63
870,701	-0,62
871,129	-0,65
871,557	-0,68
871,986	-0,68
872,414	-0,69
872,842	-0,66
873,27	-0,64
873,698	-0,61
874,126	-0,65
874,554	-0,62
874,982	-0,63
875,41	-0,66
875,838	-0,61
876,266	-0,58
876,694	-0,59
877,122	-0,58
877,549	-0,62
877,977	-0,6
878,405	-0,63
878,833	-0,6
879,26	-0,58
879,688	-0,58
880,116	-0,55
880,543	-0,54
880,971	-0,53
881,399	-0,56
881,826	-0,56
882,254	-0,54
882,681	-0,57
883,109	-0,53
883,536	-0,54
883,963	-0,57
884,391	-0,54
884,818	-0,53
885,245	-0,56
885,673	-0,58
886,1	-0,55
886,527	-0,55
886,954	-0,52
887,381	-0,54
887,809	-0,56
888,236	-0,57
888,663	-0,57
889,09	-0,61
889,517	-0,64
889,944	-0,63
890,371	-0,62
890,798	-0,62
891,225	-0,63
891,652	-0,65
892,078	-0,63
892,505	-0,65
892,932	-0,6
893,359	-0,62
893,786	-0,61
894,212	-0,58
894,639	-0,59
895,066	-0,6
895,492	-0,55
895,919	-0,55
896,346	-0,55
896,772	-0,54
897,199	-0,52
897,625	-0,54
898,052	-0,5
898,478	-0,5
898,904	-0,51
899,331	-0,51
899,757	-0,53
900,183	-0,56
900,61	-0,53
901,036	-0,54
901,462	-0,54
901,888	-0,54
902,315	-0,52
902,741	-0,58
903,167	-0,56
903,593	-0,59
904,019	-0,58
904,445	-0,55
904,871	-0,57
905,297	-0,6
905,723	-0,59
906,149	-0,59
906,575	-0,59
907,001	-0,59
907,427	-0,56
907,852	-0,55
908,278	-0,56
908,704	-0,54
909,13	-0,53
909,555	-0,53
909,981	-0,52
910,407	-0,52
910,832	-0,51
911,258	-0,51
911,684	-0,51
912,109	-0,5
912,535	-0,52
912,96	-0,48
913,386	-0,52
913,811	-0,52
914,236	-0,53
914,662	-0,51
915,087	-0,56
915,512	-0,55
915,938	-0,58
916,363	-0,58
916,788	-0,6
917,213	-0,58
917,639	-0,63
918,064	-0,6
918,489	-0,6
918,914	-0,6
919,339	-0,61
919,764	-0,57
920,189	-0,58
920,614	-0,59
921,039	-0,58
921,464	-0,53
921,889	-0,57
922,314	-0,57
922,738	-0,6
923,163	-0,61
923,588	-0,61
924,013	-0,6
924,437	-0,61
924,862	-0,62
925,287	-0,59
925,711	-0,6
926,136	-0,63
926,561	-0,6
926,985	-0,6
927,41	-0,57
927,834	-0,55
928,259	-0,52
928,683	-0,5
929,108	-0,48
929,532	-0,49
929,956	-0,49
930,381	-0,48
930,805	-0,48
931,229	-0,48
931,653	-0,45
932,078	-0,45
932,502	-0,46
932,926	-0,47
933,35	-0,47
933,774	-0,46
934,198	-0,44
934,622	-0,43
935,046	-0,43
935,47	-0,43
935,894	-0,43
936,318	-0,43
936,742	-0,44
937,166	-0,44
937,59	-0,44
938,014	-0,46
938,437	-0,47
938,861	-0,48
939,285	-0,49
939,709	-0,48
940,132	-0,48
940,556	-0,49
940,98	-0,49
941,403	-0,47
941,827	-0,47
942,25	-0,49
942,674	-0,47
943,097	-0,46
943,521	-0,46
943,944	-0,47
944,368	-0,46
944,791	-0,45
945,214	-0,47
945,638	-0,47
946,061	-0,5
946,484	-0,52
946,907	-0,49
947,331	-0,5
947,754	-0,56
948,177	-0,54
948,6	-0,54
949,023	-0,53
949,446	-0,53
949,869	-0,51
950,292	-0,51
950,715	-0,48
951,138	-0,46
951,561	-0,44
951,984	-0,44
952,407	-0,43
952,83	-0,41
953,252	-0,37
953,675	-0,37
954,098	-0,38
954,521	-0,37
954,943	-0,37
955,366	-0,38
955,789	-0,36
956,211	-0,38
956,634	-0,38
957,056	-0,35
957,479	-0,36
957,902	-0,38
958,324	-0,39
958,746	-0,36
959,169	-0,37
959,591	-0,37
960,014	-0,38
960,436	-0,37
960,858	-0,37
961,281	-0,37
961,703	-0,39
962,125	-0,39
962,547	-0,37
962,969	-0,38
963,391	-0,39
963,814	-0,4
964,236	-0,39
964,658	-0,36
965,08	-0,38
965,502	-0,37
965,924	-0,35
966,346	-0,34
966,768	-0,33
967,189	-0,35
967,611	-0,35
968,033	-0,35
968,455	-0,33
968,877	-0,34
969,298	-0,36
969,72	-0,35
970,142	-0,35
970,563	-0,35
970,985	-0,34
971,407	-0,33
971,828	-0,31
972,25	-0,3
972,671	-0,28
973,093	-0,28
973,514	-0,26
973,936	-0,24
974,357	-0,23
974,778	-0,23
975,2	-0,23
975,621	-0,22
976,042	-0,21
976,464	-0,2
976,885	-0,2
977,306	-0,19
977,727	-0,19
978,148	-0,17
978,57	-0,16
978,991	-0,15
979,412	-0,13
979,833	-0,12
980,254	-0,11
980,675	-0,11
981,096	-0,1
981,517	-0,09
981,937	-0,09
982,358	-0,07
982,779	-0,06
983,2	-0,06
983,621	-0,05
984,042	-0,04
984,462	-0,04
984,883	-0,03
985,304	-0,02
985,724	-0,01
986,145	0
986,565	0,02
986,986	0,02
987,407	0,03
987,827	0,04
988,248	0,05
988,668	0,06
989,088	0,07
989,509	0,08
989,929	0,09
990,35	0,1
990,77	0,1
991,19	0,11
991,61	0,12
992,031	0,13
992,451	0,13
992,871	0,14
993,291	0,15
993,711	0,16
994,131	0,16
994,551	0,17
994,971	0,18
995,391	0,18
995,811	0,19
996,231	0,19
996,651	0,19
997,071	0,2
997,491	0,21
997,911	0,21
998,331	0,22
998,75	0,22
999,17	0,23
999,59	0,23
1000,009	0,23
1000,429	0,23
1000,849	0,24
1001,268	0,24
1001,688	0,24
1002,107	0,25
1002,527	0,25
1002,946	0,25
1003,366	0,25
1003,785	0,25
1004,205	0,26
1004,624	0,26
1005,044	0,26
1005,463	0,26
1005,882	0,26
1006,301	0,26
1006,721	0,26
1007,14	0,26
1007,559	0,26
1007,978	0,27
1008,397	0,27
1008,816	0,27
1009,235	0,27
1009,655	0,26
1010,074	0,26
1010,492	0,26
1010,911	0,26
1011,33	0,26
1011,749	0,26
1012,168	0,26
1012,587	0,26
1013,006	0,26
1013,425	0,26
1013,843	0,25
1014,262	0,25
1014,681	0,25
1015,099	0,25
1015,518	0,25
1015,937	0,25
1016,355	0,25
1016,774	0,25
1017,192	0,25
1017,611	0,25
1018,029	0,25
1018,448	0,26
1018,866	0,26
1019,285	0,26
1019,703	0,26
1020,121	0,26
1020,54	0,26
1020,958	0,26
1021,376	0,26
1021,794	0,26
1022,213	0,26
1022,631	0,26
1023,049	0,26
1023,467	0,26
1023,885	0,26
1024,303	0,25
1024,721	0,25
1025,139	0,25
1025,557	0,25
1025,975	0,25
1026,393	0,25
1026,811	0,25
1027,229	0,25
1027,647	0,25
1028,065	0,25
1028,482	0,25
1028,9	0,25
1029,318	0,25
1029,735	0,25
1030,153	0,25
1030,571	0,25
1030,988	0,25
1031,406	0,25
1031,823	0,25
1032,241	0,25
1032,659	0,25
1033,076	0,25
1033,493	0,25
1033,911	0,25
1034,328	0,25
1034,746	0,25
1035,163	0,25
1035,58	0,25
1035,997	0,25
1036,415	0,25
1036,832	0,25
1037,249	0,25
1037,666	0,25
1038,083	0,25
1038,501	0,25
1038,918	0,25
1039,335	0,25
1039,752	0,25
1040,169	0,25
1040,586	0,25
1041,003	0,25
1041,419	0,25
1041,836	0,25
1042,253	0,25
1042,67	0,25
1043,087	0,24
1043,504	0,24
1043,92	0,24
1044,337	0,24
1044,754	0,24
1045,17	0,24
1045,587	0,24
1046,004	0,24
1046,42	0,24
1046,837	0,24
1047,253	0,24
1047,67	0,24
1048,086	0,24
1048,503	0,24
1048,919	0,24
1049,335	0,24
1049,752	0,24
1050,168	0,24
1050,584	0,24
1051,001	0,24
1051,417	0,24
1051,833	0,24
1052,249	0,24
1052,665	0,24
1053,081	0,24
1053,497	0,24
1053,914	0,24
1054,33	0,24
1054,746	0,24
1055,162	0,24
1055,578	0,25
1055,993	0,25
1056,409	0,25
1056,825	0,25
1057,241	0,25
1057,657	0,25
1058,073	0,25
1058,488	0,25
1058,904	0,25
1059,32	0,25
1059,736	0,25
1060,151	0,25
1060,567	0,25
1060,982	0,25
1061,398	0,25
1061,813	0,25
1062,229	0,25
1062,644	0,25
1063,06	0,25
1063,475	0,25
1063,891	0,24
1064,306	0,24
1064,721	0,24
1065,137	0,24
1065,552	0,24
1065,967	0,24
1066,382	0,24
1066,798	0,24
1067,213	0,24
1067,628	0,24
1068,043	0,25
1068,458	0,25
1068,873	0,25
1069,288	0,25
1069,703	0,25
1070,118	0,25
1070,533	0,25
1070,948	0,25
1071,363	0,25
1071,778	0,25
1072,193	0,25
1072,607	0,25
1073,022	0,25
1073,437	0,25
1073,852	0,25
1074,266	0,25
1074,681	0,25
1075,096	0,25
1075,51	0,25
1075,925	0,25
1076,339	0,25
1076,754	0,25
1077,168	0,25
1077,583	0,25
1077,997	0,25
1078,412	0,25
1078,826	0,25
1079,24	0,25
1079,655	0,24
1080,069	0,24
1080,483	0,24
1080,897	0,24
1081,312	0,24
1081,726	0,24
1082,14	0,24
1082,554	0,24
1082,968	0,24
1083,382	0,24
1083,796	0,24
1084,21	0,24
1084,624	0,24
1085,038	0,24
1085,452	0,23
1085,866	0,23
1086,28	0,23
1086,694	0,23
1087,108	0,23
1087,521	0,23
1087,935	0,23
1088,349	0,23
1088,763	0,23
1089,176	0,22
1089,59	0,22
1090,004	0,22
1090,417	0,22
1090,831	0,22
1091,244	0,22
1091,658	0,21
1092,071	0,21
1092,485	0,21
1092,898	0,21
1093,312	0,21
1093,725	0,21
1094,138	0,2
1094,552	0,2
1094,965	0,2
1095,378	0,2
1095,791	0,2
1096,205	0,2
1096,618	0,2
1097,031	0,19
1097,444	0,19
1097,857	0,19
1098,27	0,19
1098,683	0,19
1099,096	0,18
1099,509	0,18
1099,922	0,17
1100,335	0,17
1100,748	0,17
1101,161	0,17
1101,574	0,16
1101,986	0,16
1102,399	0,16
1102,812	0,16
1103,225	0,15
1103,637	0,15
1104,05	0,15
1104,463	0,15
1104,875	0,15
1105,288	0,15
1105,7	0,14
1106,113	0,14
1106,525	0,14
1106,938	0,13
1107,35	0,13
1107,763	0,13
1108,175	0,13
1108,588	0,12
1109	0,12
1109,412	0,11
1109,824	0,11
1110,237	0,11
1110,649	0,11
1111,061	0,1
