Data from 18C-808nm-8A_Absorbance__959__00959.txt Node

Date: Mon Jul 17 16:56:21 CEST 2023
User: Laser008
Spectrometer: MAYP115816
Trigger mode: 0
Integration Time (sec): 2,500000E-1
Scans to average: 10
Electric dark correction enabled: true
Nonlinearity correction enabled: true
Boxcar width: 5
XAxis mode: Wavelengths
Number of Pixels in Spectrum: 2068
>>>>>Begin Spectral Data<<<<<
198,914	-0,72
199,384	-0,5
199,855	-0,38
200,325	-0,3
200,796	-0,27
201,266	-0,22
201,737	-0,2
202,207	-0,19
202,677	-0,18
203,147	-0,16
203,618	-0,13
204,088	-0,11
204,558	-0,11
205,028	-0,1
205,498	-0,1
205,968	-0,09
206,439	-0,11
206,909	-0,11
207,379	-0,11
207,849	-0,11
208,319	-0,12
208,789	-0,13
209,258	-0,13
209,728	-0,14
210,198	-0,14
210,668	-0,14
211,138	-0,15
211,608	-0,14
212,077	-0,15
212,547	-0,15
213,017	-0,15
213,486	-0,16
213,956	-0,16
214,426	-0,17
214,895	-0,16
215,365	-0,16
215,834	-0,17
216,304	-0,18
216,773	-0,18
217,243	-0,19
217,712	-0,2
218,181	-0,19
218,651	-0,19
219,12	-0,18
219,589	-0,19
220,058	-0,18
220,528	-0,19
220,997	-0,19
221,466	-0,2
221,935	-0,2
222,404	-0,21
222,873	-0,2
223,342	-0,19
223,812	-0,2
224,281	-0,2
224,749	-0,21
225,218	-0,22
225,687	-0,23
226,156	-0,22
226,625	-0,21
227,094	-0,21
227,563	-0,2
228,031	-0,21
228,5	-0,22
228,969	-0,22
229,438	-0,21
229,906	-0,19
230,375	-0,18
230,844	-0,18
231,312	-0,18
231,781	-0,18
232,249	-0,17
232,718	-0,18
233,186	-0,17
233,655	-0,17
234,123	-0,17
234,591	-0,18
235,06	-0,19
235,528	-0,19
235,996	-0,19
236,465	-0,19
236,933	-0,18
237,401	-0,18
237,869	-0,16
238,337	-0,16
238,805	-0,14
239,274	-0,14
239,742	-0,13
240,21	-0,13
240,678	-0,13
241,146	-0,12
241,614	-0,12
242,081	-0,12
242,549	-0,13
243,017	-0,14
243,485	-0,15
243,953	-0,15
244,421	-0,15
244,888	-0,15
245,356	-0,15
245,824	-0,14
246,291	-0,14
246,759	-0,15
247,227	-0,15
247,694	-0,14
248,162	-0,14
248,629	-0,12
249,097	-0,12
249,564	-0,12
250,032	-0,14
250,499	-0,13
250,967	-0,14
251,434	-0,14
251,901	-0,14
252,369	-0,14
252,836	-0,16
253,303	-0,17
253,77	-0,18
254,237	-0,18
254,705	-0,18
255,172	-0,17
255,639	-0,17
256,106	-0,19
256,573	-0,19
257,04	-0,19
257,507	-0,2
257,974	-0,2
258,441	-0,18
258,908	-0,18
259,375	-0,19
259,841	-0,2
260,308	-0,2
260,775	-0,2
261,242	-0,19
261,709	-0,2
262,175	-0,21
262,642	-0,2
263,109	-0,19
263,575	-0,21
264,042	-0,2
264,508	-0,2
264,975	-0,21
265,441	-0,22
265,908	-0,22
266,374	-0,21
266,841	-0,2
267,307	-0,19
267,773	-0,19
268,24	-0,2
268,706	-0,2
269,172	-0,21
269,639	-0,21
270,105	-0,2
270,571	-0,21
271,037	-0,21
271,503	-0,23
271,969	-0,23
272,435	-0,23
272,902	-0,24
273,368	-0,25
273,834	-0,25
274,3	-0,25
274,765	-0,25
275,231	-0,24
275,697	-0,23
276,163	-0,24
276,629	-0,23
277,095	-0,24
277,56	-0,23
278,026	-0,24
278,492	-0,22
278,958	-0,23
279,423	-0,22
279,889	-0,22
280,354	-0,23
280,82	-0,22
281,286	-0,23
281,751	-0,23
282,217	-0,21
282,682	-0,21
283,147	-0,2
283,613	-0,22
284,078	-0,2
284,544	-0,22
285,009	-0,23
285,474	-0,22
285,939	-0,24
286,405	-0,23
286,87	-0,22
287,335	-0,22
287,8	-0,22
288,265	-0,21
288,73	-0,22
289,195	-0,25
289,66	-0,24
290,125	-0,23
290,59	-0,22
291,055	-0,22
291,52	-0,22
291,985	-0,23
292,45	-0,23
292,915	-0,23
293,38	-0,24
293,844	-0,22
294,309	-0,21
294,774	-0,21
295,239	-0,23
295,703	-0,24
296,168	-0,22
296,632	-0,21
297,097	-0,19
297,562	-0,18
298,026	-0,19
298,491	-0,2
298,955	-0,19
299,419	-0,18
299,884	-0,17
300,348	-0,16
300,813	-0,15
301,277	-0,17
301,741	-0,17
302,205	-0,17
302,67	-0,17
303,134	-0,16
303,598	-0,15
304,062	-0,15
304,526	-0,15
304,99	-0,17
305,454	-0,16
305,919	-0,16
306,383	-0,16
306,847	-0,16
307,31	-0,17
307,774	-0,17
308,238	-0,17
308,702	-0,17
309,166	-0,19
309,63	-0,18
310,094	-0,16
310,557	-0,16
311,021	-0,15
311,485	-0,15
311,948	-0,14
312,412	-0,14
312,876	-0,13
313,339	-0,13
313,803	-0,13
314,266	-0,13
314,73	-0,13
315,193	-0,13
315,657	-0,12
316,12	-0,12
316,584	-0,12
317,047	-0,11
317,51	-0,1
317,973	-0,1
318,437	-0,09
318,9	-0,08
319,363	-0,08
319,826	-0,08
320,29	-0,09
320,753	-0,09
321,216	-0,09
321,679	-0,1
322,142	-0,09
322,605	-0,11
323,068	-0,1
323,531	-0,11
323,994	-0,1
324,457	-0,1
324,92	-0,09
325,382	-0,09
325,845	-0,08
326,308	-0,07
326,771	-0,06
327,233	-0,06
327,696	-0,05
328,159	-0,04
328,622	-0,04
329,084	-0,04
329,547	-0,03
330,009	-0,03
330,472	-0,02
330,934	-0,02
331,397	-0,02
331,859	-0,01
332,322	-0,01
332,784	-0,01
333,246	-0,01
333,709	-0,01
334,171	-0,01
334,633	-0,01
335,096	-0,01
335,558	-0,01
336,02	-0,01
336,482	-0,01
336,944	-0
337,406	0
337,868	0,01
338,331	0
338,793	0,01
339,255	0,02
339,717	0,03
340,178	0,03
340,64	0,04
341,102	0,05
341,564	0,05
342,026	0,06
342,488	0,07
342,949	0,08
343,411	0,1
343,873	0,12
344,335	0,14
344,796	0,16
345,258	0,19
345,719	0,21
346,181	0,23
346,643	0,25
347,104	0,27
347,566	0,29
348,027	0,3
348,488	0,31
348,95	0,32
349,411	0,33
349,873	0,34
350,334	0,35
350,795	0,35
351,256	0,36
351,718	0,36
352,179	0,36
352,64	0,36
353,101	0,36
353,562	0,37
354,023	0,37
354,484	0,37
354,945	0,37
355,406	0,37
355,867	0,37
356,328	0,37
356,789	0,37
357,25	0,37
357,711	0,37
358,172	0,38
358,633	0,38
359,093	0,38
359,554	0,38
360,015	0,38
360,476	0,38
360,936	0,38
361,397	0,38
361,858	0,38
362,318	0,38
362,779	0,38
363,239	0,38
363,7	0,38
364,16	0,38
364,621	0,38
365,081	0,38
365,541	0,38
366,002	0,38
366,462	0,38
366,922	0,38
367,383	0,38
367,843	0,38
368,303	0,38
368,763	0,38
369,223	0,38
369,684	0,38
370,144	0,38
370,604	0,38
371,064	0,38
371,524	0,38
371,984	0,38
372,444	0,38
372,904	0,38
373,363	0,38
373,823	0,38
374,283	0,38
374,743	0,38
375,203	0,38
375,663	0,38
376,122	0,38
376,582	0,38
377,042	0,38
377,501	0,38
377,961	0,38
378,42	0,38
378,88	0,38
379,34	0,38
379,799	0,37
380,259	0,37
380,718	0,37
381,177	0,37
381,637	0,37
382,096	0,37
382,555	0,37
383,015	0,37
383,474	0,37
383,933	0,37
384,393	0,37
384,852	0,37
385,311	0,37
385,77	0,37
386,229	0,37
386,688	0,37
387,147	0,37
387,606	0,37
388,065	0,37
388,524	0,37
388,983	0,37
389,442	0,37
389,901	0,37
390,36	0,37
390,819	0,37
391,277	0,37
391,736	0,37
392,195	0,37
392,654	0,37
393,112	0,37
393,571	0,37
394,03	0,37
394,488	0,37
394,947	0,37
395,405	0,37
395,864	0,37
396,322	0,37
396,781	0,37
397,239	0,37
397,698	0,37
398,156	0,37
398,614	0,37
399,073	0,37
399,531	0,37
399,989	0,37
400,447	0,36
400,905	0,36
401,364	0,36
401,822	0,36
402,28	0,36
402,738	0,36
403,196	0,36
403,654	0,36
404,112	0,36
404,57	0,36
405,028	0,36
405,486	0,36
405,944	0,36
406,402	0,36
406,859	0,36
407,317	0,36
407,775	0,36
408,233	0,36
408,691	0,36
409,148	0,36
409,606	0,36
410,064	0,36
410,521	0,36
410,979	0,36
411,436	0,36
411,894	0,36
412,351	0,36
412,809	0,36
413,266	0,36
413,724	0,36
414,181	0,36
414,638	0,36
415,096	0,36
415,553	0,36
416,01	0,36
416,467	0,36
416,925	0,36
417,382	0,36
417,839	0,36
418,296	0,36
418,753	0,36
419,21	0,36
419,667	0,36
420,124	0,36
420,581	0,36
421,038	0,36
421,495	0,36
421,952	0,36
422,409	0,36
422,866	0,36
423,322	0,36
423,779	0,36
424,236	0,36
424,693	0,36
425,149	0,36
425,606	0,36
426,063	0,36
426,519	0,36
426,976	0,36
427,433	0,36
427,889	0,36
428,346	0,36
428,802	0,35
429,258	0,35
429,715	0,35
430,171	0,35
430,628	0,35
431,084	0,35
431,54	0,35
431,997	0,35
432,453	0,35
432,909	0,35
433,365	0,35
433,821	0,35
434,277	0,35
434,734	0,35
435,19	0,35
435,646	0,35
436,102	0,35
436,558	0,35
437,014	0,35
437,47	0,35
437,925	0,35
438,381	0,35
438,837	0,35
439,293	0,35
439,749	0,35
440,205	0,35
440,66	0,35
441,116	0,35
441,572	0,35
442,027	0,35
442,483	0,35
442,939	0,35
443,394	0,35
443,85	0,35
444,305	0,35
444,761	0,35
445,216	0,35
445,672	0,35
446,127	0,35
446,582	0,35
447,038	0,35
447,493	0,35
447,948	0,35
448,403	0,35
448,859	0,35
449,314	0,35
449,769	0,35
450,224	0,35
450,679	0,35
451,134	0,35
451,589	0,35
452,044	0,35
452,499	0,35
452,954	0,35
453,409	0,35
453,864	0,35
454,319	0,35
454,774	0,35
455,229	0,35
455,684	0,35
456,138	0,35
456,593	0,35
457,048	0,35
457,503	0,35
457,957	0,35
458,412	0,35
458,866	0,35
459,321	0,35
459,776	0,35
460,23	0,35
460,685	0,35
461,139	0,35
461,593	0,35
462,048	0,35
462,502	0,35
462,957	0,35
463,411	0,36
463,865	0,36
464,319	0,36
464,774	0,36
465,228	0,36
465,682	0,36
466,136	0,36
466,59	0,36
467,044	0,36
467,499	0,36
467,953	0,36
468,407	0,36
468,861	0,36
469,315	0,36
469,768	0,36
470,222	0,36
470,676	0,36
471,13	0,36
471,584	0,36
472,038	0,36
472,491	0,36
472,945	0,36
473,399	0,36
473,852	0,36
474,306	0,36
474,76	0,36
475,213	0,36
475,667	0,36
476,12	0,36
476,574	0,36
477,027	0,36
477,481	0,37
477,934	0,37
478,388	0,37
478,841	0,37
479,294	0,37
479,748	0,37
480,201	0,37
480,654	0,37
481,107	0,37
481,561	0,37
482,014	0,37
482,467	0,38
482,92	0,38
483,373	0,38
483,826	0,38
484,279	0,38
484,732	0,38
485,185	0,38
485,638	0,38
486,091	0,38
486,544	0,38
486,997	0,38
487,449	0,38
487,902	0,38
488,355	0,39
488,808	0,39
489,26	0,39
489,713	0,39
490,166	0,39
490,618	0,39
491,071	0,39
491,523	0,4
491,976	0,4
492,429	0,4
492,881	0,4
493,333	0,4
493,786	0,4
494,238	0,41
494,691	0,41
495,143	0,41
495,595	0,41
496,048	0,41
496,5	0,41
496,952	0,41
497,404	0,42
497,856	0,42
498,309	0,42
498,761	0,42
499,213	0,42
499,665	0,43
500,117	0,43
500,569	0,43
501,021	0,43
501,473	0,43
501,925	0,44
502,377	0,44
502,828	0,44
503,28	0,44
503,732	0,44
504,184	0,45
504,636	0,45
505,087	0,45
505,539	0,45
505,991	0,45
506,442	0,46
506,894	0,46
507,345	0,46
507,797	0,46
508,249	0,46
508,7	0,47
509,151	0,47
509,603	0,47
510,054	0,47
510,506	0,47
510,957	0,48
511,408	0,48
511,86	0,48
512,311	0,48
512,762	0,48
513,213	0,49
513,665	0,49
514,116	0,49
514,567	0,49
515,018	0,49
515,469	0,49
515,92	0,5
516,371	0,5
516,822	0,5
517,273	0,5
517,724	0,5
518,175	0,51
518,626	0,51
519,076	0,51
519,527	0,51
519,978	0,51
520,429	0,51
520,88	0,51
521,33	0,51
521,781	0,52
522,232	0,52
522,682	0,52
523,133	0,52
523,583	0,52
524,034	0,52
524,484	0,52
524,935	0,52
525,385	0,52
525,836	0,52
526,286	0,52
526,736	0,53
527,187	0,53
527,637	0,52
528,087	0,52
528,538	0,52
528,988	0,52
529,438	0,52
529,888	0,52
530,338	0,52
530,788	0,52
531,238	0,52
531,688	0,52
532,139	0,52
532,589	0,52
533,038	0,52
533,488	0,52
533,938	0,52
534,388	0,52
534,838	0,52
535,288	0,52
535,738	0,52
536,187	0,52
536,637	0,51
537,087	0,51
537,537	0,51
537,986	0,51
538,436	0,51
538,885	0,51
539,335	0,5
539,785	0,5
540,234	0,5
540,684	0,5
541,133	0,5
541,582	0,49
542,032	0,49
542,481	0,49
542,931	0,49
543,38	0,49
543,829	0,48
544,278	0,48
544,728	0,48
545,177	0,48
545,626	0,48
546,075	0,47
546,524	0,47
546,973	0,47
547,422	0,47
547,871	0,47
548,32	0,47
548,769	0,47
549,218	0,47
549,667	0,47
550,116	0,47
550,565	0,46
551,014	0,46
551,463	0,46
551,911	0,46
552,36	0,46
552,809	0,46
553,258	0,46
553,706	0,45
554,155	0,45
554,603	0,45
555,052	0,45
555,501	0,45
555,949	0,45
556,398	0,44
556,846	0,44
557,294	0,44
557,743	0,44
558,191	0,44
558,64	0,43
559,088	0,43
559,536	0,43
559,985	0,43
560,433	0,43
560,881	0,43
561,329	0,42
561,777	0,42
562,225	0,42
562,674	0,42
563,122	0,42
563,57	0,42
564,018	0,41
564,466	0,41
564,914	0,41
565,362	0,41
565,809	0,41
566,257	0,41
566,705	0,4
567,153	0,4
567,601	0,4
568,048	0,4
568,496	0,4
568,944	0,4
569,392	0,39
569,839	0,39
570,287	0,39
570,734	0,39
571,182	0,39
571,63	0,39
572,077	0,39
572,525	0,38
572,972	0,38
573,419	0,38
573,867	0,38
574,314	0,38
574,761	0,38
575,209	0,38
575,656	0,37
576,103	0,37
576,551	0,37
576,998	0,37
577,445	0,37
577,892	0,37
578,339	0,37
578,786	0,37
579,233	0,37
579,68	0,37
580,127	0,37
580,574	0,36
581,021	0,36
581,468	0,36
581,915	0,36
582,362	0,36
582,809	0,36
583,255	0,36
583,702	0,36
584,149	0,36
584,596	0,35
585,042	0,35
585,489	0,35
585,936	0,35
586,382	0,35
586,829	0,35
587,275	0,35
587,722	0,35
588,168	0,35
588,615	0,35
589,061	0,35
589,508	0,35
589,954	0,35
590,4	0,34
590,847	0,34
591,293	0,34
591,739	0,34
592,185	0,34
592,632	0,34
593,078	0,34
593,524	0,34
593,97	0,34
594,416	0,34
594,862	0,34
595,308	0,34
595,754	0,34
596,2	0,34
596,646	0,34
597,092	0,33
597,538	0,33
597,984	0,33
598,43	0,33
598,876	0,33
599,321	0,33
599,767	0,33
600,213	0,33
600,659	0,33
601,104	0,33
601,55	0,33
601,995	0,33
602,441	0,33
602,887	0,33
603,332	0,33
603,778	0,33
604,223	0,33
604,668	0,33
605,114	0,33
605,559	0,33
606,005	0,33
606,45	0,33
606,895	0,33
607,341	0,33
607,786	0,32
608,231	0,32
608,676	0,32
609,121	0,32
609,566	0,31
610,012	0,31
610,457	0,31
610,902	0,31
611,347	0,31
611,792	0,3
612,237	0,3
612,682	0,3
613,127	0,3
613,571	0,3
614,016	0,31
614,461	0,31
614,906	0,31
615,351	0,31
615,795	0,31
616,24	0,31
616,685	0,31
617,129	0,31
617,574	0,31
618,019	0,31
618,463	0,31
618,908	0,31
619,352	0,31
619,797	0,31
620,241	0,31
620,686	0,31
621,13	0,31
621,574	0,31
622,019	0,31
622,463	0,31
622,907	0,31
623,352	0,31
623,796	0,31
624,24	0,31
624,684	0,31
625,128	0,31
625,572	0,31
626,016	0,31
626,461	0,31
626,905	0,31
627,349	0,31
627,793	0,31
628,236	0,31
628,68	0,31
629,124	0,31
629,568	0,31
630,012	0,3
630,456	0,3
630,9	0,3
631,343	0,3
631,787	0,31
632,231	0,3
632,674	0,3
633,118	0,3
633,562	0,3
634,005	0,31
634,449	0,31
634,892	0,31
635,336	0,31
635,779	0,31
636,223	0,31
636,666	0,3
637,109	0,3
637,553	0,3
637,996	0,3
638,439	0,3
638,883	0,3
639,326	0,3
639,769	0,3
640,212	0,3
640,655	0,3
641,099	0,3
641,542	0,3
641,985	0,3
642,428	0,3
642,871	0,3
643,314	0,3
643,757	0,3
644,2	0,3
644,643	0,3
645,085	0,3
645,528	0,3
645,971	0,3
646,414	0,3
646,857	0,3
647,299	0,3
647,742	0,3
648,185	0,3
648,627	0,3
649,07	0,3
649,513	0,29
649,955	0,29
650,398	0,29
650,84	0,29
651,283	0,29
651,725	0,29
652,168	0,29
652,61	0,29
653,052	0,29
653,495	0,29
653,937	0,23
654,379	0,19
654,821	0,19
655,264	0,19
655,706	0,19
656,148	0,19
656,59	0,19
657,032	0,19
657,474	0,19
657,916	0,19
658,358	0,18
658,8	0,23
659,242	0,29
659,684	0,29
660,126	0,29
660,568	0,29
661,01	0,29
661,452	0,29
661,894	0,29
662,335	0,29
662,777	0,29
663,219	0,29
663,661	0,29
664,102	0,29
664,544	0,29
664,985	0,29
665,427	0,29
665,869	0,29
666,31	0,29
666,752	0,29
667,193	0,29
667,634	0,29
668,076	0,29
668,517	0,29
668,959	0,29
669,4	0,29
669,841	0,29
670,282	0,29
670,724	0,29
671,165	0,29
671,606	0,29
672,047	0,29
672,488	0,29
672,929	0,29
673,37	0,29
673,811	0,29
674,252	0,29
674,693	0,29
675,134	0,29
675,575	0,29
676,016	0,29
676,457	0,29
676,898	0,29
677,339	0,29
677,78	0,29
678,22	0,29
678,661	0,29
679,102	0,29
679,542	0,29
679,983	0,29
680,424	0,29
680,864	0,29
681,305	0,29
681,745	0,29
682,186	0,29
682,626	0,29
683,067	0,29
683,507	0,29
683,948	0,29
684,388	0,29
684,828	0,29
685,269	0,29
685,709	0,29
686,149	0,28
686,589	0,28
687,029	0,28
687,47	0,28
687,91	0,28
688,35	0,28
688,79	0,28
689,23	0,28
689,67	0,28
690,11	0,28
690,55	0,28
690,99	0,28
691,43	0,28
691,87	0,28
692,31	0,27
692,749	0,27
693,189	0,27
693,629	0,27
694,069	0,27
694,508	0,27
694,948	0,27
695,388	0,27
695,827	0,27
696,267	0,28
696,706	0,28
697,146	0,28
697,586	0,28
698,025	0,28
698,464	0,28
698,904	0,28
699,343	0,28
699,783	0,28
700,222	0,28
700,661	0,28
701,101	0,28
701,54	0,28
701,979	0,28
702,418	0,28
702,857	0,28
703,297	0,28
703,736	0,28
704,175	0,28
704,614	0,28
705,053	0,28
705,492	0,28
705,931	0,27
706,37	0,27
706,809	0,27
707,248	0,27
707,687	0,27
708,125	0,27
708,564	0,27
709,003	0,27
709,442	0,27
709,88	0,27
710,319	0,27
710,758	0,27
711,196	0,27
711,635	0,27
712,074	0,27
712,512	0,27
712,951	0,27
713,389	0,27
713,828	0,27
714,266	0,27
714,705	0,27
715,143	0,27
715,581	0,27
716,02	0,27
716,458	0,26
716,896	0,26
717,334	0,26
717,773	0,26
718,211	0,26
718,649	0,26
719,087	0,26
719,525	0,26
719,963	0,26
720,401	0,26
720,839	0,26
721,277	0,26
721,715	0,26
722,153	0,26
722,591	0,26
723,029	0,26
723,467	0,26
723,905	0,26
724,342	0,26
724,78	0,26
725,218	0,26
725,656	0,26
726,093	0,26
726,531	0,26
726,969	0,26
727,406	0,26
727,844	0,26
728,281	0,26
728,719	0,26
729,156	0,26
729,594	0,26
730,031	0,26
730,469	0,26
730,906	0,26
731,343	0,26
731,781	0,26
732,218	0,26
732,655	0,26
733,092	0,26
733,53	0,26
733,967	0,26
734,404	0,26
734,841	0,26
735,278	0,26
735,715	0,26
736,152	0,26
736,589	0,25
737,026	0,25
737,463	0,25
737,9	0,25
738,337	0,25
738,774	0,25
739,211	0,25
739,647	0,25
740,084	0,25
740,521	0,25
740,958	0,25
741,394	0,25
741,831	0,25
742,268	0,25
742,704	0,25
743,141	0,25
743,577	0,24
744,014	0,24
744,45	0,24
744,887	0,24
745,323	0,24
745,76	0,24
746,196	0,24
746,632	0,24
747,069	0,24
747,505	0,24
747,941	0,24
748,378	0,24
748,814	0,24
749,25	0,24
749,686	0,24
750,122	0,24
750,558	0,24
750,994	0,24
751,43	0,25
751,866	0,25
752,302	0,25
752,738	0,25
753,174	0,25
753,61	0,25
754,046	0,25
754,482	0,25
754,918	0,25
755,354	0,25
755,789	0,25
756,225	0,25
756,661	0,25
757,096	0,25
757,532	0,25
757,968	0,25
758,403	0,25
758,839	0,25
759,274	0,24
759,71	0,24
760,145	0,24
760,581	0,23
761,016	0,23
761,452	0,23
761,887	0,23
762,322	0,22
762,758	0,22
763,193	0,22
763,628	0,21
764,063	0,21
764,499	0,2
764,934	0,2
765,369	0,19
765,804	0,19
766,239	0,18
766,674	0,18
767,109	0,17
767,544	0,17
767,979	0,16
768,414	0,15
768,849	0,15
769,284	0,14
769,719	0,14
770,154	0,13
770,588	0,13
771,023	0,12
771,458	0,11
771,893	0,1
772,327	0,09
772,762	0,08
773,197	0,08
773,631	0,07
774,066	0,06
774,5	0,06
774,935	0,05
775,369	0,04
775,804	0,03
776,238	0,02
776,673	0,02
777,107	0,01
777,541	0
777,976	-0,01
778,41	-0,01
778,844	-0,02
779,279	-0,02
779,713	-0,02
780,147	-0,03
780,581	-0,03
781,015	-0,04
781,449	-0,05
781,883	-0,06
782,317	-0,07
782,751	-0,08
783,185	-0,09
783,619	-0,1
784,053	-0,11
784,487	-0,12
784,921	-0,13
785,355	-0,14
785,789	-0,14
786,223	-0,16
786,656	-0,17
787,09	-0,18
787,524	-0,19
787,957	-0,2
788,391	-0,22
788,825	-0,23
789,258	-0,24
789,692	-0,25
790,125	-0,27
790,559	-0,28
790,992	-0,29
791,426	-0,31
791,859	-0,33
792,293	-0,36
792,726	-0,37
793,159	-0,39
793,593	-0,41
794,026	-0,43
794,459	-0,46
794,892	-0,49
795,326	-0,52
795,759	-0,56
796,192	-0,61
796,625	-0,65
797,058	-0,68
797,491	-0,72
797,924	-0,76
798,357	-0,81
798,79	-0,86
799,223	-0,9
799,656	-0,96
800,089	-1,01
800,522	-1,05
800,955	-1,09
801,387	-1,15
801,82	-1,21
802,253	-1,27
802,686	-1,35
803,118	-1,41
803,551	-1,46
803,984	-1,5
804,416	-1,55
804,849	-1,6
805,281	-1,76
805,714	-2,14
806,146	-2,52
806,579	-2,76
807,011	-2,9
807,444	-2,99
807,876	-3,07
808,308	-3,1
808,741	-3,13
809,173	-3,18
809,605	-3,2
810,037	-3,27
810,47	-3,17
810,902	-2,97
811,334	-2,82
811,766	-2,66
812,198	-2,4
812,63	-2
813,062	-1,82
813,494	-1,73
813,926	-1,64
814,358	-1,59
814,79	-1,51
815,222	-1,45
815,654	-1,4
816,086	-1,33
816,518	-1,28
816,949	-1,23
817,381	-1,18
817,813	-1,17
818,245	-1,12
818,676	-1,08
819,108	-1,05
819,54	-1,03
819,971	-1,01
820,403	-0,96
820,834	-0,94
821,266	-0,89
821,697	-0,87
822,129	-0,85
822,56	-0,82
822,991	-0,8
823,423	-0,77
823,854	-0,75
824,286	-0,72
824,717	-0,71
825,148	-0,69
825,579	-0,68
826,01	-0,67
826,442	-0,66
826,873	-0,64
827,304	-0,61
827,735	-0,6
828,166	-0,61
828,597	-0,6
829,028	-0,59
829,459	-0,6
829,89	-0,6
830,321	-0,55
830,752	-0,56
831,183	-0,55
831,613	-0,55
832,044	-0,55
832,475	-0,54
832,906	-0,56
833,336	-0,56
833,767	-0,57
834,198	-0,55
834,628	-0,53
835,059	-0,56
835,49	-0,57
835,92	-0,53
836,351	-0,53
836,781	-0,53
837,212	-0,54
837,642	-0,54
838,072	-0,52
838,503	-0,53
838,933	-0,5
839,364	-0,51
839,794	-0,49
840,224	-0,49
840,654	-0,53
841,085	-0,54
841,515	-0,51
841,945	-0,51
842,375	-0,47
842,805	-0,47
843,235	-0,46
843,665	-0,48
844,095	-0,46
844,525	-0,48
844,955	-0,48
845,385	-0,46
845,815	-0,44
846,245	-0,46
846,675	-0,47
847,105	-0,48
847,534	-0,48
847,964	-0,46
848,394	-0,45
848,824	-0,49
849,253	-0,48
849,683	-0,49
850,112	-0,49
850,542	-0,53
850,972	-0,54
851,401	-0,51
851,831	-0,49
852,26	-0,5
852,69	-0,53
853,119	-0,52
853,548	-0,52
853,978	-0,54
854,407	-0,51
854,836	-0,51
855,266	-0,5
855,695	-0,5
856,124	-0,52
856,553	-0,53
856,983	-0,54
857,412	-0,53
857,841	-0,54
858,27	-0,54
858,699	-0,53
859,128	-0,58
859,557	-0,59
859,986	-0,6
860,415	-0,58
860,844	-0,56
861,273	-0,57
861,702	-0,58
862,13	-0,56
862,559	-0,58
862,988	-0,55
863,417	-0,55
863,845	-0,54
864,274	-0,54
864,703	-0,54
865,131	-0,54
865,56	-0,55
865,989	-0,57
866,417	-0,54
866,846	-0,55
867,274	-0,54
867,703	-0,57
868,131	-0,58
868,559	-0,57
868,988	-0,6
869,416	-0,59
869,844	-0,6
870,273	-0,62
870,701	-0,6
871,129	-0,63
871,557	-0,65
871,986	-0,65
872,414	-0,66
872,842	-0,63
873,27	-0,61
873,698	-0,58
874,126	-0,62
874,554	-0,6
874,982	-0,6
875,41	-0,63
875,838	-0,58
876,266	-0,56
876,694	-0,55
877,122	-0,54
877,549	-0,59
877,977	-0,56
878,405	-0,59
878,833	-0,55
879,26	-0,54
879,688	-0,54
880,116	-0,52
880,543	-0,51
880,971	-0,5
881,399	-0,54
881,826	-0,55
882,254	-0,54
882,681	-0,58
883,109	-0,54
883,536	-0,55
883,963	-0,57
884,391	-0,56
884,818	-0,54
885,245	-0,58
885,673	-0,6
886,1	-0,57
886,527	-0,56
886,954	-0,52
887,381	-0,53
887,809	-0,55
888,236	-0,56
888,663	-0,56
889,09	-0,6
889,517	-0,63
889,944	-0,62
890,371	-0,61
890,798	-0,62
891,225	-0,62
891,652	-0,65
892,078	-0,62
892,505	-0,65
892,932	-0,6
893,359	-0,61
893,786	-0,6
894,212	-0,57
894,639	-0,58
895,066	-0,61
895,492	-0,55
895,919	-0,54
896,346	-0,54
896,772	-0,53
897,199	-0,5
897,625	-0,54
898,052	-0,5
898,478	-0,49
898,904	-0,51
899,331	-0,51
899,757	-0,52
900,183	-0,55
900,61	-0,54
901,036	-0,55
901,462	-0,55
901,888	-0,54
902,315	-0,53
902,741	-0,58
903,167	-0,56
903,593	-0,58
904,019	-0,56
904,445	-0,54
904,871	-0,57
905,297	-0,58
905,723	-0,57
906,149	-0,56
906,575	-0,57
907,001	-0,57
907,427	-0,54
907,852	-0,53
908,278	-0,54
908,704	-0,51
909,13	-0,5
909,555	-0,48
909,981	-0,48
910,407	-0,48
910,832	-0,48
911,258	-0,48
911,684	-0,49
912,109	-0,49
912,535	-0,52
912,96	-0,48
913,386	-0,53
913,811	-0,52
914,236	-0,54
914,662	-0,53
915,087	-0,57
915,512	-0,57
915,938	-0,59
916,363	-0,58
916,788	-0,59
917,213	-0,56
917,639	-0,61
918,064	-0,58
918,489	-0,59
918,914	-0,59
919,339	-0,6
919,764	-0,56
920,189	-0,56
920,614	-0,58
921,039	-0,58
921,464	-0,54
921,889	-0,58
922,314	-0,59
922,738	-0,62
923,163	-0,62
923,588	-0,62
924,013	-0,61
924,437	-0,61
924,862	-0,62
925,287	-0,58
925,711	-0,59
926,136	-0,6
926,561	-0,58
926,985	-0,58
927,41	-0,55
927,834	-0,53
928,259	-0,5
928,683	-0,48
929,108	-0,45
929,532	-0,46
929,956	-0,46
930,381	-0,45
930,805	-0,45
931,229	-0,45
931,653	-0,42
932,078	-0,42
932,502	-0,44
932,926	-0,45
933,35	-0,45
933,774	-0,44
934,198	-0,43
934,622	-0,41
935,046	-0,42
935,47	-0,43
935,894	-0,42
936,318	-0,41
936,742	-0,42
937,166	-0,42
937,59	-0,41
938,014	-0,43
938,437	-0,44
938,861	-0,46
939,285	-0,48
939,709	-0,47
940,132	-0,48
940,556	-0,49
940,98	-0,49
941,403	-0,47
941,827	-0,47
942,25	-0,49
942,674	-0,48
943,097	-0,47
943,521	-0,46
943,944	-0,48
944,368	-0,47
944,791	-0,45
945,214	-0,47
945,638	-0,48
946,061	-0,51
946,484	-0,51
946,907	-0,5
947,331	-0,49
947,754	-0,54
948,177	-0,51
948,6	-0,5
949,023	-0,5
949,446	-0,5
949,869	-0,47
950,292	-0,47
950,715	-0,44
951,138	-0,43
951,561	-0,41
951,984	-0,42
952,407	-0,4
952,83	-0,39
953,252	-0,35
953,675	-0,34
954,098	-0,35
954,521	-0,34
954,943	-0,33
955,366	-0,35
955,789	-0,32
956,211	-0,34
956,634	-0,35
957,056	-0,32
957,479	-0,33
957,902	-0,36
958,324	-0,36
958,746	-0,34
959,169	-0,35
959,591	-0,37
960,014	-0,38
960,436	-0,38
960,858	-0,37
961,281	-0,37
961,703	-0,39
962,125	-0,39
962,547	-0,37
962,969	-0,38
963,391	-0,39
963,814	-0,4
964,236	-0,39
964,658	-0,36
965,08	-0,36
965,502	-0,36
965,924	-0,34
966,346	-0,33
966,768	-0,33
967,189	-0,34
967,611	-0,32
968,033	-0,33
968,455	-0,3
968,877	-0,31
969,298	-0,32
969,72	-0,33
970,142	-0,32
970,563	-0,32
970,985	-0,31
971,407	-0,3
971,828	-0,29
972,25	-0,29
972,671	-0,27
973,093	-0,27
973,514	-0,26
973,936	-0,24
974,357	-0,23
974,778	-0,23
975,2	-0,23
975,621	-0,22
976,042	-0,2
976,464	-0,19
976,885	-0,19
977,306	-0,18
977,727	-0,18
978,148	-0,18
978,57	-0,17
978,991	-0,15
979,412	-0,14
979,833	-0,13
980,254	-0,13
980,675	-0,14
981,096	-0,12
981,517	-0,11
981,937	-0,11
982,358	-0,09
982,779	-0,07
983,2	-0,08
983,621	-0,07
984,042	-0,05
984,462	-0,05
984,883	-0,04
985,304	-0,03
985,724	-0,02
986,145	-0,02
986,565	-0,01
986,986	-0,01
987,407	0
987,827	0,01
988,248	0,02
988,668	0,03
989,088	0,04
989,509	0,05
989,929	0,06
990,35	0,07
990,77	0,08
991,19	0,08
991,61	0,09
992,031	0,1
992,451	0,11
992,871	0,11
993,291	0,11
993,711	0,12
994,131	0,12
994,551	0,12
994,971	0,13
995,391	0,13
995,811	0,13
996,231	0,13
996,651	0,14
997,071	0,14
997,491	0,15
997,911	0,15
998,331	0,16
998,75	0,16
999,17	0,16
999,59	0,17
1000,009	0,17
1000,429	0,17
1000,849	0,18
1001,268	0,18
1001,688	0,18
1002,107	0,18
1002,527	0,18
1002,946	0,19
1003,366	0,19
1003,785	0,19
1004,205	0,19
1004,624	0,19
1005,044	0,19
1005,463	0,19
1005,882	0,2
1006,301	0,2
1006,721	0,2
1007,14	0,2
1007,559	0,2
1007,978	0,2
1008,397	0,2
1008,816	0,2
1009,235	0,2
1009,655	0,2
1010,074	0,2
1010,492	0,19
1010,911	0,19
1011,33	0,19
1011,749	0,19
1012,168	0,19
1012,587	0,19
1013,006	0,19
1013,425	0,19
1013,843	0,19
1014,262	0,19
1014,681	0,19
1015,099	0,19
1015,518	0,19
1015,937	0,19
1016,355	0,19
1016,774	0,19
1017,192	0,19
1017,611	0,19
1018,029	0,19
1018,448	0,19
1018,866	0,19
1019,285	0,19
1019,703	0,19
1020,121	0,19
1020,54	0,19
1020,958	0,19
1021,376	0,19
1021,794	0,19
1022,213	0,19
1022,631	0,19
1023,049	0,19
1023,467	0,19
1023,885	0,19
1024,303	0,19
1024,721	0,19
1025,139	0,19
1025,557	0,19
1025,975	0,19
1026,393	0,19
1026,811	0,18
1027,229	0,18
1027,647	0,19
1028,065	0,18
1028,482	0,18
1028,9	0,18
1029,318	0,18
1029,735	0,18
1030,153	0,18
1030,571	0,18
1030,988	0,18
1031,406	0,18
1031,823	0,18
1032,241	0,18
1032,659	0,18
1033,076	0,18
1033,493	0,18
1033,911	0,18
1034,328	0,18
1034,746	0,18
1035,163	0,18
1035,58	0,18
1035,997	0,18
1036,415	0,18
1036,832	0,18
1037,249	0,18
1037,666	0,18
1038,083	0,18
1038,501	0,18
1038,918	0,18
1039,335	0,18
1039,752	0,18
1040,169	0,18
1040,586	0,18
1041,003	0,18
1041,419	0,18
1041,836	0,17
1042,253	0,18
1042,67	0,18
1043,087	0,18
1043,504	0,18
1043,92	0,18
1044,337	0,17
1044,754	0,17
1045,17	0,17
1045,587	0,17
1046,004	0,17
1046,42	0,17
1046,837	0,17
1047,253	0,17
1047,67	0,17
1048,086	0,17
1048,503	0,17
1048,919	0,17
1049,335	0,17
1049,752	0,17
1050,168	0,17
1050,584	0,17
1051,001	0,17
1051,417	0,17
1051,833	0,17
1052,249	0,17
1052,665	0,17
1053,081	0,17
1053,497	0,17
1053,914	0,17
1054,33	0,17
1054,746	0,17
1055,162	0,17
1055,578	0,17
1055,993	0,17
1056,409	0,17
1056,825	0,17
1057,241	0,17
1057,657	0,17
1058,073	0,17
1058,488	0,17
1058,904	0,17
1059,32	0,17
1059,736	0,17
1060,151	0,17
1060,567	0,17
1060,982	0,17
1061,398	0,17
1061,813	0,17
1062,229	0,17
1062,644	0,17
1063,06	0,17
1063,475	0,17
1063,891	0,17
1064,306	0,17
1064,721	0,17
1065,137	0,17
1065,552	0,17
1065,967	0,17
1066,382	0,17
1066,798	0,17
1067,213	0,17
1067,628	0,17
1068,043	0,17
1068,458	0,17
1068,873	0,17
1069,288	0,17
1069,703	0,17
1070,118	0,17
1070,533	0,17
1070,948	0,17
1071,363	0,17
1071,778	0,18
1072,193	0,18
1072,607	0,18
1073,022	0,18
1073,437	0,18
1073,852	0,18
1074,266	0,18
1074,681	0,18
1075,096	0,18
1075,51	0,18
1075,925	0,18
1076,339	0,18
1076,754	0,18
1077,168	0,18
1077,583	0,18
1077,997	0,18
1078,412	0,18
1078,826	0,18
1079,24	0,18
1079,655	0,18
1080,069	0,18
1080,483	0,17
1080,897	0,17
1081,312	0,17
1081,726	0,17
1082,14	0,17
1082,554	0,17
1082,968	0,17
1083,382	0,17
1083,796	0,17
1084,21	0,17
1084,624	0,17
1085,038	0,17
1085,452	0,17
1085,866	0,17
1086,28	0,17
1086,694	0,17
1087,108	0,17
1087,521	0,16
1087,935	0,16
1088,349	0,16
1088,763	0,16
1089,176	0,16
1089,59	0,15
1090,004	0,15
1090,417	0,15
1090,831	0,15
1091,244	0,15
1091,658	0,15
1092,071	0,14
1092,485	0,14
1092,898	0,14
1093,312	0,14
1093,725	0,14
1094,138	0,14
1094,552	0,14
1094,965	0,14
1095,378	0,14
1095,791	0,14
1096,205	0,14
1096,618	0,14
1097,031	0,13
1097,444	0,13
1097,857	0,13
1098,27	0,13
1098,683	0,13
1099,096	0,13
1099,509	0,12
1099,922	0,12
1100,335	0,12
1100,748	0,12
1101,161	0,11
1101,574	0,11
1101,986	0,11
1102,399	0,11
1102,812	0,11
1103,225	0,1
1103,637	0,1
1104,05	0,1
1104,463	0,1
1104,875	0,1
1105,288	0,1
1105,7	0,1
1106,113	0,09
1106,525	0,09
1106,938	0,09
1107,35	0,08
1107,763	0,08
1108,175	0,08
1108,588	0,08
1109	0,08
1109,412	0,07
1109,824	0,07
1110,237	0,07
1110,649	0,07
1111,061	0,06
