Data from 18C-808nm-8A_Absorbance__1062__01062.txt Node

Date: Mon Jul 17 17:00:38 CEST 2023
User: Laser008
Spectrometer: MAYP115816
Trigger mode: 0
Integration Time (sec): 2,500000E-1
Scans to average: 10
Electric dark correction enabled: true
Nonlinearity correction enabled: true
Boxcar width: 5
XAxis mode: Wavelengths
Number of Pixels in Spectrum: 2068
>>>>>Begin Spectral Data<<<<<
198,914	-0,66
199,384	-0,43
199,855	-0,33
200,325	-0,25
200,796	-0,24
201,266	-0,2
201,737	-0,18
202,207	-0,18
202,677	-0,17
203,147	-0,16
203,618	-0,13
204,088	-0,12
204,558	-0,11
205,028	-0,1
205,498	-0,12
205,968	-0,11
206,439	-0,12
206,909	-0,12
207,379	-0,12
207,849	-0,13
208,319	-0,14
208,789	-0,15
209,258	-0,15
209,728	-0,17
210,198	-0,16
210,668	-0,15
211,138	-0,14
211,608	-0,14
212,077	-0,14
212,547	-0,14
213,017	-0,14
213,486	-0,13
213,956	-0,13
214,426	-0,14
214,895	-0,13
215,365	-0,14
215,834	-0,15
216,304	-0,16
216,773	-0,16
217,243	-0,18
217,712	-0,19
218,181	-0,19
218,651	-0,2
219,12	-0,2
219,589	-0,2
220,058	-0,18
220,528	-0,2
220,997	-0,2
221,466	-0,21
221,935	-0,22
222,404	-0,22
222,873	-0,21
223,342	-0,2
223,812	-0,2
224,281	-0,2
224,749	-0,21
225,218	-0,22
225,687	-0,22
226,156	-0,21
226,625	-0,19
227,094	-0,19
227,563	-0,19
228,031	-0,2
228,5	-0,2
228,969	-0,21
229,438	-0,21
229,906	-0,2
230,375	-0,2
230,844	-0,19
231,312	-0,19
231,781	-0,2
232,249	-0,19
232,718	-0,19
233,186	-0,17
233,655	-0,18
234,123	-0,17
234,591	-0,17
235,06	-0,17
235,528	-0,17
235,996	-0,17
236,465	-0,16
236,933	-0,16
237,401	-0,16
237,869	-0,16
238,337	-0,16
238,805	-0,16
239,274	-0,15
239,742	-0,15
240,21	-0,15
240,678	-0,14
241,146	-0,14
241,614	-0,14
242,081	-0,14
242,549	-0,13
243,017	-0,14
243,485	-0,14
243,953	-0,13
244,421	-0,12
244,888	-0,13
245,356	-0,13
245,824	-0,12
246,291	-0,12
246,759	-0,14
247,227	-0,14
247,694	-0,13
248,162	-0,13
248,629	-0,12
249,097	-0,13
249,564	-0,14
250,032	-0,15
250,499	-0,15
250,967	-0,16
251,434	-0,16
251,901	-0,15
252,369	-0,16
252,836	-0,17
253,303	-0,17
253,77	-0,19
254,237	-0,19
254,705	-0,19
255,172	-0,18
255,639	-0,18
256,106	-0,19
256,573	-0,19
257,04	-0,19
257,507	-0,2
257,974	-0,2
258,441	-0,19
258,908	-0,19
259,375	-0,2
259,841	-0,2
260,308	-0,2
260,775	-0,2
261,242	-0,19
261,709	-0,2
262,175	-0,2
262,642	-0,19
263,109	-0,19
263,575	-0,2
264,042	-0,18
264,508	-0,18
264,975	-0,19
265,441	-0,2
265,908	-0,21
266,374	-0,2
266,841	-0,2
267,307	-0,21
267,773	-0,2
268,24	-0,2
268,706	-0,2
269,172	-0,22
269,639	-0,24
270,105	-0,22
270,571	-0,23
271,037	-0,22
271,503	-0,24
271,969	-0,23
272,435	-0,23
272,902	-0,25
273,368	-0,26
273,834	-0,26
274,3	-0,26
274,765	-0,24
275,231	-0,25
275,697	-0,23
276,163	-0,23
276,629	-0,23
277,095	-0,24
277,56	-0,23
278,026	-0,23
278,492	-0,2
278,958	-0,2
279,423	-0,2
279,889	-0,21
280,354	-0,21
280,82	-0,21
281,286	-0,23
281,751	-0,23
282,217	-0,21
282,682	-0,22
283,147	-0,22
283,613	-0,24
284,078	-0,23
284,544	-0,24
285,009	-0,25
285,474	-0,24
285,939	-0,26
286,405	-0,25
286,87	-0,24
287,335	-0,24
287,8	-0,23
288,265	-0,23
288,73	-0,24
289,195	-0,27
289,66	-0,27
290,125	-0,24
290,59	-0,25
291,055	-0,24
291,52	-0,24
291,985	-0,25
292,45	-0,27
292,915	-0,26
293,38	-0,25
293,844	-0,24
294,309	-0,22
294,774	-0,21
295,239	-0,23
295,703	-0,23
296,168	-0,22
296,632	-0,21
297,097	-0,2
297,562	-0,18
298,026	-0,18
298,491	-0,19
298,955	-0,18
299,419	-0,18
299,884	-0,18
300,348	-0,17
300,813	-0,16
301,277	-0,17
301,741	-0,17
302,205	-0,18
302,67	-0,18
303,134	-0,17
303,598	-0,17
304,062	-0,17
304,526	-0,17
304,99	-0,18
305,454	-0,17
305,919	-0,18
306,383	-0,17
306,847	-0,17
307,31	-0,18
307,774	-0,19
308,238	-0,18
308,702	-0,17
309,166	-0,18
309,63	-0,17
310,094	-0,15
310,557	-0,16
311,021	-0,15
311,485	-0,16
311,948	-0,15
312,412	-0,14
312,876	-0,13
313,339	-0,14
313,803	-0,15
314,266	-0,14
314,73	-0,15
315,193	-0,15
315,657	-0,14
316,12	-0,14
316,584	-0,12
317,047	-0,12
317,51	-0,11
317,973	-0,11
318,437	-0,11
318,9	-0,09
319,363	-0,09
319,826	-0,09
320,29	-0,09
320,753	-0,09
321,216	-0,1
321,679	-0,1
322,142	-0,09
322,605	-0,11
323,068	-0,1
323,531	-0,11
323,994	-0,1
324,457	-0,09
324,92	-0,08
325,382	-0,08
325,845	-0,08
326,308	-0,07
326,771	-0,07
327,233	-0,07
327,696	-0,06
328,159	-0,06
328,622	-0,05
329,084	-0,05
329,547	-0,05
330,009	-0,05
330,472	-0,03
330,934	-0,03
331,397	-0,03
331,859	-0,03
332,322	-0,02
332,784	-0,01
333,246	-0,01
333,709	-0,01
334,171	-0,01
334,633	-0,01
335,096	-0,01
335,558	-0,01
336,02	-0,01
336,482	-0,01
336,944	0
337,406	0,01
337,868	0,01
338,331	0,01
338,793	0,02
339,255	0,02
339,717	0,03
340,178	0,04
340,64	0,04
341,102	0,04
341,564	0,06
342,026	0,06
342,488	0,07
342,949	0,08
343,411	0,1
343,873	0,12
344,335	0,15
344,796	0,18
345,258	0,21
345,719	0,24
346,181	0,26
346,643	0,29
347,104	0,31
347,566	0,33
348,027	0,34
348,488	0,35
348,95	0,36
349,411	0,37
349,873	0,38
350,334	0,39
350,795	0,4
351,256	0,41
351,718	0,41
352,179	0,41
352,64	0,41
353,101	0,42
353,562	0,42
354,023	0,42
354,484	0,42
354,945	0,42
355,406	0,42
355,867	0,42
356,328	0,42
356,789	0,42
357,25	0,42
357,711	0,43
358,172	0,43
358,633	0,43
359,093	0,43
359,554	0,43
360,015	0,43
360,476	0,43
360,936	0,43
361,397	0,43
361,858	0,43
362,318	0,43
362,779	0,43
363,239	0,43
363,7	0,43
364,16	0,43
364,621	0,43
365,081	0,43
365,541	0,43
366,002	0,43
366,462	0,43
366,922	0,43
367,383	0,43
367,843	0,43
368,303	0,43
368,763	0,43
369,223	0,43
369,684	0,43
370,144	0,43
370,604	0,43
371,064	0,43
371,524	0,43
371,984	0,43
372,444	0,43
372,904	0,43
373,363	0,43
373,823	0,43
374,283	0,43
374,743	0,43
375,203	0,43
375,663	0,43
376,122	0,43
376,582	0,43
377,042	0,43
377,501	0,43
377,961	0,43
378,42	0,43
378,88	0,43
379,34	0,43
379,799	0,43
380,259	0,43
380,718	0,43
381,177	0,43
381,637	0,43
382,096	0,43
382,555	0,42
383,015	0,42
383,474	0,42
383,933	0,42
384,393	0,42
384,852	0,42
385,311	0,42
385,77	0,42
386,229	0,42
386,688	0,42
387,147	0,42
387,606	0,42
388,065	0,42
388,524	0,42
388,983	0,42
389,442	0,42
389,901	0,42
390,36	0,42
390,819	0,42
391,277	0,42
391,736	0,42
392,195	0,42
392,654	0,42
393,112	0,42
393,571	0,42
394,03	0,42
394,488	0,42
394,947	0,42
395,405	0,42
395,864	0,42
396,322	0,42
396,781	0,42
397,239	0,42
397,698	0,42
398,156	0,42
398,614	0,42
399,073	0,42
399,531	0,42
399,989	0,42
400,447	0,42
400,905	0,42
401,364	0,42
401,822	0,42
402,28	0,42
402,738	0,42
403,196	0,42
403,654	0,42
404,112	0,41
404,57	0,41
405,028	0,41
405,486	0,41
405,944	0,41
406,402	0,41
406,859	0,41
407,317	0,41
407,775	0,41
408,233	0,41
408,691	0,41
409,148	0,41
409,606	0,41
410,064	0,41
410,521	0,41
410,979	0,41
411,436	0,41
411,894	0,41
412,351	0,41
412,809	0,41
413,266	0,41
413,724	0,41
414,181	0,41
414,638	0,41
415,096	0,41
415,553	0,41
416,01	0,41
416,467	0,41
416,925	0,41
417,382	0,41
417,839	0,41
418,296	0,41
418,753	0,41
419,21	0,41
419,667	0,41
420,124	0,41
420,581	0,41
421,038	0,41
421,495	0,41
421,952	0,41
422,409	0,41
422,866	0,41
423,322	0,41
423,779	0,41
424,236	0,41
424,693	0,41
425,149	0,41
425,606	0,41
426,063	0,41
426,519	0,41
426,976	0,41
427,433	0,41
427,889	0,41
428,346	0,41
428,802	0,41
429,258	0,41
429,715	0,41
430,171	0,41
430,628	0,41
431,084	0,41
431,54	0,41
431,997	0,41
432,453	0,41
432,909	0,41
433,365	0,4
433,821	0,4
434,277	0,4
434,734	0,4
435,19	0,4
435,646	0,4
436,102	0,4
436,558	0,4
437,014	0,4
437,47	0,4
437,925	0,4
438,381	0,4
438,837	0,4
439,293	0,4
439,749	0,4
440,205	0,4
440,66	0,4
441,116	0,4
441,572	0,4
442,027	0,4
442,483	0,4
442,939	0,4
443,394	0,4
443,85	0,4
444,305	0,4
444,761	0,4
445,216	0,4
445,672	0,4
446,127	0,4
446,582	0,4
447,038	0,4
447,493	0,4
447,948	0,4
448,403	0,4
448,859	0,4
449,314	0,4
449,769	0,4
450,224	0,4
450,679	0,4
451,134	0,4
451,589	0,4
452,044	0,4
452,499	0,4
452,954	0,41
453,409	0,41
453,864	0,41
454,319	0,41
454,774	0,41
455,229	0,41
455,684	0,41
456,138	0,41
456,593	0,41
457,048	0,41
457,503	0,4
457,957	0,4
458,412	0,4
458,866	0,4
459,321	0,41
459,776	0,41
460,23	0,41
460,685	0,41
461,139	0,41
461,593	0,41
462,048	0,41
462,502	0,41
462,957	0,41
463,411	0,41
463,865	0,41
464,319	0,41
464,774	0,41
465,228	0,41
465,682	0,41
466,136	0,41
466,59	0,41
467,044	0,41
467,499	0,41
467,953	0,41
468,407	0,41
468,861	0,41
469,315	0,42
469,768	0,42
470,222	0,42
470,676	0,42
471,13	0,42
471,584	0,42
472,038	0,42
472,491	0,42
472,945	0,42
473,399	0,42
473,852	0,42
474,306	0,42
474,76	0,42
475,213	0,42
475,667	0,42
476,12	0,42
476,574	0,42
477,027	0,42
477,481	0,42
477,934	0,42
478,388	0,42
478,841	0,42
479,294	0,43
479,748	0,43
480,201	0,43
480,654	0,43
481,107	0,43
481,561	0,43
482,014	0,43
482,467	0,43
482,92	0,43
483,373	0,43
483,826	0,43
484,279	0,43
484,732	0,44
485,185	0,44
485,638	0,44
486,091	0,44
486,544	0,44
486,997	0,44
487,449	0,44
487,902	0,44
488,355	0,44
488,808	0,44
489,26	0,45
489,713	0,45
490,166	0,45
490,618	0,45
491,071	0,45
491,523	0,45
491,976	0,46
492,429	0,46
492,881	0,46
493,333	0,46
493,786	0,46
494,238	0,46
494,691	0,47
495,143	0,47
495,595	0,47
496,048	0,47
496,5	0,47
496,952	0,47
497,404	0,48
497,856	0,48
498,309	0,48
498,761	0,48
499,213	0,49
499,665	0,49
500,117	0,49
500,569	0,49
501,021	0,49
501,473	0,5
501,925	0,5
502,377	0,5
502,828	0,5
503,28	0,51
503,732	0,51
504,184	0,51
504,636	0,51
505,087	0,51
505,539	0,52
505,991	0,52
506,442	0,52
506,894	0,52
507,345	0,52
507,797	0,53
508,249	0,53
508,7	0,53
509,151	0,53
509,603	0,54
510,054	0,54
510,506	0,54
510,957	0,54
511,408	0,54
511,86	0,55
512,311	0,55
512,762	0,55
513,213	0,55
513,665	0,55
514,116	0,56
514,567	0,56
515,018	0,56
515,469	0,56
515,92	0,56
516,371	0,57
516,822	0,57
517,273	0,57
517,724	0,57
518,175	0,57
518,626	0,57
519,076	0,58
519,527	0,58
519,978	0,58
520,429	0,58
520,88	0,58
521,33	0,58
521,781	0,58
522,232	0,59
522,682	0,59
523,133	0,59
523,583	0,59
524,034	0,59
524,484	0,59
524,935	0,59
525,385	0,59
525,836	0,59
526,286	0,59
526,736	0,59
527,187	0,59
527,637	0,59
528,087	0,59
528,538	0,59
528,988	0,59
529,438	0,59
529,888	0,59
530,338	0,59
530,788	0,59
531,238	0,59
531,688	0,59
532,139	0,59
532,589	0,59
533,038	0,59
533,488	0,59
533,938	0,59
534,388	0,59
534,838	0,59
535,288	0,59
535,738	0,58
536,187	0,58
536,637	0,58
537,087	0,58
537,537	0,58
537,986	0,58
538,436	0,57
538,885	0,57
539,335	0,57
539,785	0,57
540,234	0,56
540,684	0,56
541,133	0,56
541,582	0,56
542,032	0,56
542,481	0,55
542,931	0,55
543,38	0,55
543,829	0,54
544,278	0,54
544,728	0,54
545,177	0,54
545,626	0,54
546,075	0,53
546,524	0,53
546,973	0,53
547,422	0,53
547,871	0,53
548,32	0,53
548,769	0,53
549,218	0,53
549,667	0,53
550,116	0,52
550,565	0,52
551,014	0,52
551,463	0,52
551,911	0,52
552,36	0,52
552,809	0,52
553,258	0,51
553,706	0,51
554,155	0,51
554,603	0,51
555,052	0,51
555,501	0,5
555,949	0,5
556,398	0,5
556,846	0,5
557,294	0,5
557,743	0,49
558,191	0,49
558,64	0,49
559,088	0,49
559,536	0,48
559,985	0,48
560,433	0,48
560,881	0,48
561,329	0,48
561,777	0,48
562,225	0,47
562,674	0,47
563,122	0,47
563,57	0,47
564,018	0,47
564,466	0,46
564,914	0,46
565,362	0,46
565,809	0,46
566,257	0,46
566,705	0,45
567,153	0,45
567,601	0,45
568,048	0,45
568,496	0,45
568,944	0,45
569,392	0,44
569,839	0,44
570,287	0,44
570,734	0,44
571,182	0,44
571,63	0,44
572,077	0,43
572,525	0,43
572,972	0,43
573,419	0,43
573,867	0,43
574,314	0,43
574,761	0,42
575,209	0,42
575,656	0,42
576,103	0,42
576,551	0,42
576,998	0,42
577,445	0,42
577,892	0,42
578,339	0,42
578,786	0,41
579,233	0,41
579,68	0,41
580,127	0,41
580,574	0,41
581,021	0,41
581,468	0,41
581,915	0,41
582,362	0,4
582,809	0,4
583,255	0,4
583,702	0,4
584,149	0,4
584,596	0,4
585,042	0,4
585,489	0,39
585,936	0,39
586,382	0,39
586,829	0,39
587,275	0,39
587,722	0,39
588,168	0,39
588,615	0,39
589,061	0,39
589,508	0,39
589,954	0,39
590,4	0,39
590,847	0,39
591,293	0,38
591,739	0,38
592,185	0,38
592,632	0,38
593,078	0,38
593,524	0,38
593,97	0,38
594,416	0,38
594,862	0,38
595,308	0,38
595,754	0,38
596,2	0,38
596,646	0,38
597,092	0,38
597,538	0,38
597,984	0,37
598,43	0,37
598,876	0,37
599,321	0,37
599,767	0,37
600,213	0,37
600,659	0,37
601,104	0,37
601,55	0,37
601,995	0,37
602,441	0,37
602,887	0,37
603,332	0,37
603,778	0,37
604,223	0,37
604,668	0,37
605,114	0,37
605,559	0,37
606,005	0,37
606,45	0,37
606,895	0,37
607,341	0,36
607,786	0,36
608,231	0,36
608,676	0,36
609,121	0,36
609,566	0,35
610,012	0,35
610,457	0,35
610,902	0,34
611,347	0,34
611,792	0,34
612,237	0,34
612,682	0,34
613,127	0,34
613,571	0,34
614,016	0,34
614,461	0,35
614,906	0,35
615,351	0,35
615,795	0,35
616,24	0,35
616,685	0,35
617,129	0,35
617,574	0,35
618,019	0,35
618,463	0,35
618,908	0,35
619,352	0,35
619,797	0,35
620,241	0,35
620,686	0,35
621,13	0,35
621,574	0,35
622,019	0,35
622,463	0,35
622,907	0,35
623,352	0,35
623,796	0,34
624,24	0,34
624,684	0,34
625,128	0,34
625,572	0,34
626,016	0,34
626,461	0,34
626,905	0,34
627,349	0,34
627,793	0,34
628,236	0,34
628,68	0,34
629,124	0,34
629,568	0,34
630,012	0,34
630,456	0,34
630,9	0,34
631,343	0,34
631,787	0,34
632,231	0,34
632,674	0,34
633,118	0,34
633,562	0,34
634,005	0,34
634,449	0,34
634,892	0,34
635,336	0,34
635,779	0,34
636,223	0,34
636,666	0,34
637,109	0,34
637,553	0,34
637,996	0,34
638,439	0,34
638,883	0,34
639,326	0,34
639,769	0,34
640,212	0,34
640,655	0,34
641,099	0,34
641,542	0,34
641,985	0,34
642,428	0,34
642,871	0,34
643,314	0,34
643,757	0,34
644,2	0,34
644,643	0,34
645,085	0,34
645,528	0,34
645,971	0,34
646,414	0,33
646,857	0,33
647,299	0,33
647,742	0,33
648,185	0,33
648,627	0,33
649,07	0,33
649,513	0,33
649,955	0,33
650,398	0,33
650,84	0,33
651,283	0,33
651,725	0,33
652,168	0,33
652,61	0,33
653,052	0,33
653,495	0,33
653,937	0,26
654,379	0,2
654,821	0,21
655,264	0,21
655,706	0,21
656,148	0,21
656,59	0,21
657,032	0,21
657,474	0,21
657,916	0,21
658,358	0,2
658,8	0,26
659,242	0,33
659,684	0,33
660,126	0,33
660,568	0,33
661,01	0,33
661,452	0,33
661,894	0,33
662,335	0,33
662,777	0,33
663,219	0,33
663,661	0,33
664,102	0,33
664,544	0,33
664,985	0,33
665,427	0,33
665,869	0,33
666,31	0,33
666,752	0,33
667,193	0,33
667,634	0,33
668,076	0,33
668,517	0,33
668,959	0,33
669,4	0,33
669,841	0,33
670,282	0,33
670,724	0,32
671,165	0,32
671,606	0,32
672,047	0,32
672,488	0,32
672,929	0,32
673,37	0,32
673,811	0,32
674,252	0,32
674,693	0,32
675,134	0,32
675,575	0,32
676,016	0,32
676,457	0,32
676,898	0,32
677,339	0,32
677,78	0,32
678,22	0,32
678,661	0,32
679,102	0,32
679,542	0,32
679,983	0,32
680,424	0,32
680,864	0,32
681,305	0,32
681,745	0,32
682,186	0,32
682,626	0,32
683,067	0,32
683,507	0,32
683,948	0,32
684,388	0,32
684,828	0,32
685,269	0,32
685,709	0,32
686,149	0,32
686,589	0,32
687,029	0,32
687,47	0,32
687,91	0,31
688,35	0,31
688,79	0,31
689,23	0,31
689,67	0,31
690,11	0,31
690,55	0,31
690,99	0,31
691,43	0,31
691,87	0,31
692,31	0,31
692,749	0,31
693,189	0,31
693,629	0,31
694,069	0,31
694,508	0,31
694,948	0,31
695,388	0,31
695,827	0,31
696,267	0,31
696,706	0,31
697,146	0,31
697,586	0,31
698,025	0,31
698,464	0,32
698,904	0,32
699,343	0,32
699,783	0,32
700,222	0,32
700,661	0,32
701,101	0,31
701,54	0,31
701,979	0,31
702,418	0,31
702,857	0,31
703,297	0,31
703,736	0,31
704,175	0,31
704,614	0,31
705,053	0,31
705,492	0,31
705,931	0,31
706,37	0,31
706,809	0,31
707,248	0,31
707,687	0,3
708,125	0,3
708,564	0,3
709,003	0,3
709,442	0,3
709,88	0,3
710,319	0,3
710,758	0,3
711,196	0,3
711,635	0,3
712,074	0,3
712,512	0,3
712,951	0,3
713,389	0,3
713,828	0,3
714,266	0,3
714,705	0,3
715,143	0,3
715,581	0,3
716,02	0,3
716,458	0,3
716,896	0,3
717,334	0,3
717,773	0,3
718,211	0,3
718,649	0,3
719,087	0,3
719,525	0,3
719,963	0,3
720,401	0,3
720,839	0,3
721,277	0,3
721,715	0,3
722,153	0,3
722,591	0,3
723,029	0,3
723,467	0,3
723,905	0,3
724,342	0,3
724,78	0,3
725,218	0,3
725,656	0,3
726,093	0,3
726,531	0,3
726,969	0,3
727,406	0,3
727,844	0,3
728,281	0,3
728,719	0,3
729,156	0,3
729,594	0,3
730,031	0,3
730,469	0,3
730,906	0,29
731,343	0,29
731,781	0,29
732,218	0,29
732,655	0,29
733,092	0,29
733,53	0,29
733,967	0,29
734,404	0,29
734,841	0,29
735,278	0,29
735,715	0,29
736,152	0,29
736,589	0,29
737,026	0,29
737,463	0,29
737,9	0,29
738,337	0,29
738,774	0,29
739,211	0,29
739,647	0,28
740,084	0,28
740,521	0,28
740,958	0,28
741,394	0,28
741,831	0,28
742,268	0,28
742,704	0,28
743,141	0,28
743,577	0,28
744,014	0,28
744,45	0,28
744,887	0,27
745,323	0,27
745,76	0,27
746,196	0,27
746,632	0,27
747,069	0,27
747,505	0,27
747,941	0,27
748,378	0,27
748,814	0,27
749,25	0,27
749,686	0,27
750,122	0,28
750,558	0,28
750,994	0,28
751,43	0,28
751,866	0,28
752,302	0,28
752,738	0,28
753,174	0,28
753,61	0,28
754,046	0,28
754,482	0,28
754,918	0,28
755,354	0,28
755,789	0,28
756,225	0,28
756,661	0,28
757,096	0,28
757,532	0,28
757,968	0,28
758,403	0,28
758,839	0,28
759,274	0,27
759,71	0,27
760,145	0,27
760,581	0,26
761,016	0,26
761,452	0,26
761,887	0,25
762,322	0,25
762,758	0,25
763,193	0,25
763,628	0,24
764,063	0,24
764,499	0,23
764,934	0,23
765,369	0,22
765,804	0,22
766,239	0,21
766,674	0,21
767,109	0,2
767,544	0,19
767,979	0,18
768,414	0,17
768,849	0,17
769,284	0,16
769,719	0,15
770,154	0,15
770,588	0,14
771,023	0,13
771,458	0,12
771,893	0,12
772,327	0,1
772,762	0,1
773,197	0,09
773,631	0,09
774,066	0,08
774,5	0,07
774,935	0,06
775,369	0,05
775,804	0,04
776,238	0,03
776,673	0,03
777,107	0,02
777,541	0,01
777,976	0,01
778,41	-0
778,844	-0,02
779,279	-0,02
779,713	-0,03
780,147	-0,03
780,581	-0,03
781,015	-0,04
781,449	-0,05
781,883	-0,06
782,317	-0,07
782,751	-0,08
783,185	-0,08
783,619	-0,09
784,053	-0,1
784,487	-0,11
784,921	-0,11
785,355	-0,12
785,789	-0,14
786,223	-0,15
786,656	-0,16
787,09	-0,17
787,524	-0,17
787,957	-0,18
788,391	-0,2
788,825	-0,22
789,258	-0,23
789,692	-0,24
790,125	-0,26
790,559	-0,27
790,992	-0,29
791,426	-0,31
791,859	-0,32
792,293	-0,36
792,726	-0,37
793,159	-0,39
793,593	-0,41
794,026	-0,44
794,459	-0,47
794,892	-0,49
795,326	-0,52
795,759	-0,56
796,192	-0,6
796,625	-0,65
797,058	-0,67
797,491	-0,72
797,924	-0,76
798,357	-0,81
798,79	-0,85
799,223	-0,89
799,656	-0,95
800,089	-1
800,522	-1,04
800,955	-1,09
801,387	-1,14
801,82	-1,2
802,253	-1,26
802,686	-1,34
803,118	-1,4
803,551	-1,45
803,984	-1,49
804,416	-1,53
804,849	-1,58
805,281	-1,74
805,714	-2,09
806,146	-2,5
806,579	-2,74
807,011	-2,89
807,444	-2,98
807,876	-3,06
808,308	-3,1
808,741	-3,13
809,173	-3,18
809,605	-3,2
810,037	-3,27
810,47	-3,18
810,902	-2,98
811,334	-2,83
811,766	-2,68
812,198	-2,44
812,63	-2,03
813,062	-1,83
813,494	-1,73
813,926	-1,64
814,358	-1,59
814,79	-1,51
815,222	-1,45
815,654	-1,4
816,086	-1,33
816,518	-1,28
816,949	-1,23
817,381	-1,18
817,813	-1,17
818,245	-1,12
818,676	-1,08
819,108	-1,05
819,54	-1,03
819,971	-1,01
820,403	-0,96
820,834	-0,94
821,266	-0,9
821,697	-0,87
822,129	-0,86
822,56	-0,83
822,991	-0,8
823,423	-0,78
823,854	-0,77
824,286	-0,74
824,717	-0,73
825,148	-0,71
825,579	-0,7
826,01	-0,69
826,442	-0,68
826,873	-0,66
827,304	-0,63
827,735	-0,62
828,166	-0,62
828,597	-0,62
829,028	-0,61
829,459	-0,62
829,89	-0,61
830,321	-0,56
830,752	-0,56
831,183	-0,55
831,613	-0,55
832,044	-0,55
832,475	-0,54
832,906	-0,55
833,336	-0,56
833,767	-0,56
834,198	-0,55
834,628	-0,54
835,059	-0,57
835,49	-0,58
835,92	-0,56
836,351	-0,56
836,781	-0,56
837,212	-0,57
837,642	-0,58
838,072	-0,56
838,503	-0,56
838,933	-0,54
839,364	-0,54
839,794	-0,52
840,224	-0,51
840,654	-0,55
841,085	-0,55
841,515	-0,52
841,945	-0,53
842,375	-0,48
842,805	-0,47
843,235	-0,45
843,665	-0,47
844,095	-0,45
844,525	-0,47
844,955	-0,48
845,385	-0,45
845,815	-0,43
846,245	-0,45
846,675	-0,46
847,105	-0,47
847,534	-0,48
847,964	-0,46
848,394	-0,45
848,824	-0,48
849,253	-0,48
849,683	-0,48
850,112	-0,5
850,542	-0,53
850,972	-0,53
851,401	-0,5
851,831	-0,49
852,26	-0,5
852,69	-0,53
853,119	-0,52
853,548	-0,52
853,978	-0,52
854,407	-0,5
854,836	-0,49
855,266	-0,49
855,695	-0,5
856,124	-0,52
856,553	-0,53
856,983	-0,54
857,412	-0,54
857,841	-0,55
858,27	-0,55
858,699	-0,56
859,128	-0,59
859,557	-0,61
859,986	-0,62
860,415	-0,59
860,844	-0,57
861,273	-0,57
861,702	-0,58
862,13	-0,56
862,559	-0,58
862,988	-0,56
863,417	-0,54
863,845	-0,53
864,274	-0,54
864,703	-0,54
865,131	-0,55
865,56	-0,55
865,989	-0,58
866,417	-0,55
866,846	-0,56
867,274	-0,55
867,703	-0,57
868,131	-0,59
868,559	-0,59
868,988	-0,61
869,416	-0,6
869,844	-0,61
870,273	-0,64
870,701	-0,63
871,129	-0,66
871,557	-0,68
871,986	-0,68
872,414	-0,69
872,842	-0,66
873,27	-0,64
873,698	-0,6
874,126	-0,64
874,554	-0,61
874,982	-0,62
875,41	-0,64
875,838	-0,59
876,266	-0,56
876,694	-0,57
877,122	-0,56
877,549	-0,61
877,977	-0,58
878,405	-0,61
878,833	-0,57
879,26	-0,56
879,688	-0,56
880,116	-0,55
880,543	-0,53
880,971	-0,52
881,399	-0,55
881,826	-0,55
882,254	-0,54
882,681	-0,57
883,109	-0,54
883,536	-0,56
883,963	-0,58
884,391	-0,55
884,818	-0,53
885,245	-0,57
885,673	-0,59
886,1	-0,56
886,527	-0,56
886,954	-0,53
887,381	-0,54
887,809	-0,56
888,236	-0,57
888,663	-0,58
889,09	-0,61
889,517	-0,64
889,944	-0,63
890,371	-0,62
890,798	-0,64
891,225	-0,64
891,652	-0,67
892,078	-0,63
892,505	-0,66
892,932	-0,61
893,359	-0,62
893,786	-0,62
894,212	-0,59
894,639	-0,61
895,066	-0,63
895,492	-0,57
895,919	-0,56
896,346	-0,56
896,772	-0,56
897,199	-0,53
897,625	-0,56
898,052	-0,52
898,478	-0,5
898,904	-0,51
899,331	-0,5
899,757	-0,52
900,183	-0,54
900,61	-0,53
901,036	-0,54
901,462	-0,54
901,888	-0,54
902,315	-0,53
902,741	-0,59
903,167	-0,58
903,593	-0,61
904,019	-0,6
904,445	-0,57
904,871	-0,6
905,297	-0,62
905,723	-0,61
906,149	-0,6
906,575	-0,6
907,001	-0,6
907,427	-0,57
907,852	-0,56
908,278	-0,57
908,704	-0,55
909,13	-0,54
909,555	-0,53
909,981	-0,52
910,407	-0,52
910,832	-0,52
911,258	-0,53
911,684	-0,53
912,109	-0,54
912,535	-0,55
912,96	-0,51
913,386	-0,55
913,811	-0,54
914,236	-0,57
914,662	-0,55
915,087	-0,58
915,512	-0,57
915,938	-0,59
916,363	-0,58
916,788	-0,59
917,213	-0,56
917,639	-0,61
918,064	-0,59
918,489	-0,59
918,914	-0,59
919,339	-0,61
919,764	-0,59
920,189	-0,59
920,614	-0,61
921,039	-0,61
921,464	-0,57
921,889	-0,61
922,314	-0,62
922,738	-0,64
923,163	-0,66
923,588	-0,65
924,013	-0,64
924,437	-0,64
924,862	-0,65
925,287	-0,6
925,711	-0,61
926,136	-0,63
926,561	-0,6
926,985	-0,59
927,41	-0,57
927,834	-0,54
928,259	-0,52
928,683	-0,5
929,108	-0,48
929,532	-0,49
929,956	-0,48
930,381	-0,47
930,805	-0,47
931,229	-0,47
931,653	-0,45
932,078	-0,45
932,502	-0,47
932,926	-0,48
933,35	-0,48
933,774	-0,46
934,198	-0,44
934,622	-0,43
935,046	-0,43
935,47	-0,44
935,894	-0,44
936,318	-0,43
936,742	-0,43
937,166	-0,43
937,59	-0,42
938,014	-0,44
938,437	-0,45
938,861	-0,48
939,285	-0,49
939,709	-0,48
940,132	-0,48
940,556	-0,49
940,98	-0,49
941,403	-0,47
941,827	-0,48
942,25	-0,49
942,674	-0,48
943,097	-0,47
943,521	-0,47
943,944	-0,48
944,368	-0,48
944,791	-0,46
945,214	-0,48
945,638	-0,49
946,061	-0,52
946,484	-0,53
946,907	-0,51
947,331	-0,5
947,754	-0,54
948,177	-0,52
948,6	-0,52
949,023	-0,51
949,446	-0,52
949,869	-0,5
950,292	-0,49
950,715	-0,46
951,138	-0,44
951,561	-0,42
951,984	-0,44
952,407	-0,42
952,83	-0,4
953,252	-0,36
953,675	-0,36
954,098	-0,38
954,521	-0,35
954,943	-0,35
955,366	-0,36
955,789	-0,34
956,211	-0,36
956,634	-0,37
957,056	-0,34
957,479	-0,35
957,902	-0,36
958,324	-0,36
958,746	-0,34
959,169	-0,36
959,591	-0,37
960,014	-0,38
960,436	-0,38
960,858	-0,37
961,281	-0,37
961,703	-0,39
962,125	-0,39
962,547	-0,38
962,969	-0,39
963,391	-0,39
963,814	-0,39
964,236	-0,39
964,658	-0,36
965,08	-0,38
965,502	-0,37
965,924	-0,34
966,346	-0,35
966,768	-0,35
967,189	-0,36
967,611	-0,36
968,033	-0,36
968,455	-0,35
968,877	-0,36
969,298	-0,37
969,72	-0,37
970,142	-0,37
970,563	-0,38
970,985	-0,36
971,407	-0,35
971,828	-0,32
972,25	-0,32
972,671	-0,3
973,093	-0,3
973,514	-0,28
973,936	-0,26
974,357	-0,24
974,778	-0,24
975,2	-0,23
975,621	-0,23
976,042	-0,21
976,464	-0,21
976,885	-0,2
977,306	-0,19
977,727	-0,18
978,148	-0,18
978,57	-0,16
978,991	-0,16
979,412	-0,14
979,833	-0,14
980,254	-0,13
980,675	-0,14
981,096	-0,13
981,517	-0,11
981,937	-0,11
982,358	-0,1
982,779	-0,09
983,2	-0,1
983,621	-0,09
984,042	-0,08
984,462	-0,07
984,883	-0,05
985,304	-0,04
985,724	-0,03
986,145	-0,02
986,565	-0,01
986,986	-0
987,407	0,01
987,827	0,02
988,248	0,04
988,668	0,04
989,088	0,05
989,509	0,06
989,929	0,07
990,35	0,08
990,77	0,09
991,19	0,1
991,61	0,11
992,031	0,12
992,451	0,13
992,871	0,13
993,291	0,14
993,711	0,14
994,131	0,14
994,551	0,15
994,971	0,15
995,391	0,15
995,811	0,16
996,231	0,16
996,651	0,17
997,071	0,17
997,491	0,18
997,911	0,18
998,331	0,19
998,75	0,19
999,17	0,2
999,59	0,2
1000,009	0,2
1000,429	0,21
1000,849	0,21
1001,268	0,21
1001,688	0,21
1002,107	0,22
1002,527	0,22
1002,946	0,22
1003,366	0,22
1003,785	0,23
1004,205	0,23
1004,624	0,23
1005,044	0,23
1005,463	0,23
1005,882	0,23
1006,301	0,23
1006,721	0,24
1007,14	0,24
1007,559	0,24
1007,978	0,24
1008,397	0,24
1008,816	0,24
1009,235	0,23
1009,655	0,23
1010,074	0,23
1010,492	0,23
1010,911	0,23
1011,33	0,23
1011,749	0,23
1012,168	0,23
1012,587	0,22
1013,006	0,22
1013,425	0,22
1013,843	0,22
1014,262	0,22
1014,681	0,22
1015,099	0,22
1015,518	0,22
1015,937	0,22
1016,355	0,22
1016,774	0,22
1017,192	0,22
1017,611	0,22
1018,029	0,22
1018,448	0,23
1018,866	0,23
1019,285	0,23
1019,703	0,23
1020,121	0,23
1020,54	0,23
1020,958	0,23
1021,376	0,23
1021,794	0,23
1022,213	0,23
1022,631	0,23
1023,049	0,23
1023,467	0,23
1023,885	0,23
1024,303	0,23
1024,721	0,23
1025,139	0,23
1025,557	0,22
1025,975	0,22
1026,393	0,22
1026,811	0,22
1027,229	0,22
1027,647	0,22
1028,065	0,22
1028,482	0,22
1028,9	0,22
1029,318	0,22
1029,735	0,22
1030,153	0,22
1030,571	0,22
1030,988	0,22
1031,406	0,22
1031,823	0,22
1032,241	0,22
1032,659	0,22
1033,076	0,22
1033,493	0,22
1033,911	0,22
1034,328	0,22
1034,746	0,22
1035,163	0,22
1035,58	0,22
1035,997	0,22
1036,415	0,22
1036,832	0,22
1037,249	0,22
1037,666	0,22
1038,083	0,22
1038,501	0,22
1038,918	0,21
1039,335	0,21
1039,752	0,21
1040,169	0,21
1040,586	0,21
1041,003	0,21
1041,419	0,21
1041,836	0,21
1042,253	0,21
1042,67	0,21
1043,087	0,21
1043,504	0,21
1043,92	0,21
1044,337	0,21
1044,754	0,21
1045,17	0,21
1045,587	0,21
1046,004	0,21
1046,42	0,21
1046,837	0,2
1047,253	0,2
1047,67	0,2
1048,086	0,2
1048,503	0,2
1048,919	0,2
1049,335	0,2
1049,752	0,2
1050,168	0,2
1050,584	0,2
1051,001	0,2
1051,417	0,2
1051,833	0,2
1052,249	0,2
1052,665	0,2
1053,081	0,2
1053,497	0,21
1053,914	0,21
1054,33	0,21
1054,746	0,21
1055,162	0,21
1055,578	0,21
1055,993	0,21
1056,409	0,21
1056,825	0,21
1057,241	0,21
1057,657	0,21
1058,073	0,21
1058,488	0,21
1058,904	0,21
1059,32	0,21
1059,736	0,21
1060,151	0,21
1060,567	0,21
1060,982	0,21
1061,398	0,21
1061,813	0,21
1062,229	0,21
1062,644	0,21
1063,06	0,21
1063,475	0,21
1063,891	0,21
1064,306	0,21
1064,721	0,21
1065,137	0,21
1065,552	0,21
1065,967	0,21
1066,382	0,21
1066,798	0,21
1067,213	0,21
1067,628	0,21
1068,043	0,21
1068,458	0,21
1068,873	0,21
1069,288	0,21
1069,703	0,21
1070,118	0,21
1070,533	0,21
1070,948	0,21
1071,363	0,22
1071,778	0,22
1072,193	0,22
1072,607	0,22
1073,022	0,22
1073,437	0,22
1073,852	0,22
1074,266	0,22
1074,681	0,22
1075,096	0,22
1075,51	0,22
1075,925	0,22
1076,339	0,22
1076,754	0,22
1077,168	0,22
1077,583	0,22
1077,997	0,22
1078,412	0,21
1078,826	0,21
1079,24	0,21
1079,655	0,21
1080,069	0,21
1080,483	0,21
1080,897	0,21
1081,312	0,21
1081,726	0,21
1082,14	0,21
1082,554	0,21
1082,968	0,21
1083,382	0,21
1083,796	0,2
1084,21	0,2
1084,624	0,2
1085,038	0,2
1085,452	0,2
1085,866	0,2
1086,28	0,2
1086,694	0,2
1087,108	0,2
1087,521	0,19
1087,935	0,19
1088,349	0,19
1088,763	0,19
1089,176	0,19
1089,59	0,19
1090,004	0,19
1090,417	0,19
1090,831	0,18
1091,244	0,18
1091,658	0,18
1092,071	0,18
1092,485	0,18
1092,898	0,18
1093,312	0,17
1093,725	0,17
1094,138	0,17
1094,552	0,17
1094,965	0,17
1095,378	0,17
1095,791	0,17
1096,205	0,17
1096,618	0,17
1097,031	0,16
1097,444	0,16
1097,857	0,16
1098,27	0,16
1098,683	0,16
1099,096	0,16
1099,509	0,16
1099,922	0,16
1100,335	0,15
1100,748	0,15
1101,161	0,15
1101,574	0,15
1101,986	0,14
1102,399	0,14
1102,812	0,14
1103,225	0,13
1103,637	0,13
1104,05	0,13
1104,463	0,13
1104,875	0,12
1105,288	0,12
1105,7	0,12
1106,113	0,11
1106,525	0,11
1106,938	0,11
1107,35	0,1
1107,763	0,1
1108,175	0,1
1108,588	0,1
1109	0,09
1109,412	0,09
1109,824	0,09
1110,237	0,08
1110,649	0,09
1111,061	0,09
