Data from 18C-808nm-8A_Absorbance__973__00973.txt Node

Date: Mon Jul 17 16:56:56 CEST 2023
User: Laser008
Spectrometer: MAYP115816
Trigger mode: 0
Integration Time (sec): 2,500000E-1
Scans to average: 10
Electric dark correction enabled: true
Nonlinearity correction enabled: true
Boxcar width: 5
XAxis mode: Wavelengths
Number of Pixels in Spectrum: 2068
>>>>>Begin Spectral Data<<<<<
198,914	-0,63
199,384	-0,41
199,855	-0,28
200,325	-0,23
200,796	-0,23
201,266	-0,19
201,737	-0,18
202,207	-0,18
202,677	-0,17
203,147	-0,15
203,618	-0,13
204,088	-0,12
204,558	-0,11
205,028	-0,11
205,498	-0,12
205,968	-0,11
206,439	-0,12
206,909	-0,11
207,379	-0,11
207,849	-0,11
208,319	-0,12
208,789	-0,13
209,258	-0,12
209,728	-0,14
210,198	-0,14
210,668	-0,14
211,138	-0,13
211,608	-0,14
212,077	-0,14
212,547	-0,14
213,017	-0,14
213,486	-0,14
213,956	-0,15
214,426	-0,16
214,895	-0,15
215,365	-0,15
215,834	-0,16
216,304	-0,17
216,773	-0,17
217,243	-0,18
217,712	-0,19
218,181	-0,19
218,651	-0,19
219,12	-0,18
219,589	-0,19
220,058	-0,18
220,528	-0,19
220,997	-0,19
221,466	-0,19
221,935	-0,19
222,404	-0,18
222,873	-0,17
223,342	-0,17
223,812	-0,17
224,281	-0,17
224,749	-0,17
225,218	-0,18
225,687	-0,18
226,156	-0,17
226,625	-0,16
227,094	-0,17
227,563	-0,17
228,031	-0,19
228,5	-0,18
228,969	-0,19
229,438	-0,19
229,906	-0,18
230,375	-0,17
230,844	-0,17
231,312	-0,18
231,781	-0,19
232,249	-0,17
232,718	-0,18
233,186	-0,17
233,655	-0,18
234,123	-0,17
234,591	-0,17
235,06	-0,18
235,528	-0,18
235,996	-0,18
236,465	-0,17
236,933	-0,17
237,401	-0,17
237,869	-0,16
238,337	-0,15
238,805	-0,15
239,274	-0,14
239,742	-0,13
240,21	-0,13
240,678	-0,12
241,146	-0,11
241,614	-0,12
242,081	-0,11
242,549	-0,11
243,017	-0,12
243,485	-0,12
243,953	-0,12
244,421	-0,12
244,888	-0,12
245,356	-0,13
245,824	-0,13
246,291	-0,13
246,759	-0,14
247,227	-0,14
247,694	-0,14
248,162	-0,13
248,629	-0,13
249,097	-0,13
249,564	-0,14
250,032	-0,14
250,499	-0,14
250,967	-0,14
251,434	-0,14
251,901	-0,14
252,369	-0,14
252,836	-0,15
253,303	-0,15
253,77	-0,17
254,237	-0,16
254,705	-0,16
255,172	-0,15
255,639	-0,16
256,106	-0,18
256,573	-0,18
257,04	-0,18
257,507	-0,18
257,974	-0,18
258,441	-0,16
258,908	-0,16
259,375	-0,17
259,841	-0,18
260,308	-0,18
260,775	-0,17
261,242	-0,16
261,709	-0,16
262,175	-0,17
262,642	-0,17
263,109	-0,16
263,575	-0,18
264,042	-0,16
264,508	-0,17
264,975	-0,19
265,441	-0,19
265,908	-0,2
266,374	-0,2
266,841	-0,2
267,307	-0,2
267,773	-0,19
268,24	-0,2
268,706	-0,2
269,172	-0,21
269,639	-0,22
270,105	-0,2
270,571	-0,21
271,037	-0,21
271,503	-0,22
271,969	-0,21
272,435	-0,21
272,902	-0,23
273,368	-0,24
273,834	-0,23
274,3	-0,23
274,765	-0,23
275,231	-0,23
275,697	-0,22
276,163	-0,21
276,629	-0,2
277,095	-0,21
277,56	-0,21
278,026	-0,21
278,492	-0,19
278,958	-0,19
279,423	-0,19
279,889	-0,19
280,354	-0,19
280,82	-0,19
281,286	-0,2
281,751	-0,21
282,217	-0,21
282,682	-0,2
283,147	-0,21
283,613	-0,21
284,078	-0,21
284,544	-0,22
285,009	-0,22
285,474	-0,23
285,939	-0,24
286,405	-0,23
286,87	-0,23
287,335	-0,22
287,8	-0,22
288,265	-0,21
288,73	-0,23
289,195	-0,25
289,66	-0,24
290,125	-0,22
290,59	-0,22
291,055	-0,2
291,52	-0,21
291,985	-0,22
292,45	-0,23
292,915	-0,22
293,38	-0,23
293,844	-0,21
294,309	-0,2
294,774	-0,19
295,239	-0,21
295,703	-0,21
296,168	-0,21
296,632	-0,2
297,097	-0,19
297,562	-0,17
298,026	-0,18
298,491	-0,18
298,955	-0,18
299,419	-0,17
299,884	-0,17
300,348	-0,16
300,813	-0,15
301,277	-0,16
301,741	-0,16
302,205	-0,16
302,67	-0,15
303,134	-0,15
303,598	-0,15
304,062	-0,15
304,526	-0,14
304,99	-0,16
305,454	-0,15
305,919	-0,15
306,383	-0,15
306,847	-0,14
307,31	-0,15
307,774	-0,16
308,238	-0,15
308,702	-0,15
309,166	-0,16
309,63	-0,16
310,094	-0,13
310,557	-0,13
311,021	-0,13
311,485	-0,13
311,948	-0,12
312,412	-0,11
312,876	-0,11
313,339	-0,11
313,803	-0,12
314,266	-0,12
314,73	-0,12
315,193	-0,13
315,657	-0,12
316,12	-0,12
316,584	-0,12
317,047	-0,12
317,51	-0,11
317,973	-0,11
318,437	-0,1
318,9	-0,09
319,363	-0,08
319,826	-0,08
320,29	-0,08
320,753	-0,08
321,216	-0,08
321,679	-0,08
322,142	-0,07
322,605	-0,08
323,068	-0,08
323,531	-0,09
323,994	-0,09
324,457	-0,09
324,92	-0,08
325,382	-0,08
325,845	-0,08
326,308	-0,06
326,771	-0,07
327,233	-0,06
327,696	-0,06
328,159	-0,04
328,622	-0,03
329,084	-0,03
329,547	-0,03
330,009	-0,03
330,472	-0,01
330,934	-0,01
331,397	-0,01
331,859	-0
332,322	-0
332,784	0
333,246	0,01
333,709	0,01
334,171	0,01
334,633	0,02
335,096	0,02
335,558	0,02
336,02	0,02
336,482	0,02
336,944	0,02
337,406	0,03
337,868	0,03
338,331	0,03
338,793	0,03
339,255	0,03
339,717	0,04
340,178	0,04
340,64	0,05
341,102	0,06
341,564	0,06
342,026	0,07
342,488	0,08
342,949	0,09
343,411	0,11
343,873	0,12
344,335	0,14
344,796	0,17
345,258	0,19
345,719	0,22
346,181	0,24
346,643	0,26
347,104	0,28
347,566	0,29
348,027	0,31
348,488	0,31
348,95	0,32
349,411	0,33
349,873	0,34
350,334	0,35
350,795	0,36
351,256	0,36
351,718	0,37
352,179	0,37
352,64	0,37
353,101	0,37
353,562	0,37
354,023	0,37
354,484	0,37
354,945	0,38
355,406	0,38
355,867	0,38
356,328	0,38
356,789	0,38
357,25	0,38
357,711	0,38
358,172	0,38
358,633	0,38
359,093	0,38
359,554	0,38
360,015	0,38
360,476	0,38
360,936	0,38
361,397	0,38
361,858	0,39
362,318	0,39
362,779	0,39
363,239	0,39
363,7	0,39
364,16	0,39
364,621	0,39
365,081	0,39
365,541	0,39
366,002	0,39
366,462	0,39
366,922	0,39
367,383	0,38
367,843	0,38
368,303	0,38
368,763	0,38
369,223	0,38
369,684	0,38
370,144	0,38
370,604	0,39
371,064	0,39
371,524	0,39
371,984	0,39
372,444	0,38
372,904	0,38
373,363	0,38
373,823	0,38
374,283	0,38
374,743	0,38
375,203	0,38
375,663	0,38
376,122	0,38
376,582	0,38
377,042	0,38
377,501	0,38
377,961	0,38
378,42	0,38
378,88	0,38
379,34	0,38
379,799	0,38
380,259	0,38
380,718	0,38
381,177	0,38
381,637	0,38
382,096	0,38
382,555	0,38
383,015	0,38
383,474	0,38
383,933	0,38
384,393	0,38
384,852	0,38
385,311	0,38
385,77	0,38
386,229	0,38
386,688	0,38
387,147	0,38
387,606	0,38
388,065	0,38
388,524	0,38
388,983	0,38
389,442	0,37
389,901	0,37
390,36	0,37
390,819	0,37
391,277	0,37
391,736	0,37
392,195	0,37
392,654	0,37
393,112	0,37
393,571	0,37
394,03	0,37
394,488	0,37
394,947	0,37
395,405	0,37
395,864	0,37
396,322	0,37
396,781	0,37
397,239	0,37
397,698	0,37
398,156	0,37
398,614	0,37
399,073	0,37
399,531	0,37
399,989	0,37
400,447	0,37
400,905	0,37
401,364	0,37
401,822	0,37
402,28	0,37
402,738	0,37
403,196	0,37
403,654	0,37
404,112	0,37
404,57	0,37
405,028	0,37
405,486	0,37
405,944	0,37
406,402	0,37
406,859	0,37
407,317	0,37
407,775	0,37
408,233	0,37
408,691	0,37
409,148	0,37
409,606	0,37
410,064	0,37
410,521	0,37
410,979	0,37
411,436	0,37
411,894	0,37
412,351	0,37
412,809	0,36
413,266	0,36
413,724	0,36
414,181	0,36
414,638	0,36
415,096	0,36
415,553	0,36
416,01	0,36
416,467	0,36
416,925	0,36
417,382	0,36
417,839	0,36
418,296	0,36
418,753	0,36
419,21	0,36
419,667	0,36
420,124	0,36
420,581	0,36
421,038	0,36
421,495	0,36
421,952	0,36
422,409	0,36
422,866	0,36
423,322	0,36
423,779	0,36
424,236	0,36
424,693	0,36
425,149	0,36
425,606	0,36
426,063	0,36
426,519	0,36
426,976	0,36
427,433	0,36
427,889	0,36
428,346	0,36
428,802	0,36
429,258	0,36
429,715	0,36
430,171	0,36
430,628	0,36
431,084	0,36
431,54	0,36
431,997	0,36
432,453	0,36
432,909	0,36
433,365	0,36
433,821	0,36
434,277	0,36
434,734	0,36
435,19	0,36
435,646	0,36
436,102	0,36
436,558	0,36
437,014	0,36
437,47	0,36
437,925	0,36
438,381	0,36
438,837	0,36
439,293	0,36
439,749	0,36
440,205	0,36
440,66	0,36
441,116	0,36
441,572	0,36
442,027	0,36
442,483	0,36
442,939	0,36
443,394	0,36
443,85	0,36
444,305	0,36
444,761	0,36
445,216	0,36
445,672	0,36
446,127	0,36
446,582	0,36
447,038	0,36
447,493	0,36
447,948	0,36
448,403	0,36
448,859	0,36
449,314	0,36
449,769	0,36
450,224	0,36
450,679	0,36
451,134	0,36
451,589	0,36
452,044	0,36
452,499	0,36
452,954	0,36
453,409	0,36
453,864	0,36
454,319	0,36
454,774	0,36
455,229	0,36
455,684	0,36
456,138	0,36
456,593	0,36
457,048	0,36
457,503	0,36
457,957	0,36
458,412	0,36
458,866	0,36
459,321	0,36
459,776	0,36
460,23	0,36
460,685	0,36
461,139	0,36
461,593	0,36
462,048	0,36
462,502	0,36
462,957	0,36
463,411	0,36
463,865	0,36
464,319	0,36
464,774	0,36
465,228	0,36
465,682	0,36
466,136	0,36
466,59	0,36
467,044	0,36
467,499	0,36
467,953	0,36
468,407	0,37
468,861	0,37
469,315	0,37
469,768	0,37
470,222	0,37
470,676	0,37
471,13	0,37
471,584	0,37
472,038	0,37
472,491	0,37
472,945	0,37
473,399	0,37
473,852	0,37
474,306	0,37
474,76	0,37
475,213	0,37
475,667	0,37
476,12	0,37
476,574	0,37
477,027	0,37
477,481	0,37
477,934	0,37
478,388	0,37
478,841	0,37
479,294	0,38
479,748	0,38
480,201	0,38
480,654	0,38
481,107	0,38
481,561	0,38
482,014	0,38
482,467	0,38
482,92	0,38
483,373	0,38
483,826	0,38
484,279	0,38
484,732	0,38
485,185	0,39
485,638	0,39
486,091	0,39
486,544	0,39
486,997	0,39
487,449	0,39
487,902	0,39
488,355	0,39
488,808	0,39
489,26	0,39
489,713	0,4
490,166	0,4
490,618	0,4
491,071	0,4
491,523	0,4
491,976	0,4
492,429	0,41
492,881	0,41
493,333	0,41
493,786	0,41
494,238	0,41
494,691	0,41
495,143	0,41
495,595	0,42
496,048	0,42
496,5	0,42
496,952	0,42
497,404	0,42
497,856	0,42
498,309	0,43
498,761	0,43
499,213	0,43
499,665	0,43
500,117	0,44
500,569	0,44
501,021	0,44
501,473	0,44
501,925	0,44
502,377	0,45
502,828	0,45
503,28	0,45
503,732	0,45
504,184	0,45
504,636	0,46
505,087	0,46
505,539	0,46
505,991	0,46
506,442	0,46
506,894	0,47
507,345	0,47
507,797	0,47
508,249	0,47
508,7	0,47
509,151	0,48
509,603	0,48
510,054	0,48
510,506	0,48
510,957	0,48
511,408	0,49
511,86	0,49
512,311	0,49
512,762	0,49
513,213	0,49
513,665	0,49
514,116	0,5
514,567	0,5
515,018	0,5
515,469	0,5
515,92	0,5
516,371	0,51
516,822	0,51
517,273	0,51
517,724	0,51
518,175	0,51
518,626	0,51
519,076	0,52
519,527	0,52
519,978	0,52
520,429	0,52
520,88	0,52
521,33	0,52
521,781	0,52
522,232	0,52
522,682	0,52
523,133	0,53
523,583	0,53
524,034	0,53
524,484	0,53
524,935	0,53
525,385	0,53
525,836	0,53
526,286	0,53
526,736	0,53
527,187	0,53
527,637	0,53
528,087	0,53
528,538	0,53
528,988	0,53
529,438	0,53
529,888	0,53
530,338	0,53
530,788	0,53
531,238	0,53
531,688	0,53
532,139	0,53
532,589	0,53
533,038	0,53
533,488	0,53
533,938	0,53
534,388	0,53
534,838	0,53
535,288	0,53
535,738	0,53
536,187	0,52
536,637	0,52
537,087	0,52
537,537	0,52
537,986	0,52
538,436	0,52
538,885	0,51
539,335	0,51
539,785	0,51
540,234	0,51
540,684	0,51
541,133	0,5
541,582	0,5
542,032	0,5
542,481	0,5
542,931	0,49
543,38	0,49
543,829	0,49
544,278	0,49
544,728	0,49
545,177	0,48
545,626	0,48
546,075	0,48
546,524	0,48
546,973	0,48
547,422	0,48
547,871	0,47
548,32	0,47
548,769	0,47
549,218	0,47
549,667	0,47
550,116	0,47
550,565	0,47
551,014	0,47
551,463	0,47
551,911	0,47
552,36	0,46
552,809	0,46
553,258	0,46
553,706	0,46
554,155	0,46
554,603	0,46
555,052	0,45
555,501	0,45
555,949	0,45
556,398	0,45
556,846	0,45
557,294	0,45
557,743	0,44
558,191	0,44
558,64	0,44
559,088	0,44
559,536	0,44
559,985	0,43
560,433	0,43
560,881	0,43
561,329	0,43
561,777	0,43
562,225	0,43
562,674	0,42
563,122	0,42
563,57	0,42
564,018	0,42
564,466	0,42
564,914	0,42
565,362	0,41
565,809	0,41
566,257	0,41
566,705	0,41
567,153	0,41
567,601	0,41
568,048	0,4
568,496	0,4
568,944	0,4
569,392	0,4
569,839	0,4
570,287	0,4
570,734	0,4
571,182	0,39
571,63	0,39
572,077	0,39
572,525	0,39
572,972	0,39
573,419	0,39
573,867	0,39
574,314	0,38
574,761	0,38
575,209	0,38
575,656	0,38
576,103	0,38
576,551	0,38
576,998	0,38
577,445	0,38
577,892	0,38
578,339	0,37
578,786	0,37
579,233	0,37
579,68	0,37
580,127	0,37
580,574	0,37
581,021	0,37
581,468	0,37
581,915	0,37
582,362	0,36
582,809	0,36
583,255	0,36
583,702	0,36
584,149	0,36
584,596	0,36
585,042	0,36
585,489	0,36
585,936	0,35
586,382	0,35
586,829	0,35
587,275	0,35
587,722	0,35
588,168	0,35
588,615	0,35
589,061	0,35
589,508	0,35
589,954	0,35
590,4	0,35
590,847	0,35
591,293	0,35
591,739	0,35
592,185	0,35
592,632	0,35
593,078	0,34
593,524	0,34
593,97	0,34
594,416	0,34
594,862	0,34
595,308	0,34
595,754	0,34
596,2	0,34
596,646	0,34
597,092	0,34
597,538	0,34
597,984	0,34
598,43	0,34
598,876	0,34
599,321	0,34
599,767	0,34
600,213	0,34
600,659	0,33
601,104	0,33
601,55	0,33
601,995	0,33
602,441	0,33
602,887	0,33
603,332	0,33
603,778	0,33
604,223	0,33
604,668	0,33
605,114	0,33
605,559	0,33
606,005	0,33
606,45	0,33
606,895	0,33
607,341	0,33
607,786	0,33
608,231	0,33
608,676	0,32
609,121	0,32
609,566	0,32
610,012	0,31
610,457	0,31
610,902	0,31
611,347	0,31
611,792	0,31
612,237	0,31
612,682	0,31
613,127	0,31
613,571	0,31
614,016	0,31
614,461	0,31
614,906	0,31
615,351	0,31
615,795	0,31
616,24	0,31
616,685	0,31
617,129	0,31
617,574	0,31
618,019	0,31
618,463	0,31
618,908	0,31
619,352	0,31
619,797	0,31
620,241	0,31
620,686	0,31
621,13	0,31
621,574	0,31
622,019	0,31
622,463	0,31
622,907	0,31
623,352	0,31
623,796	0,31
624,24	0,31
624,684	0,31
625,128	0,31
625,572	0,31
626,016	0,31
626,461	0,31
626,905	0,31
627,349	0,31
627,793	0,31
628,236	0,31
628,68	0,31
629,124	0,31
629,568	0,31
630,012	0,31
630,456	0,31
630,9	0,31
631,343	0,31
631,787	0,31
632,231	0,31
632,674	0,31
633,118	0,31
633,562	0,31
634,005	0,31
634,449	0,31
634,892	0,31
635,336	0,31
635,779	0,31
636,223	0,31
636,666	0,31
637,109	0,31
637,553	0,31
637,996	0,31
638,439	0,31
638,883	0,31
639,326	0,31
639,769	0,3
640,212	0,3
640,655	0,3
641,099	0,3
641,542	0,3
641,985	0,3
642,428	0,3
642,871	0,3
643,314	0,3
643,757	0,3
644,2	0,3
644,643	0,3
645,085	0,3
645,528	0,3
645,971	0,3
646,414	0,3
646,857	0,3
647,299	0,3
647,742	0,3
648,185	0,3
648,627	0,3
649,07	0,3
649,513	0,3
649,955	0,3
650,398	0,3
650,84	0,3
651,283	0,3
651,725	0,3
652,168	0,3
652,61	0,3
653,052	0,3
653,495	0,3
653,937	0,23
654,379	0,19
654,821	0,19
655,264	0,19
655,706	0,19
656,148	0,19
656,59	0,19
657,032	0,19
657,474	0,19
657,916	0,19
658,358	0,19
658,8	0,23
659,242	0,3
659,684	0,3
660,126	0,3
660,568	0,3
661,01	0,3
661,452	0,3
661,894	0,3
662,335	0,3
662,777	0,3
663,219	0,3
663,661	0,3
664,102	0,29
664,544	0,29
664,985	0,29
665,427	0,29
665,869	0,29
666,31	0,29
666,752	0,29
667,193	0,29
667,634	0,29
668,076	0,29
668,517	0,29
668,959	0,29
669,4	0,29
669,841	0,29
670,282	0,29
670,724	0,29
671,165	0,29
671,606	0,29
672,047	0,29
672,488	0,29
672,929	0,29
673,37	0,29
673,811	0,29
674,252	0,29
674,693	0,29
675,134	0,29
675,575	0,29
676,016	0,29
676,457	0,29
676,898	0,29
677,339	0,29
677,78	0,29
678,22	0,29
678,661	0,29
679,102	0,29
679,542	0,29
679,983	0,29
680,424	0,29
680,864	0,29
681,305	0,29
681,745	0,29
682,186	0,29
682,626	0,29
683,067	0,29
683,507	0,29
683,948	0,29
684,388	0,29
684,828	0,29
685,269	0,29
685,709	0,29
686,149	0,29
686,589	0,29
687,029	0,29
687,47	0,28
687,91	0,28
688,35	0,28
688,79	0,28
689,23	0,28
689,67	0,28
690,11	0,28
690,55	0,28
690,99	0,28
691,43	0,28
691,87	0,28
692,31	0,28
692,749	0,28
693,189	0,28
693,629	0,28
694,069	0,28
694,508	0,28
694,948	0,28
695,388	0,28
695,827	0,28
696,267	0,28
696,706	0,28
697,146	0,28
697,586	0,28
698,025	0,28
698,464	0,28
698,904	0,28
699,343	0,28
699,783	0,28
700,222	0,28
700,661	0,28
701,101	0,28
701,54	0,28
701,979	0,28
702,418	0,28
702,857	0,28
703,297	0,28
703,736	0,28
704,175	0,28
704,614	0,28
705,053	0,28
705,492	0,28
705,931	0,28
706,37	0,28
706,809	0,28
707,248	0,27
707,687	0,27
708,125	0,27
708,564	0,27
709,003	0,27
709,442	0,27
709,88	0,27
710,319	0,27
710,758	0,27
711,196	0,27
711,635	0,27
712,074	0,27
712,512	0,27
712,951	0,27
713,389	0,27
713,828	0,27
714,266	0,27
714,705	0,27
715,143	0,27
715,581	0,27
716,02	0,27
716,458	0,27
716,896	0,27
717,334	0,27
717,773	0,27
718,211	0,26
718,649	0,26
719,087	0,26
719,525	0,27
719,963	0,27
720,401	0,27
720,839	0,27
721,277	0,27
721,715	0,27
722,153	0,27
722,591	0,27
723,029	0,27
723,467	0,27
723,905	0,27
724,342	0,27
724,78	0,27
725,218	0,27
725,656	0,27
726,093	0,27
726,531	0,27
726,969	0,27
727,406	0,27
727,844	0,27
728,281	0,27
728,719	0,26
729,156	0,26
729,594	0,26
730,031	0,26
730,469	0,26
730,906	0,26
731,343	0,26
731,781	0,26
732,218	0,26
732,655	0,26
733,092	0,26
733,53	0,26
733,967	0,26
734,404	0,26
734,841	0,26
735,278	0,26
735,715	0,26
736,152	0,26
736,589	0,26
737,026	0,26
737,463	0,26
737,9	0,26
738,337	0,26
738,774	0,25
739,211	0,25
739,647	0,25
740,084	0,25
740,521	0,25
740,958	0,25
741,394	0,25
741,831	0,25
742,268	0,25
742,704	0,25
743,141	0,25
743,577	0,25
744,014	0,25
744,45	0,24
744,887	0,24
745,323	0,24
745,76	0,24
746,196	0,24
746,632	0,24
747,069	0,24
747,505	0,24
747,941	0,24
748,378	0,24
748,814	0,24
749,25	0,24
749,686	0,24
750,122	0,25
750,558	0,25
750,994	0,25
751,43	0,25
751,866	0,25
752,302	0,25
752,738	0,25
753,174	0,25
753,61	0,25
754,046	0,25
754,482	0,25
754,918	0,25
755,354	0,25
755,789	0,26
756,225	0,26
756,661	0,25
757,096	0,25
757,532	0,25
757,968	0,25
758,403	0,25
758,839	0,25
759,274	0,25
759,71	0,25
760,145	0,24
760,581	0,24
761,016	0,23
761,452	0,23
761,887	0,23
762,322	0,23
762,758	0,22
763,193	0,22
763,628	0,21
764,063	0,21
764,499	0,2
764,934	0,2
765,369	0,2
765,804	0,19
766,239	0,19
766,674	0,18
767,109	0,18
767,544	0,17
767,979	0,17
768,414	0,16
768,849	0,15
769,284	0,14
769,719	0,14
770,154	0,13
770,588	0,13
771,023	0,12
771,458	0,11
771,893	0,1
772,327	0,09
772,762	0,08
773,197	0,08
773,631	0,07
774,066	0,07
774,5	0,06
774,935	0,05
775,369	0,05
775,804	0,04
776,238	0,03
776,673	0,02
777,107	0,01
777,541	0,01
777,976	-0,01
778,41	-0,01
778,844	-0,02
779,279	-0,02
779,713	-0,03
780,147	-0,04
780,581	-0,04
781,015	-0,06
781,449	-0,07
781,883	-0,07
782,317	-0,08
782,751	-0,09
783,185	-0,09
783,619	-0,1
784,053	-0,11
784,487	-0,11
784,921	-0,12
785,355	-0,13
785,789	-0,14
786,223	-0,15
786,656	-0,16
787,09	-0,17
787,524	-0,18
787,957	-0,19
788,391	-0,2
788,825	-0,22
789,258	-0,23
789,692	-0,24
790,125	-0,26
790,559	-0,27
790,992	-0,29
791,426	-0,31
791,859	-0,32
792,293	-0,35
792,726	-0,37
793,159	-0,39
793,593	-0,41
794,026	-0,43
794,459	-0,46
794,892	-0,49
795,326	-0,52
795,759	-0,56
796,192	-0,61
796,625	-0,65
797,058	-0,68
797,491	-0,72
797,924	-0,76
798,357	-0,81
798,79	-0,86
799,223	-0,9
799,656	-0,96
800,089	-1,01
800,522	-1,05
800,955	-1,1
801,387	-1,15
801,82	-1,21
802,253	-1,27
802,686	-1,35
803,118	-1,41
803,551	-1,46
803,984	-1,51
804,416	-1,55
804,849	-1,6
805,281	-1,79
805,714	-2,18
806,146	-2,54
806,579	-2,77
807,011	-2,91
807,444	-3
807,876	-3,07
808,308	-3,11
808,741	-3,13
809,173	-3,19
809,605	-3,21
810,037	-3,28
810,47	-3,18
810,902	-2,98
811,334	-2,83
811,766	-2,66
812,198	-2,41
812,63	-2,01
813,062	-1,82
813,494	-1,73
813,926	-1,64
814,358	-1,58
814,79	-1,5
815,222	-1,44
815,654	-1,39
816,086	-1,33
816,518	-1,27
816,949	-1,22
817,381	-1,18
817,813	-1,16
818,245	-1,12
818,676	-1,07
819,108	-1,04
819,54	-1,02
819,971	-1
820,403	-0,95
820,834	-0,93
821,266	-0,89
821,697	-0,86
822,129	-0,85
822,56	-0,82
822,991	-0,8
823,423	-0,77
823,854	-0,76
824,286	-0,73
824,717	-0,72
825,148	-0,7
825,579	-0,69
826,01	-0,68
826,442	-0,67
826,873	-0,65
827,304	-0,61
827,735	-0,6
828,166	-0,61
828,597	-0,61
829,028	-0,6
829,459	-0,6
829,89	-0,6
830,321	-0,55
830,752	-0,56
831,183	-0,55
831,613	-0,54
832,044	-0,54
832,475	-0,53
832,906	-0,54
833,336	-0,54
833,767	-0,54
834,198	-0,54
834,628	-0,52
835,059	-0,55
835,49	-0,55
835,92	-0,53
836,351	-0,53
836,781	-0,52
837,212	-0,54
837,642	-0,54
838,072	-0,52
838,503	-0,53
838,933	-0,5
839,364	-0,51
839,794	-0,49
840,224	-0,47
840,654	-0,52
841,085	-0,52
841,515	-0,5
841,945	-0,5
842,375	-0,45
842,805	-0,44
843,235	-0,42
843,665	-0,44
844,095	-0,42
844,525	-0,44
844,955	-0,45
845,385	-0,43
845,815	-0,41
846,245	-0,44
846,675	-0,44
847,105	-0,46
847,534	-0,47
847,964	-0,46
848,394	-0,45
848,824	-0,49
849,253	-0,48
849,683	-0,48
850,112	-0,49
850,542	-0,52
850,972	-0,53
851,401	-0,51
851,831	-0,5
852,26	-0,51
852,69	-0,54
853,119	-0,54
853,548	-0,54
853,978	-0,55
854,407	-0,53
854,836	-0,53
855,266	-0,52
855,695	-0,53
856,124	-0,54
856,553	-0,56
856,983	-0,57
857,412	-0,56
857,841	-0,56
858,27	-0,55
858,699	-0,56
859,128	-0,59
859,557	-0,6
859,986	-0,61
860,415	-0,6
860,844	-0,57
861,273	-0,56
861,702	-0,57
862,13	-0,55
862,559	-0,58
862,988	-0,55
863,417	-0,54
863,845	-0,53
864,274	-0,53
864,703	-0,53
865,131	-0,51
865,56	-0,52
865,989	-0,55
866,417	-0,53
866,846	-0,53
867,274	-0,52
867,703	-0,54
868,131	-0,55
868,559	-0,55
868,988	-0,58
869,416	-0,58
869,844	-0,6
870,273	-0,62
870,701	-0,6
871,129	-0,63
871,557	-0,65
871,986	-0,65
872,414	-0,66
872,842	-0,63
873,27	-0,61
873,698	-0,57
874,126	-0,61
874,554	-0,59
874,982	-0,59
875,41	-0,61
875,838	-0,56
876,266	-0,54
876,694	-0,54
877,122	-0,52
877,549	-0,57
877,977	-0,54
878,405	-0,57
878,833	-0,54
879,26	-0,53
879,688	-0,53
880,116	-0,52
880,543	-0,5
880,971	-0,5
881,399	-0,53
881,826	-0,54
882,254	-0,53
882,681	-0,56
883,109	-0,52
883,536	-0,53
883,963	-0,55
884,391	-0,53
884,818	-0,51
885,245	-0,55
885,673	-0,56
886,1	-0,53
886,527	-0,53
886,954	-0,49
887,381	-0,51
887,809	-0,53
888,236	-0,54
888,663	-0,55
889,09	-0,59
889,517	-0,62
889,944	-0,61
890,371	-0,6
890,798	-0,61
891,225	-0,6
891,652	-0,65
892,078	-0,62
892,505	-0,64
892,932	-0,6
893,359	-0,61
893,786	-0,61
894,212	-0,57
894,639	-0,59
895,066	-0,61
895,492	-0,55
895,919	-0,55
896,346	-0,54
896,772	-0,55
897,199	-0,52
897,625	-0,54
898,052	-0,5
898,478	-0,47
898,904	-0,48
899,331	-0,46
899,757	-0,48
900,183	-0,51
900,61	-0,5
901,036	-0,5
901,462	-0,5
901,888	-0,49
902,315	-0,48
902,741	-0,54
903,167	-0,53
903,593	-0,56
904,019	-0,55
904,445	-0,52
904,871	-0,55
905,297	-0,56
905,723	-0,56
906,149	-0,55
906,575	-0,56
907,001	-0,57
907,427	-0,53
907,852	-0,54
908,278	-0,54
908,704	-0,52
909,13	-0,52
909,555	-0,51
909,981	-0,5
910,407	-0,5
910,832	-0,49
911,258	-0,5
911,684	-0,49
912,109	-0,5
912,535	-0,51
912,96	-0,47
913,386	-0,5
913,811	-0,5
914,236	-0,52
914,662	-0,5
915,087	-0,53
915,512	-0,54
915,938	-0,55
916,363	-0,55
916,788	-0,56
917,213	-0,54
917,639	-0,59
918,064	-0,57
918,489	-0,57
918,914	-0,57
919,339	-0,58
919,764	-0,54
920,189	-0,55
920,614	-0,56
921,039	-0,57
921,464	-0,53
921,889	-0,56
922,314	-0,57
922,738	-0,6
923,163	-0,62
923,588	-0,62
924,013	-0,61
924,437	-0,62
924,862	-0,63
925,287	-0,6
925,711	-0,61
926,136	-0,63
926,561	-0,6
926,985	-0,6
927,41	-0,57
927,834	-0,55
928,259	-0,52
928,683	-0,5
929,108	-0,48
929,532	-0,48
929,956	-0,48
930,381	-0,46
930,805	-0,46
931,229	-0,46
931,653	-0,44
932,078	-0,44
932,502	-0,44
932,926	-0,46
933,35	-0,46
933,774	-0,45
934,198	-0,43
934,622	-0,42
935,046	-0,43
935,47	-0,44
935,894	-0,44
936,318	-0,43
936,742	-0,43
937,166	-0,44
937,59	-0,42
938,014	-0,45
938,437	-0,45
938,861	-0,47
939,285	-0,48
939,709	-0,47
940,132	-0,47
940,556	-0,47
940,98	-0,47
941,403	-0,45
941,827	-0,45
942,25	-0,47
942,674	-0,46
943,097	-0,46
943,521	-0,45
943,944	-0,46
944,368	-0,45
944,791	-0,44
945,214	-0,46
945,638	-0,47
946,061	-0,51
946,484	-0,51
946,907	-0,49
947,331	-0,5
947,754	-0,54
948,177	-0,51
948,6	-0,51
949,023	-0,51
949,446	-0,5
949,869	-0,48
950,292	-0,48
950,715	-0,44
951,138	-0,43
951,561	-0,41
951,984	-0,4
952,407	-0,39
952,83	-0,38
953,252	-0,33
953,675	-0,33
954,098	-0,34
954,521	-0,33
954,943	-0,32
955,366	-0,33
955,789	-0,32
956,211	-0,35
956,634	-0,35
957,056	-0,33
957,479	-0,34
957,902	-0,36
958,324	-0,36
958,746	-0,35
959,169	-0,36
959,591	-0,36
960,014	-0,37
960,436	-0,36
960,858	-0,36
961,281	-0,36
961,703	-0,37
962,125	-0,38
962,547	-0,37
962,969	-0,37
963,391	-0,37
963,814	-0,39
964,236	-0,38
964,658	-0,36
965,08	-0,37
965,502	-0,36
965,924	-0,33
966,346	-0,33
966,768	-0,32
967,189	-0,34
967,611	-0,33
968,033	-0,33
968,455	-0,3
968,877	-0,31
969,298	-0,32
969,72	-0,33
970,142	-0,32
970,563	-0,33
970,985	-0,31
971,407	-0,31
971,828	-0,29
972,25	-0,29
972,671	-0,27
973,093	-0,28
973,514	-0,26
973,936	-0,25
974,357	-0,24
974,778	-0,24
975,2	-0,24
975,621	-0,23
976,042	-0,21
976,464	-0,2
976,885	-0,19
977,306	-0,19
977,727	-0,18
978,148	-0,17
978,57	-0,16
978,991	-0,14
979,412	-0,13
979,833	-0,13
980,254	-0,12
980,675	-0,13
981,096	-0,12
981,517	-0,11
981,937	-0,1
982,358	-0,09
982,779	-0,08
983,2	-0,08
983,621	-0,09
984,042	-0,07
984,462	-0,06
984,883	-0,05
985,304	-0,04
985,724	-0,03
986,145	-0,03
986,565	-0,01
986,986	-0,01
987,407	0
987,827	0,01
988,248	0,02
988,668	0,03
989,088	0,03
989,509	0,04
989,929	0,05
990,35	0,06
990,77	0,07
991,19	0,07
991,61	0,08
992,031	0,09
992,451	0,09
992,871	0,1
993,291	0,11
993,711	0,11
994,131	0,12
994,551	0,12
994,971	0,13
995,391	0,13
995,811	0,14
996,231	0,14
996,651	0,14
997,071	0,15
997,491	0,15
997,911	0,16
998,331	0,16
998,75	0,16
999,17	0,17
999,59	0,17
1000,009	0,17
1000,429	0,18
1000,849	0,18
1001,268	0,18
1001,688	0,18
1002,107	0,19
1002,527	0,19
1002,946	0,19
1003,366	0,19
1003,785	0,2
1004,205	0,2
1004,624	0,2
1005,044	0,2
1005,463	0,2
1005,882	0,2
1006,301	0,2
1006,721	0,2
1007,14	0,2
1007,559	0,2
1007,978	0,2
1008,397	0,2
1008,816	0,2
1009,235	0,2
1009,655	0,2
1010,074	0,2
1010,492	0,2
1010,911	0,2
1011,33	0,19
1011,749	0,19
1012,168	0,19
1012,587	0,19
1013,006	0,19
1013,425	0,19
1013,843	0,19
1014,262	0,19
1014,681	0,19
1015,099	0,19
1015,518	0,19
1015,937	0,19
1016,355	0,19
1016,774	0,19
1017,192	0,19
1017,611	0,19
1018,029	0,19
1018,448	0,19
1018,866	0,19
1019,285	0,19
1019,703	0,19
1020,121	0,19
1020,54	0,2
1020,958	0,2
1021,376	0,2
1021,794	0,2
1022,213	0,2
1022,631	0,2
1023,049	0,19
1023,467	0,19
1023,885	0,19
1024,303	0,19
1024,721	0,19
1025,139	0,19
1025,557	0,19
1025,975	0,19
1026,393	0,19
1026,811	0,19
1027,229	0,19
1027,647	0,19
1028,065	0,19
1028,482	0,19
1028,9	0,19
1029,318	0,19
1029,735	0,19
1030,153	0,19
1030,571	0,18
1030,988	0,19
1031,406	0,19
1031,823	0,19
1032,241	0,19
1032,659	0,19
1033,076	0,19
1033,493	0,19
1033,911	0,19
1034,328	0,19
1034,746	0,19
1035,163	0,19
1035,58	0,19
1035,997	0,19
1036,415	0,19
1036,832	0,18
1037,249	0,18
1037,666	0,18
1038,083	0,18
1038,501	0,18
1038,918	0,18
1039,335	0,18
1039,752	0,18
1040,169	0,18
1040,586	0,18
1041,003	0,18
1041,419	0,18
1041,836	0,18
1042,253	0,18
1042,67	0,18
1043,087	0,18
1043,504	0,18
1043,92	0,18
1044,337	0,18
1044,754	0,18
1045,17	0,18
1045,587	0,17
1046,004	0,17
1046,42	0,17
1046,837	0,17
1047,253	0,17
1047,67	0,17
1048,086	0,17
1048,503	0,17
1048,919	0,17
1049,335	0,17
1049,752	0,17
1050,168	0,17
1050,584	0,17
1051,001	0,17
1051,417	0,17
1051,833	0,17
1052,249	0,17
1052,665	0,17
1053,081	0,17
1053,497	0,17
1053,914	0,17
1054,33	0,17
1054,746	0,18
1055,162	0,18
1055,578	0,18
1055,993	0,18
1056,409	0,18
1056,825	0,18
1057,241	0,18
1057,657	0,18
1058,073	0,18
1058,488	0,18
1058,904	0,18
1059,32	0,18
1059,736	0,18
1060,151	0,18
1060,567	0,18
1060,982	0,18
1061,398	0,18
1061,813	0,18
1062,229	0,18
1062,644	0,18
1063,06	0,18
1063,475	0,17
1063,891	0,17
1064,306	0,17
1064,721	0,17
1065,137	0,17
1065,552	0,17
1065,967	0,17
1066,382	0,17
1066,798	0,17
1067,213	0,17
1067,628	0,17
1068,043	0,17
1068,458	0,17
1068,873	0,18
1069,288	0,18
1069,703	0,18
1070,118	0,18
1070,533	0,18
1070,948	0,18
1071,363	0,18
1071,778	0,18
1072,193	0,18
1072,607	0,18
1073,022	0,18
1073,437	0,18
1073,852	0,18
1074,266	0,18
1074,681	0,19
1075,096	0,19
1075,51	0,19
1075,925	0,19
1076,339	0,19
1076,754	0,18
1077,168	0,18
1077,583	0,18
1077,997	0,18
1078,412	0,18
1078,826	0,18
1079,24	0,18
1079,655	0,18
1080,069	0,18
1080,483	0,18
1080,897	0,18
1081,312	0,18
1081,726	0,18
1082,14	0,18
1082,554	0,17
1082,968	0,17
1083,382	0,17
1083,796	0,17
1084,21	0,17
1084,624	0,17
1085,038	0,17
1085,452	0,17
1085,866	0,17
1086,28	0,17
1086,694	0,17
1087,108	0,17
1087,521	0,17
1087,935	0,17
1088,349	0,16
1088,763	0,16
1089,176	0,16
1089,59	0,16
1090,004	0,16
1090,417	0,16
1090,831	0,16
1091,244	0,15
1091,658	0,15
1092,071	0,15
1092,485	0,15
1092,898	0,15
1093,312	0,15
1093,725	0,15
1094,138	0,15
1094,552	0,15
1094,965	0,14
1095,378	0,14
1095,791	0,14
1096,205	0,14
1096,618	0,14
1097,031	0,14
1097,444	0,14
1097,857	0,14
1098,27	0,13
1098,683	0,13
1099,096	0,13
1099,509	0,13
1099,922	0,13
1100,335	0,12
1100,748	0,12
1101,161	0,12
1101,574	0,11
1101,986	0,11
1102,399	0,11
1102,812	0,11
1103,225	0,1
1103,637	0,1
1104,05	0,1
1104,463	0,1
1104,875	0,1
1105,288	0,1
1105,7	0,1
1106,113	0,09
1106,525	0,09
1106,938	0,09
1107,35	0,08
1107,763	0,09
1108,175	0,08
1108,588	0,08
1109	0,08
1109,412	0,07
1109,824	0,07
1110,237	0,07
1110,649	0,07
1111,061	0,06
