Data from 18C-808nm-8A_Absorbance__1211__01211.txt Node

Date: Mon Jul 17 17:06:51 CEST 2023
User: Laser008
Spectrometer: MAYP115816
Trigger mode: 0
Integration Time (sec): 2,500000E-1
Scans to average: 10
Electric dark correction enabled: true
Nonlinearity correction enabled: true
Boxcar width: 5
XAxis mode: Wavelengths
Number of Pixels in Spectrum: 2068
>>>>>Begin Spectral Data<<<<<
198,914	-0,68
199,384	-0,46
199,855	-0,34
200,325	-0,28
200,796	-0,25
201,266	-0,21
201,737	-0,2
202,207	-0,19
202,677	-0,18
203,147	-0,17
203,618	-0,14
204,088	-0,12
204,558	-0,11
205,028	-0,11
205,498	-0,11
205,968	-0,11
206,439	-0,12
206,909	-0,12
207,379	-0,12
207,849	-0,13
208,319	-0,13
208,789	-0,14
209,258	-0,13
209,728	-0,15
210,198	-0,15
210,668	-0,14
211,138	-0,14
211,608	-0,13
212,077	-0,14
212,547	-0,13
213,017	-0,13
213,486	-0,13
213,956	-0,14
214,426	-0,15
214,895	-0,14
215,365	-0,15
215,834	-0,16
216,304	-0,17
216,773	-0,17
217,243	-0,18
217,712	-0,19
218,181	-0,19
218,651	-0,19
219,12	-0,19
219,589	-0,19
220,058	-0,18
220,528	-0,19
220,997	-0,2
221,466	-0,2
221,935	-0,2
222,404	-0,19
222,873	-0,18
223,342	-0,18
223,812	-0,19
224,281	-0,18
224,749	-0,18
225,218	-0,2
225,687	-0,19
226,156	-0,18
226,625	-0,17
227,094	-0,17
227,563	-0,18
228,031	-0,19
228,5	-0,19
228,969	-0,2
229,438	-0,19
229,906	-0,18
230,375	-0,18
230,844	-0,18
231,312	-0,18
231,781	-0,19
232,249	-0,18
232,718	-0,18
233,186	-0,15
233,655	-0,16
234,123	-0,16
234,591	-0,16
235,06	-0,16
235,528	-0,16
235,996	-0,16
236,465	-0,15
236,933	-0,14
237,401	-0,15
237,869	-0,14
238,337	-0,15
238,805	-0,14
239,274	-0,14
239,742	-0,14
240,21	-0,13
240,678	-0,12
241,146	-0,12
241,614	-0,12
242,081	-0,12
242,549	-0,12
243,017	-0,12
243,485	-0,12
243,953	-0,11
244,421	-0,12
244,888	-0,11
245,356	-0,11
245,824	-0,11
246,291	-0,11
246,759	-0,13
247,227	-0,13
247,694	-0,13
248,162	-0,12
248,629	-0,11
249,097	-0,11
249,564	-0,12
250,032	-0,13
250,499	-0,13
250,967	-0,14
251,434	-0,14
251,901	-0,13
252,369	-0,13
252,836	-0,14
253,303	-0,16
253,77	-0,17
254,237	-0,17
254,705	-0,18
255,172	-0,17
255,639	-0,17
256,106	-0,18
256,573	-0,18
257,04	-0,18
257,507	-0,18
257,974	-0,19
258,441	-0,17
258,908	-0,16
259,375	-0,17
259,841	-0,17
260,308	-0,18
260,775	-0,18
261,242	-0,16
261,709	-0,17
262,175	-0,18
262,642	-0,17
263,109	-0,17
263,575	-0,18
264,042	-0,17
264,508	-0,16
264,975	-0,18
265,441	-0,19
265,908	-0,19
266,374	-0,19
266,841	-0,19
267,307	-0,19
267,773	-0,18
268,24	-0,19
268,706	-0,19
269,172	-0,2
269,639	-0,22
270,105	-0,2
270,571	-0,19
271,037	-0,19
271,503	-0,2
271,969	-0,2
272,435	-0,2
272,902	-0,23
273,368	-0,24
273,834	-0,24
274,3	-0,23
274,765	-0,23
275,231	-0,23
275,697	-0,22
276,163	-0,22
276,629	-0,21
277,095	-0,22
277,56	-0,21
278,026	-0,21
278,492	-0,19
278,958	-0,19
279,423	-0,2
279,889	-0,19
280,354	-0,19
280,82	-0,19
281,286	-0,21
281,751	-0,21
282,217	-0,2
282,682	-0,21
283,147	-0,2
283,613	-0,21
284,078	-0,2
284,544	-0,22
285,009	-0,22
285,474	-0,22
285,939	-0,24
286,405	-0,23
286,87	-0,22
287,335	-0,22
287,8	-0,22
288,265	-0,2
288,73	-0,22
289,195	-0,25
289,66	-0,24
290,125	-0,23
290,59	-0,24
291,055	-0,23
291,52	-0,24
291,985	-0,24
292,45	-0,25
292,915	-0,25
293,38	-0,26
293,844	-0,24
294,309	-0,22
294,774	-0,21
295,239	-0,22
295,703	-0,22
296,168	-0,21
296,632	-0,21
297,097	-0,19
297,562	-0,17
298,026	-0,18
298,491	-0,18
298,955	-0,18
299,419	-0,17
299,884	-0,17
300,348	-0,16
300,813	-0,16
301,277	-0,17
301,741	-0,17
302,205	-0,17
302,67	-0,17
303,134	-0,17
303,598	-0,17
304,062	-0,16
304,526	-0,16
304,99	-0,17
305,454	-0,16
305,919	-0,15
306,383	-0,15
306,847	-0,15
307,31	-0,16
307,774	-0,16
308,238	-0,16
308,702	-0,16
309,166	-0,18
309,63	-0,18
310,094	-0,16
310,557	-0,15
311,021	-0,15
311,485	-0,15
311,948	-0,14
312,412	-0,13
312,876	-0,11
313,339	-0,12
313,803	-0,11
314,266	-0,11
314,73	-0,11
315,193	-0,11
315,657	-0,1
316,12	-0,1
316,584	-0,09
317,047	-0,09
317,51	-0,08
317,973	-0,08
318,437	-0,07
318,9	-0,07
319,363	-0,06
319,826	-0,05
320,29	-0,06
320,753	-0,06
321,216	-0,06
321,679	-0,06
322,142	-0,05
322,605	-0,07
323,068	-0,07
323,531	-0,07
323,994	-0,06
324,457	-0,07
324,92	-0,06
325,382	-0,05
325,845	-0,05
326,308	-0,05
326,771	-0,05
327,233	-0,05
327,696	-0,04
328,159	-0,03
328,622	-0,02
329,084	-0,02
329,547	-0,01
330,009	-0,01
330,472	-0
330,934	0
331,397	0,01
331,859	0,02
332,322	0,02
332,784	0,02
333,246	0,02
333,709	0,02
334,171	0,03
334,633	0,03
335,096	0,02
335,558	0,03
336,02	0,02
336,482	0,02
336,944	0,03
337,406	0,05
337,868	0,05
338,331	0,05
338,793	0,06
339,255	0,06
339,717	0,06
340,178	0,06
340,64	0,07
341,102	0,08
341,564	0,09
342,026	0,1
342,488	0,09
342,949	0,1
343,411	0,12
343,873	0,15
344,335	0,18
344,796	0,21
345,258	0,25
345,719	0,28
346,181	0,31
346,643	0,34
347,104	0,36
347,566	0,38
348,027	0,41
348,488	0,42
348,95	0,43
349,411	0,44
349,873	0,45
350,334	0,46
350,795	0,47
351,256	0,48
351,718	0,49
352,179	0,49
352,64	0,49
353,101	0,49
353,562	0,49
354,023	0,5
354,484	0,5
354,945	0,5
355,406	0,5
355,867	0,5
356,328	0,5
356,789	0,51
357,25	0,51
357,711	0,51
358,172	0,51
358,633	0,51
359,093	0,51
359,554	0,51
360,015	0,51
360,476	0,51
360,936	0,51
361,397	0,52
361,858	0,51
362,318	0,51
362,779	0,51
363,239	0,51
363,7	0,51
364,16	0,51
364,621	0,51
365,081	0,51
365,541	0,51
366,002	0,51
366,462	0,51
366,922	0,51
367,383	0,51
367,843	0,51
368,303	0,51
368,763	0,51
369,223	0,51
369,684	0,51
370,144	0,51
370,604	0,51
371,064	0,51
371,524	0,51
371,984	0,51
372,444	0,51
372,904	0,51
373,363	0,51
373,823	0,51
374,283	0,51
374,743	0,51
375,203	0,51
375,663	0,51
376,122	0,51
376,582	0,51
377,042	0,51
377,501	0,51
377,961	0,51
378,42	0,51
378,88	0,51
379,34	0,51
379,799	0,51
380,259	0,51
380,718	0,51
381,177	0,51
381,637	0,51
382,096	0,51
382,555	0,51
383,015	0,51
383,474	0,5
383,933	0,5
384,393	0,5
384,852	0,5
385,311	0,5
385,77	0,5
386,229	0,5
386,688	0,5
387,147	0,5
387,606	0,5
388,065	0,5
388,524	0,5
388,983	0,5
389,442	0,5
389,901	0,5
390,36	0,5
390,819	0,5
391,277	0,5
391,736	0,5
392,195	0,5
392,654	0,5
393,112	0,5
393,571	0,5
394,03	0,5
394,488	0,5
394,947	0,5
395,405	0,5
395,864	0,5
396,322	0,5
396,781	0,5
397,239	0,5
397,698	0,5
398,156	0,5
398,614	0,5
399,073	0,5
399,531	0,5
399,989	0,5
400,447	0,5
400,905	0,5
401,364	0,5
401,822	0,5
402,28	0,5
402,738	0,5
403,196	0,49
403,654	0,49
404,112	0,49
404,57	0,49
405,028	0,49
405,486	0,49
405,944	0,49
406,402	0,49
406,859	0,49
407,317	0,49
407,775	0,49
408,233	0,49
408,691	0,49
409,148	0,49
409,606	0,49
410,064	0,49
410,521	0,49
410,979	0,49
411,436	0,49
411,894	0,49
412,351	0,49
412,809	0,49
413,266	0,49
413,724	0,49
414,181	0,49
414,638	0,49
415,096	0,49
415,553	0,49
416,01	0,49
416,467	0,49
416,925	0,49
417,382	0,49
417,839	0,49
418,296	0,49
418,753	0,49
419,21	0,49
419,667	0,49
420,124	0,49
420,581	0,49
421,038	0,49
421,495	0,49
421,952	0,49
422,409	0,49
422,866	0,49
423,322	0,49
423,779	0,49
424,236	0,49
424,693	0,49
425,149	0,49
425,606	0,49
426,063	0,49
426,519	0,49
426,976	0,49
427,433	0,49
427,889	0,49
428,346	0,49
428,802	0,49
429,258	0,49
429,715	0,49
430,171	0,49
430,628	0,49
431,084	0,49
431,54	0,49
431,997	0,49
432,453	0,49
432,909	0,48
433,365	0,48
433,821	0,48
434,277	0,48
434,734	0,48
435,19	0,48
435,646	0,48
436,102	0,48
436,558	0,48
437,014	0,48
437,47	0,48
437,925	0,48
438,381	0,48
438,837	0,48
439,293	0,48
439,749	0,48
440,205	0,48
440,66	0,48
441,116	0,48
441,572	0,48
442,027	0,48
442,483	0,48
442,939	0,48
443,394	0,48
443,85	0,48
444,305	0,48
444,761	0,48
445,216	0,48
445,672	0,48
446,127	0,48
446,582	0,48
447,038	0,48
447,493	0,48
447,948	0,48
448,403	0,48
448,859	0,49
449,314	0,49
449,769	0,49
450,224	0,49
450,679	0,49
451,134	0,49
451,589	0,49
452,044	0,49
452,499	0,49
452,954	0,49
453,409	0,49
453,864	0,49
454,319	0,49
454,774	0,49
455,229	0,49
455,684	0,49
456,138	0,49
456,593	0,49
457,048	0,49
457,503	0,49
457,957	0,49
458,412	0,49
458,866	0,49
459,321	0,49
459,776	0,49
460,23	0,49
460,685	0,49
461,139	0,49
461,593	0,49
462,048	0,49
462,502	0,49
462,957	0,49
463,411	0,49
463,865	0,49
464,319	0,49
464,774	0,49
465,228	0,49
465,682	0,49
466,136	0,49
466,59	0,49
467,044	0,5
467,499	0,5
467,953	0,5
468,407	0,5
468,861	0,5
469,315	0,5
469,768	0,5
470,222	0,5
470,676	0,5
471,13	0,5
471,584	0,5
472,038	0,5
472,491	0,5
472,945	0,5
473,399	0,5
473,852	0,5
474,306	0,5
474,76	0,5
475,213	0,5
475,667	0,5
476,12	0,5
476,574	0,5
477,027	0,51
477,481	0,51
477,934	0,51
478,388	0,51
478,841	0,51
479,294	0,51
479,748	0,51
480,201	0,51
480,654	0,51
481,107	0,52
481,561	0,52
482,014	0,52
482,467	0,52
482,92	0,52
483,373	0,52
483,826	0,52
484,279	0,52
484,732	0,52
485,185	0,52
485,638	0,53
486,091	0,53
486,544	0,53
486,997	0,53
487,449	0,53
487,902	0,53
488,355	0,53
488,808	0,54
489,26	0,54
489,713	0,54
490,166	0,54
490,618	0,54
491,071	0,54
491,523	0,55
491,976	0,55
492,429	0,55
492,881	0,55
493,333	0,55
493,786	0,55
494,238	0,56
494,691	0,56
495,143	0,56
495,595	0,56
496,048	0,57
496,5	0,57
496,952	0,57
497,404	0,57
497,856	0,57
498,309	0,58
498,761	0,58
499,213	0,58
499,665	0,58
500,117	0,59
500,569	0,59
501,021	0,59
501,473	0,59
501,925	0,6
502,377	0,6
502,828	0,6
503,28	0,6
503,732	0,61
504,184	0,61
504,636	0,61
505,087	0,61
505,539	0,62
505,991	0,62
506,442	0,62
506,894	0,62
507,345	0,63
507,797	0,63
508,249	0,63
508,7	0,63
509,151	0,64
509,603	0,64
510,054	0,64
510,506	0,65
510,957	0,65
511,408	0,65
511,86	0,65
512,311	0,66
512,762	0,66
513,213	0,66
513,665	0,66
514,116	0,66
514,567	0,67
515,018	0,67
515,469	0,67
515,92	0,67
516,371	0,68
516,822	0,68
517,273	0,68
517,724	0,68
518,175	0,68
518,626	0,68
519,076	0,69
519,527	0,69
519,978	0,69
520,429	0,69
520,88	0,69
521,33	0,69
521,781	0,69
522,232	0,7
522,682	0,7
523,133	0,7
523,583	0,7
524,034	0,7
524,484	0,7
524,935	0,7
525,385	0,7
525,836	0,7
526,286	0,71
526,736	0,71
527,187	0,71
527,637	0,7
528,087	0,7
528,538	0,7
528,988	0,7
529,438	0,7
529,888	0,7
530,338	0,7
530,788	0,7
531,238	0,7
531,688	0,7
532,139	0,7
532,589	0,7
533,038	0,7
533,488	0,7
533,938	0,7
534,388	0,7
534,838	0,7
535,288	0,69
535,738	0,69
536,187	0,69
536,637	0,69
537,087	0,69
537,537	0,68
537,986	0,68
538,436	0,68
538,885	0,68
539,335	0,67
539,785	0,67
540,234	0,67
540,684	0,66
541,133	0,66
541,582	0,66
542,032	0,66
542,481	0,65
542,931	0,65
543,38	0,65
543,829	0,64
544,278	0,64
544,728	0,64
545,177	0,64
545,626	0,63
546,075	0,63
546,524	0,63
546,973	0,63
547,422	0,62
547,871	0,62
548,32	0,62
548,769	0,62
549,218	0,62
549,667	0,62
550,116	0,62
550,565	0,62
551,014	0,61
551,463	0,61
551,911	0,61
552,36	0,61
552,809	0,61
553,258	0,6
553,706	0,6
554,155	0,6
554,603	0,6
555,052	0,59
555,501	0,59
555,949	0,59
556,398	0,59
556,846	0,58
557,294	0,58
557,743	0,58
558,191	0,58
558,64	0,57
559,088	0,57
559,536	0,57
559,985	0,57
560,433	0,56
560,881	0,56
561,329	0,56
561,777	0,56
562,225	0,56
562,674	0,55
563,122	0,55
563,57	0,55
564,018	0,55
564,466	0,54
564,914	0,54
565,362	0,54
565,809	0,54
566,257	0,53
566,705	0,53
567,153	0,53
567,601	0,53
568,048	0,53
568,496	0,52
568,944	0,52
569,392	0,52
569,839	0,52
570,287	0,52
570,734	0,51
571,182	0,51
571,63	0,51
572,077	0,51
572,525	0,5
572,972	0,5
573,419	0,5
573,867	0,5
574,314	0,5
574,761	0,49
575,209	0,49
575,656	0,49
576,103	0,49
576,551	0,49
576,998	0,49
577,445	0,49
577,892	0,48
578,339	0,48
578,786	0,48
579,233	0,48
579,68	0,48
580,127	0,48
580,574	0,48
581,021	0,47
581,468	0,47
581,915	0,47
582,362	0,47
582,809	0,47
583,255	0,47
583,702	0,47
584,149	0,46
584,596	0,46
585,042	0,46
585,489	0,46
585,936	0,46
586,382	0,46
586,829	0,46
587,275	0,46
587,722	0,45
588,168	0,45
588,615	0,45
589,061	0,45
589,508	0,45
589,954	0,45
590,4	0,45
590,847	0,45
591,293	0,45
591,739	0,45
592,185	0,44
592,632	0,44
593,078	0,44
593,524	0,44
593,97	0,44
594,416	0,44
594,862	0,44
595,308	0,44
595,754	0,44
596,2	0,44
596,646	0,44
597,092	0,44
597,538	0,43
597,984	0,43
598,43	0,43
598,876	0,43
599,321	0,43
599,767	0,43
600,213	0,43
600,659	0,43
601,104	0,43
601,55	0,43
601,995	0,43
602,441	0,43
602,887	0,42
603,332	0,42
603,778	0,42
604,223	0,42
604,668	0,42
605,114	0,42
605,559	0,42
606,005	0,42
606,45	0,42
606,895	0,42
607,341	0,42
607,786	0,42
608,231	0,42
608,676	0,42
609,121	0,41
609,566	0,41
610,012	0,4
610,457	0,4
610,902	0,4
611,347	0,4
611,792	0,39
612,237	0,39
612,682	0,39
613,127	0,39
613,571	0,39
614,016	0,4
614,461	0,4
614,906	0,4
615,351	0,4
615,795	0,4
616,24	0,4
616,685	0,4
617,129	0,4
617,574	0,4
618,019	0,4
618,463	0,4
618,908	0,4
619,352	0,4
619,797	0,4
620,241	0,4
620,686	0,4
621,13	0,4
621,574	0,4
622,019	0,4
622,463	0,4
622,907	0,4
623,352	0,4
623,796	0,4
624,24	0,4
624,684	0,4
625,128	0,4
625,572	0,4
626,016	0,4
626,461	0,4
626,905	0,4
627,349	0,4
627,793	0,4
628,236	0,4
628,68	0,4
629,124	0,39
629,568	0,39
630,012	0,39
630,456	0,39
630,9	0,39
631,343	0,39
631,787	0,39
632,231	0,39
632,674	0,39
633,118	0,39
633,562	0,39
634,005	0,39
634,449	0,39
634,892	0,39
635,336	0,39
635,779	0,39
636,223	0,39
636,666	0,39
637,109	0,39
637,553	0,39
637,996	0,39
638,439	0,39
638,883	0,39
639,326	0,39
639,769	0,39
640,212	0,39
640,655	0,39
641,099	0,39
641,542	0,39
641,985	0,39
642,428	0,39
642,871	0,39
643,314	0,39
643,757	0,39
644,2	0,39
644,643	0,39
645,085	0,39
645,528	0,39
645,971	0,39
646,414	0,39
646,857	0,38
647,299	0,38
647,742	0,38
648,185	0,38
648,627	0,38
649,07	0,38
649,513	0,38
649,955	0,38
650,398	0,38
650,84	0,38
651,283	0,38
651,725	0,38
652,168	0,38
652,61	0,38
653,052	0,38
653,495	0,38
653,937	0,3
654,379	0,24
654,821	0,25
655,264	0,25
655,706	0,25
656,148	0,25
656,59	0,25
657,032	0,25
657,474	0,25
657,916	0,25
658,358	0,24
658,8	0,3
659,242	0,38
659,684	0,38
660,126	0,38
660,568	0,38
661,01	0,38
661,452	0,38
661,894	0,38
662,335	0,38
662,777	0,38
663,219	0,38
663,661	0,38
664,102	0,38
664,544	0,38
664,985	0,38
665,427	0,38
665,869	0,38
666,31	0,38
666,752	0,38
667,193	0,38
667,634	0,38
668,076	0,38
668,517	0,38
668,959	0,38
669,4	0,38
669,841	0,38
670,282	0,38
670,724	0,38
671,165	0,38
671,606	0,38
672,047	0,38
672,488	0,37
672,929	0,37
673,37	0,37
673,811	0,37
674,252	0,37
674,693	0,37
675,134	0,37
675,575	0,37
676,016	0,37
676,457	0,37
676,898	0,37
677,339	0,37
677,78	0,37
678,22	0,37
678,661	0,37
679,102	0,37
679,542	0,37
679,983	0,37
680,424	0,37
680,864	0,37
681,305	0,37
681,745	0,37
682,186	0,37
682,626	0,37
683,067	0,37
683,507	0,37
683,948	0,37
684,388	0,37
684,828	0,37
685,269	0,37
685,709	0,37
686,149	0,37
686,589	0,36
687,029	0,36
687,47	0,36
687,91	0,36
688,35	0,36
688,79	0,36
689,23	0,36
689,67	0,36
690,11	0,36
690,55	0,36
690,99	0,36
691,43	0,36
691,87	0,36
692,31	0,36
692,749	0,36
693,189	0,36
693,629	0,36
694,069	0,36
694,508	0,36
694,948	0,36
695,388	0,36
695,827	0,36
696,267	0,36
696,706	0,36
697,146	0,36
697,586	0,36
698,025	0,36
698,464	0,36
698,904	0,36
699,343	0,36
699,783	0,36
700,222	0,36
700,661	0,36
701,101	0,36
701,54	0,36
701,979	0,36
702,418	0,36
702,857	0,36
703,297	0,36
703,736	0,36
704,175	0,36
704,614	0,36
705,053	0,36
705,492	0,36
705,931	0,36
706,37	0,36
706,809	0,35
707,248	0,35
707,687	0,35
708,125	0,35
708,564	0,35
709,003	0,35
709,442	0,35
709,88	0,35
710,319	0,35
710,758	0,35
711,196	0,35
711,635	0,35
712,074	0,35
712,512	0,35
712,951	0,35
713,389	0,35
713,828	0,35
714,266	0,35
714,705	0,35
715,143	0,35
715,581	0,35
716,02	0,35
716,458	0,35
716,896	0,34
717,334	0,34
717,773	0,34
718,211	0,34
718,649	0,34
719,087	0,34
719,525	0,34
719,963	0,34
720,401	0,34
720,839	0,34
721,277	0,34
721,715	0,34
722,153	0,34
722,591	0,34
723,029	0,34
723,467	0,34
723,905	0,34
724,342	0,34
724,78	0,34
725,218	0,34
725,656	0,34
726,093	0,34
726,531	0,34
726,969	0,34
727,406	0,34
727,844	0,34
728,281	0,34
728,719	0,34
729,156	0,34
729,594	0,34
730,031	0,34
730,469	0,34
730,906	0,34
731,343	0,34
731,781	0,34
732,218	0,34
732,655	0,34
733,092	0,34
733,53	0,34
733,967	0,34
734,404	0,34
734,841	0,34
735,278	0,34
735,715	0,34
736,152	0,34
736,589	0,34
737,026	0,34
737,463	0,34
737,9	0,34
738,337	0,34
738,774	0,33
739,211	0,33
739,647	0,33
740,084	0,33
740,521	0,33
740,958	0,33
741,394	0,33
741,831	0,33
742,268	0,33
742,704	0,33
743,141	0,33
743,577	0,33
744,014	0,32
744,45	0,32
744,887	0,32
745,323	0,32
745,76	0,32
746,196	0,32
746,632	0,32
747,069	0,32
747,505	0,32
747,941	0,32
748,378	0,32
748,814	0,32
749,25	0,32
749,686	0,32
750,122	0,32
750,558	0,32
750,994	0,33
751,43	0,33
751,866	0,33
752,302	0,33
752,738	0,33
753,174	0,33
753,61	0,33
754,046	0,33
754,482	0,33
754,918	0,33
755,354	0,33
755,789	0,33
756,225	0,33
756,661	0,33
757,096	0,33
757,532	0,33
757,968	0,32
758,403	0,32
758,839	0,32
759,274	0,32
759,71	0,32
760,145	0,31
760,581	0,31
761,016	0,3
761,452	0,3
761,887	0,3
762,322	0,29
762,758	0,29
763,193	0,29
763,628	0,28
764,063	0,28
764,499	0,27
764,934	0,27
765,369	0,26
765,804	0,25
766,239	0,25
766,674	0,24
767,109	0,24
767,544	0,23
767,979	0,22
768,414	0,21
768,849	0,21
769,284	0,2
769,719	0,19
770,154	0,18
770,588	0,18
771,023	0,17
771,458	0,16
771,893	0,15
772,327	0,13
772,762	0,12
773,197	0,11
773,631	0,1
774,066	0,09
774,5	0,09
774,935	0,08
775,369	0,07
775,804	0,06
776,238	0,05
776,673	0,05
777,107	0,04
777,541	0,04
777,976	0,03
778,41	0,03
778,844	0,02
779,279	0,01
779,713	0,01
780,147	0
780,581	-0,01
781,015	-0,02
781,449	-0,03
781,883	-0,03
782,317	-0,04
782,751	-0,05
783,185	-0,06
783,619	-0,06
784,053	-0,08
784,487	-0,08
784,921	-0,09
785,355	-0,09
785,789	-0,1
786,223	-0,11
786,656	-0,12
787,09	-0,13
787,524	-0,13
787,957	-0,15
788,391	-0,17
788,825	-0,18
789,258	-0,2
789,692	-0,21
790,125	-0,23
790,559	-0,25
790,992	-0,27
791,426	-0,3
791,859	-0,32
792,293	-0,35
792,726	-0,36
793,159	-0,38
793,593	-0,4
794,026	-0,42
794,459	-0,45
794,892	-0,48
795,326	-0,5
795,759	-0,54
796,192	-0,58
796,625	-0,63
797,058	-0,65
797,491	-0,7
797,924	-0,74
798,357	-0,79
798,79	-0,83
799,223	-0,87
799,656	-0,93
800,089	-0,98
800,522	-1,02
800,955	-1,06
801,387	-1,12
801,82	-1,17
802,253	-1,24
802,686	-1,32
803,118	-1,37
803,551	-1,42
803,984	-1,47
804,416	-1,51
804,849	-1,54
805,281	-1,65
805,714	-1,98
806,146	-2,45
806,579	-2,71
807,011	-2,87
807,444	-2,96
807,876	-3,06
808,308	-3,1
808,741	-3,13
809,173	-3,18
809,605	-3,2
810,037	-3,28
810,47	-3,2
810,902	-3
811,334	-2,86
811,766	-2,71
812,198	-2,49
812,63	-2,07
813,062	-1,84
813,494	-1,73
813,926	-1,64
814,358	-1,59
814,79	-1,51
815,222	-1,45
815,654	-1,4
816,086	-1,33
816,518	-1,27
816,949	-1,22
817,381	-1,17
817,813	-1,16
818,245	-1,11
818,676	-1,07
819,108	-1,04
819,54	-1,02
819,971	-1
820,403	-0,95
820,834	-0,94
821,266	-0,89
821,697	-0,87
822,129	-0,86
822,56	-0,83
822,991	-0,81
823,423	-0,78
823,854	-0,77
824,286	-0,74
824,717	-0,73
825,148	-0,71
825,579	-0,7
826,01	-0,69
826,442	-0,68
826,873	-0,65
827,304	-0,62
827,735	-0,61
828,166	-0,61
828,597	-0,6
829,028	-0,6
829,459	-0,61
829,89	-0,6
830,321	-0,56
830,752	-0,57
831,183	-0,56
831,613	-0,55
832,044	-0,55
832,475	-0,54
832,906	-0,55
833,336	-0,56
833,767	-0,56
834,198	-0,55
834,628	-0,53
835,059	-0,55
835,49	-0,55
835,92	-0,53
836,351	-0,53
836,781	-0,54
837,212	-0,55
837,642	-0,55
838,072	-0,53
838,503	-0,54
838,933	-0,52
839,364	-0,53
839,794	-0,52
840,224	-0,52
840,654	-0,56
841,085	-0,56
841,515	-0,53
841,945	-0,53
842,375	-0,49
842,805	-0,47
843,235	-0,46
843,665	-0,48
844,095	-0,46
844,525	-0,48
844,955	-0,46
845,385	-0,45
845,815	-0,43
846,245	-0,45
846,675	-0,46
847,105	-0,48
847,534	-0,48
847,964	-0,47
848,394	-0,45
848,824	-0,49
849,253	-0,49
849,683	-0,49
850,112	-0,5
850,542	-0,53
850,972	-0,55
851,401	-0,52
851,831	-0,5
852,26	-0,51
852,69	-0,54
853,119	-0,53
853,548	-0,53
853,978	-0,53
854,407	-0,51
854,836	-0,51
855,266	-0,5
855,695	-0,51
856,124	-0,53
856,553	-0,53
856,983	-0,55
857,412	-0,54
857,841	-0,55
858,27	-0,55
858,699	-0,56
859,128	-0,59
859,557	-0,6
859,986	-0,61
860,415	-0,58
860,844	-0,56
861,273	-0,56
861,702	-0,58
862,13	-0,57
862,559	-0,58
862,988	-0,56
863,417	-0,55
863,845	-0,54
864,274	-0,55
864,703	-0,54
865,131	-0,55
865,56	-0,56
865,989	-0,59
866,417	-0,56
866,846	-0,56
867,274	-0,55
867,703	-0,57
868,131	-0,58
868,559	-0,59
868,988	-0,59
869,416	-0,59
869,844	-0,59
870,273	-0,62
870,701	-0,59
871,129	-0,62
871,557	-0,65
871,986	-0,65
872,414	-0,67
872,842	-0,64
873,27	-0,62
873,698	-0,6
874,126	-0,63
874,554	-0,62
874,982	-0,62
875,41	-0,65
875,838	-0,6
876,266	-0,57
876,694	-0,58
877,122	-0,56
877,549	-0,61
877,977	-0,58
878,405	-0,61
878,833	-0,58
879,26	-0,56
879,688	-0,56
880,116	-0,54
880,543	-0,53
880,971	-0,53
881,399	-0,56
881,826	-0,57
882,254	-0,56
882,681	-0,6
883,109	-0,55
883,536	-0,56
883,963	-0,58
884,391	-0,56
884,818	-0,55
885,245	-0,59
885,673	-0,59
886,1	-0,56
886,527	-0,56
886,954	-0,52
887,381	-0,53
887,809	-0,55
888,236	-0,56
888,663	-0,55
889,09	-0,6
889,517	-0,61
889,944	-0,6
890,371	-0,59
890,798	-0,59
891,225	-0,59
891,652	-0,63
892,078	-0,61
892,505	-0,63
892,932	-0,58
893,359	-0,6
893,786	-0,59
894,212	-0,57
894,639	-0,59
895,066	-0,61
895,492	-0,56
895,919	-0,56
896,346	-0,56
896,772	-0,55
897,199	-0,53
897,625	-0,55
898,052	-0,52
898,478	-0,51
898,904	-0,53
899,331	-0,52
899,757	-0,54
900,183	-0,56
900,61	-0,54
901,036	-0,54
901,462	-0,54
901,888	-0,54
902,315	-0,53
902,741	-0,59
903,167	-0,56
903,593	-0,59
904,019	-0,57
904,445	-0,54
904,871	-0,57
905,297	-0,58
905,723	-0,57
906,149	-0,56
906,575	-0,57
907,001	-0,57
907,427	-0,54
907,852	-0,54
908,278	-0,55
908,704	-0,53
909,13	-0,52
909,555	-0,52
909,981	-0,52
910,407	-0,52
910,832	-0,52
911,258	-0,53
911,684	-0,53
912,109	-0,53
912,535	-0,54
912,96	-0,5
913,386	-0,54
913,811	-0,53
914,236	-0,55
914,662	-0,53
915,087	-0,56
915,512	-0,56
915,938	-0,57
916,363	-0,56
916,788	-0,57
917,213	-0,55
917,639	-0,6
918,064	-0,58
918,489	-0,59
918,914	-0,59
919,339	-0,61
919,764	-0,58
920,189	-0,59
920,614	-0,62
921,039	-0,62
921,464	-0,59
921,889	-0,62
922,314	-0,62
922,738	-0,65
923,163	-0,66
923,588	-0,65
924,013	-0,64
924,437	-0,64
924,862	-0,65
925,287	-0,6
925,711	-0,61
926,136	-0,63
926,561	-0,61
926,985	-0,6
927,41	-0,57
927,834	-0,55
928,259	-0,53
928,683	-0,52
929,108	-0,49
929,532	-0,5
929,956	-0,5
930,381	-0,49
930,805	-0,48
931,229	-0,47
931,653	-0,46
932,078	-0,45
932,502	-0,46
932,926	-0,46
933,35	-0,45
933,774	-0,45
934,198	-0,42
934,622	-0,41
935,046	-0,41
935,47	-0,42
935,894	-0,41
936,318	-0,41
936,742	-0,41
937,166	-0,42
937,59	-0,42
938,014	-0,44
938,437	-0,45
938,861	-0,47
939,285	-0,49
939,709	-0,48
940,132	-0,48
940,556	-0,49
940,98	-0,49
941,403	-0,48
941,827	-0,48
942,25	-0,5
942,674	-0,48
943,097	-0,47
943,521	-0,47
943,944	-0,48
944,368	-0,47
944,791	-0,46
945,214	-0,48
945,638	-0,48
946,061	-0,51
946,484	-0,52
946,907	-0,5
947,331	-0,51
947,754	-0,55
948,177	-0,53
948,6	-0,53
949,023	-0,52
949,446	-0,53
949,869	-0,51
950,292	-0,51
950,715	-0,48
951,138	-0,46
951,561	-0,43
951,984	-0,43
952,407	-0,41
952,83	-0,4
953,252	-0,36
953,675	-0,35
954,098	-0,37
954,521	-0,35
954,943	-0,34
955,366	-0,36
955,789	-0,34
956,211	-0,37
956,634	-0,37
957,056	-0,35
957,479	-0,36
957,902	-0,39
958,324	-0,39
958,746	-0,36
959,169	-0,37
959,591	-0,38
960,014	-0,38
960,436	-0,38
960,858	-0,38
961,281	-0,37
961,703	-0,38
962,125	-0,38
962,547	-0,35
962,969	-0,36
963,391	-0,37
963,814	-0,38
964,236	-0,38
964,658	-0,35
965,08	-0,36
965,502	-0,35
965,924	-0,33
966,346	-0,33
966,768	-0,33
967,189	-0,35
967,611	-0,34
968,033	-0,34
968,455	-0,32
968,877	-0,33
969,298	-0,34
969,72	-0,33
970,142	-0,33
970,563	-0,34
970,985	-0,32
971,407	-0,31
971,828	-0,29
972,25	-0,29
972,671	-0,28
973,093	-0,27
973,514	-0,25
973,936	-0,24
974,357	-0,23
974,778	-0,23
975,2	-0,22
975,621	-0,22
976,042	-0,2
976,464	-0,19
976,885	-0,18
977,306	-0,17
977,727	-0,17
978,148	-0,16
978,57	-0,15
978,991	-0,14
979,412	-0,12
979,833	-0,11
980,254	-0,11
980,675	-0,11
981,096	-0,1
981,517	-0,09
981,937	-0,09
982,358	-0,08
982,779	-0,06
983,2	-0,07
983,621	-0,06
984,042	-0,05
984,462	-0,04
984,883	-0,03
985,304	-0,01
985,724	-0
986,145	0,01
986,565	0,03
986,986	0,03
987,407	0,04
987,827	0,06
988,248	0,07
988,668	0,08
989,088	0,09
989,509	0,1
989,929	0,11
990,35	0,12
990,77	0,13
991,19	0,14
991,61	0,15
992,031	0,16
992,451	0,17
992,871	0,17
993,291	0,18
993,711	0,19
994,131	0,19
994,551	0,19
994,971	0,2
995,391	0,2
995,811	0,21
996,231	0,21
996,651	0,22
997,071	0,22
997,491	0,23
997,911	0,23
998,331	0,24
998,75	0,24
999,17	0,25
999,59	0,25
1000,009	0,25
1000,429	0,26
1000,849	0,26
1001,268	0,26
1001,688	0,27
1002,107	0,27
1002,527	0,27
1002,946	0,27
1003,366	0,28
1003,785	0,28
1004,205	0,28
1004,624	0,28
1005,044	0,28
1005,463	0,28
1005,882	0,29
1006,301	0,29
1006,721	0,29
1007,14	0,29
1007,559	0,29
1007,978	0,29
1008,397	0,29
1008,816	0,29
1009,235	0,29
1009,655	0,29
1010,074	0,29
1010,492	0,29
1010,911	0,29
1011,33	0,28
1011,749	0,28
1012,168	0,28
1012,587	0,28
1013,006	0,28
1013,425	0,28
1013,843	0,28
1014,262	0,28
1014,681	0,28
1015,099	0,28
1015,518	0,28
1015,937	0,28
1016,355	0,28
1016,774	0,28
1017,192	0,28
1017,611	0,28
1018,029	0,28
1018,448	0,28
1018,866	0,28
1019,285	0,28
1019,703	0,28
1020,121	0,28
1020,54	0,28
1020,958	0,28
1021,376	0,28
1021,794	0,28
1022,213	0,28
1022,631	0,28
1023,049	0,28
1023,467	0,28
1023,885	0,28
1024,303	0,28
1024,721	0,28
1025,139	0,28
1025,557	0,28
1025,975	0,28
1026,393	0,28
1026,811	0,28
1027,229	0,28
1027,647	0,28
1028,065	0,27
1028,482	0,27
1028,9	0,27
1029,318	0,27
1029,735	0,27
1030,153	0,27
1030,571	0,27
1030,988	0,27
1031,406	0,27
1031,823	0,27
1032,241	0,27
1032,659	0,27
1033,076	0,27
1033,493	0,27
1033,911	0,27
1034,328	0,27
1034,746	0,27
1035,163	0,27
1035,58	0,27
1035,997	0,27
1036,415	0,27
1036,832	0,27
1037,249	0,27
1037,666	0,27
1038,083	0,27
1038,501	0,27
1038,918	0,27
1039,335	0,27
1039,752	0,27
1040,169	0,27
1040,586	0,27
1041,003	0,27
1041,419	0,27
1041,836	0,27
1042,253	0,27
1042,67	0,27
1043,087	0,27
1043,504	0,27
1043,92	0,27
1044,337	0,26
1044,754	0,26
1045,17	0,26
1045,587	0,26
1046,004	0,26
1046,42	0,26
1046,837	0,26
1047,253	0,26
1047,67	0,26
1048,086	0,26
1048,503	0,26
1048,919	0,26
1049,335	0,26
1049,752	0,26
1050,168	0,26
1050,584	0,26
1051,001	0,26
1051,417	0,26
1051,833	0,26
1052,249	0,26
1052,665	0,26
1053,081	0,26
1053,497	0,26
1053,914	0,26
1054,33	0,26
1054,746	0,27
1055,162	0,27
1055,578	0,27
1055,993	0,27
1056,409	0,27
1056,825	0,27
1057,241	0,27
1057,657	0,27
1058,073	0,27
1058,488	0,27
1058,904	0,27
1059,32	0,27
1059,736	0,27
1060,151	0,27
1060,567	0,27
1060,982	0,27
1061,398	0,27
1061,813	0,27
1062,229	0,27
1062,644	0,27
1063,06	0,27
1063,475	0,27
1063,891	0,27
1064,306	0,27
1064,721	0,27
1065,137	0,27
1065,552	0,27
1065,967	0,26
1066,382	0,27
1066,798	0,27
1067,213	0,27
1067,628	0,27
1068,043	0,27
1068,458	0,27
1068,873	0,27
1069,288	0,27
1069,703	0,27
1070,118	0,27
1070,533	0,27
1070,948	0,27
1071,363	0,27
1071,778	0,27
1072,193	0,27
1072,607	0,27
1073,022	0,27
1073,437	0,27
1073,852	0,27
1074,266	0,27
1074,681	0,27
1075,096	0,27
1075,51	0,27
1075,925	0,27
1076,339	0,27
1076,754	0,27
1077,168	0,27
1077,583	0,27
1077,997	0,27
1078,412	0,27
1078,826	0,27
1079,24	0,27
1079,655	0,27
1080,069	0,27
1080,483	0,26
1080,897	0,26
1081,312	0,26
1081,726	0,26
1082,14	0,26
1082,554	0,26
1082,968	0,26
1083,382	0,26
1083,796	0,26
1084,21	0,26
1084,624	0,26
1085,038	0,25
1085,452	0,25
1085,866	0,25
1086,28	0,25
1086,694	0,25
1087,108	0,25
1087,521	0,25
1087,935	0,25
1088,349	0,25
1088,763	0,25
1089,176	0,24
1089,59	0,24
1090,004	0,24
1090,417	0,24
1090,831	0,24
1091,244	0,24
1091,658	0,23
1092,071	0,23
1092,485	0,23
1092,898	0,23
1093,312	0,23
1093,725	0,23
1094,138	0,23
1094,552	0,22
1094,965	0,22
1095,378	0,22
1095,791	0,22
1096,205	0,22
1096,618	0,22
1097,031	0,22
1097,444	0,22
1097,857	0,21
1098,27	0,21
1098,683	0,21
1099,096	0,21
1099,509	0,2
1099,922	0,2
1100,335	0,2
1100,748	0,19
1101,161	0,19
1101,574	0,18
1101,986	0,18
1102,399	0,18
1102,812	0,17
1103,225	0,17
1103,637	0,17
1104,05	0,17
1104,463	0,17
1104,875	0,16
1105,288	0,16
1105,7	0,16
1106,113	0,15
1106,525	0,15
1106,938	0,15
1107,35	0,14
1107,763	0,14
1108,175	0,13
1108,588	0,13
1109	0,12
1109,412	0,12
1109,824	0,11
1110,237	0,12
1110,649	0,12
1111,061	0,12
