Data from 18C-808nm-8A_Absorbance__1259__01259.txt Node

Date: Mon Jul 17 17:08:51 CEST 2023
User: Laser008
Spectrometer: MAYP115816
Trigger mode: 0
Integration Time (sec): 2,500000E-1
Scans to average: 10
Electric dark correction enabled: true
Nonlinearity correction enabled: true
Boxcar width: 5
XAxis mode: Wavelengths
Number of Pixels in Spectrum: 2068
>>>>>Begin Spectral Data<<<<<
198,914	-0,71
199,384	-0,45
199,855	-0,34
200,325	-0,27
200,796	-0,25
201,266	-0,21
201,737	-0,19
202,207	-0,17
202,677	-0,17
203,147	-0,16
203,618	-0,13
204,088	-0,12
204,558	-0,12
205,028	-0,12
205,498	-0,12
205,968	-0,12
206,439	-0,13
206,909	-0,13
207,379	-0,15
207,849	-0,15
208,319	-0,16
208,789	-0,16
209,258	-0,15
209,728	-0,17
210,198	-0,16
210,668	-0,16
211,138	-0,16
211,608	-0,15
212,077	-0,15
212,547	-0,14
213,017	-0,13
213,486	-0,13
213,956	-0,14
214,426	-0,15
214,895	-0,14
215,365	-0,15
215,834	-0,15
216,304	-0,17
216,773	-0,17
217,243	-0,19
217,712	-0,2
218,181	-0,2
218,651	-0,2
219,12	-0,19
219,589	-0,2
220,058	-0,19
220,528	-0,19
220,997	-0,2
221,466	-0,21
221,935	-0,21
222,404	-0,2
222,873	-0,2
223,342	-0,19
223,812	-0,19
224,281	-0,19
224,749	-0,2
225,218	-0,21
225,687	-0,21
226,156	-0,2
226,625	-0,18
227,094	-0,19
227,563	-0,19
228,031	-0,21
228,5	-0,21
228,969	-0,21
229,438	-0,21
229,906	-0,19
230,375	-0,19
230,844	-0,18
231,312	-0,18
231,781	-0,2
232,249	-0,18
232,718	-0,18
233,186	-0,16
233,655	-0,16
234,123	-0,16
234,591	-0,16
235,06	-0,16
235,528	-0,16
235,996	-0,16
236,465	-0,16
236,933	-0,15
237,401	-0,15
237,869	-0,15
238,337	-0,16
238,805	-0,15
239,274	-0,15
239,742	-0,14
240,21	-0,14
240,678	-0,13
241,146	-0,12
241,614	-0,12
242,081	-0,12
242,549	-0,12
243,017	-0,13
243,485	-0,13
243,953	-0,13
244,421	-0,13
244,888	-0,13
245,356	-0,14
245,824	-0,14
246,291	-0,14
246,759	-0,16
247,227	-0,16
247,694	-0,15
248,162	-0,14
248,629	-0,13
249,097	-0,13
249,564	-0,15
250,032	-0,15
250,499	-0,15
250,967	-0,16
251,434	-0,15
251,901	-0,15
252,369	-0,15
252,836	-0,16
253,303	-0,17
253,77	-0,19
254,237	-0,18
254,705	-0,17
255,172	-0,16
255,639	-0,16
256,106	-0,18
256,573	-0,19
257,04	-0,18
257,507	-0,19
257,974	-0,19
258,441	-0,17
258,908	-0,17
259,375	-0,18
259,841	-0,19
260,308	-0,2
260,775	-0,2
261,242	-0,19
261,709	-0,2
262,175	-0,21
262,642	-0,2
263,109	-0,2
263,575	-0,22
264,042	-0,21
264,508	-0,2
264,975	-0,21
265,441	-0,22
265,908	-0,23
266,374	-0,22
266,841	-0,22
267,307	-0,22
267,773	-0,21
268,24	-0,22
268,706	-0,21
269,172	-0,22
269,639	-0,23
270,105	-0,22
270,571	-0,21
271,037	-0,21
271,503	-0,21
271,969	-0,21
272,435	-0,21
272,902	-0,23
273,368	-0,24
273,834	-0,23
274,3	-0,24
274,765	-0,25
275,231	-0,25
275,697	-0,23
276,163	-0,22
276,629	-0,22
277,095	-0,24
277,56	-0,23
278,026	-0,23
278,492	-0,21
278,958	-0,21
279,423	-0,22
279,889	-0,2
280,354	-0,21
280,82	-0,22
281,286	-0,24
281,751	-0,24
282,217	-0,23
282,682	-0,24
283,147	-0,24
283,613	-0,25
284,078	-0,25
284,544	-0,25
285,009	-0,27
285,474	-0,26
285,939	-0,26
286,405	-0,25
286,87	-0,24
287,335	-0,25
287,8	-0,24
288,265	-0,22
288,73	-0,22
289,195	-0,24
289,66	-0,24
290,125	-0,23
290,59	-0,23
291,055	-0,22
291,52	-0,22
291,985	-0,23
292,45	-0,24
292,915	-0,24
293,38	-0,25
293,844	-0,23
294,309	-0,21
294,774	-0,21
295,239	-0,22
295,703	-0,23
296,168	-0,22
296,632	-0,21
297,097	-0,19
297,562	-0,18
298,026	-0,18
298,491	-0,19
298,955	-0,19
299,419	-0,19
299,884	-0,18
300,348	-0,17
300,813	-0,16
301,277	-0,17
301,741	-0,18
302,205	-0,18
302,67	-0,17
303,134	-0,16
303,598	-0,16
304,062	-0,15
304,526	-0,15
304,99	-0,17
305,454	-0,16
305,919	-0,16
306,383	-0,16
306,847	-0,15
307,31	-0,16
307,774	-0,18
308,238	-0,17
308,702	-0,17
309,166	-0,18
309,63	-0,17
310,094	-0,15
310,557	-0,15
311,021	-0,15
311,485	-0,14
311,948	-0,15
312,412	-0,13
312,876	-0,13
313,339	-0,13
313,803	-0,14
314,266	-0,13
314,73	-0,15
315,193	-0,15
315,657	-0,14
316,12	-0,14
316,584	-0,12
317,047	-0,12
317,51	-0,11
317,973	-0,1
318,437	-0,09
318,9	-0,08
319,363	-0,07
319,826	-0,06
320,29	-0,06
320,753	-0,06
321,216	-0,06
321,679	-0,07
322,142	-0,07
322,605	-0,08
323,068	-0,08
323,531	-0,08
323,994	-0,08
324,457	-0,09
324,92	-0,08
325,382	-0,08
325,845	-0,07
326,308	-0,07
326,771	-0,06
327,233	-0,05
327,696	-0,04
328,159	-0,04
328,622	-0,03
329,084	-0,03
329,547	-0,02
330,009	-0,02
330,472	-0,01
330,934	-0,01
331,397	-0
331,859	0
332,322	0
332,784	0
333,246	0,01
333,709	0,01
334,171	0,02
334,633	0,02
335,096	0,02
335,558	0,02
336,02	0,01
336,482	0,02
336,944	0,03
337,406	0,04
337,868	0,04
338,331	0,04
338,793	0,05
339,255	0,05
339,717	0,06
340,178	0,07
340,64	0,07
341,102	0,08
341,564	0,09
342,026	0,09
342,488	0,1
342,949	0,11
343,411	0,13
343,873	0,16
344,335	0,18
344,796	0,2
345,258	0,24
345,719	0,27
346,181	0,3
346,643	0,33
347,104	0,35
347,566	0,37
348,027	0,39
348,488	0,4
348,95	0,42
349,411	0,43
349,873	0,44
350,334	0,46
350,795	0,47
351,256	0,47
351,718	0,48
352,179	0,48
352,64	0,48
353,101	0,48
353,562	0,49
354,023	0,49
354,484	0,49
354,945	0,49
355,406	0,49
355,867	0,49
356,328	0,49
356,789	0,49
357,25	0,49
357,711	0,5
358,172	0,5
358,633	0,5
359,093	0,5
359,554	0,5
360,015	0,5
360,476	0,5
360,936	0,5
361,397	0,5
361,858	0,5
362,318	0,5
362,779	0,5
363,239	0,5
363,7	0,5
364,16	0,5
364,621	0,5
365,081	0,5
365,541	0,5
366,002	0,5
366,462	0,5
366,922	0,5
367,383	0,5
367,843	0,5
368,303	0,5
368,763	0,5
369,223	0,5
369,684	0,5
370,144	0,5
370,604	0,5
371,064	0,5
371,524	0,5
371,984	0,5
372,444	0,5
372,904	0,5
373,363	0,5
373,823	0,5
374,283	0,5
374,743	0,5
375,203	0,5
375,663	0,5
376,122	0,5
376,582	0,5
377,042	0,5
377,501	0,5
377,961	0,5
378,42	0,5
378,88	0,5
379,34	0,5
379,799	0,5
380,259	0,5
380,718	0,5
381,177	0,5
381,637	0,5
382,096	0,5
382,555	0,5
383,015	0,5
383,474	0,5
383,933	0,49
384,393	0,49
384,852	0,49
385,311	0,49
385,77	0,49
386,229	0,49
386,688	0,49
387,147	0,49
387,606	0,49
388,065	0,49
388,524	0,49
388,983	0,49
389,442	0,49
389,901	0,49
390,36	0,49
390,819	0,49
391,277	0,49
391,736	0,49
392,195	0,49
392,654	0,49
393,112	0,49
393,571	0,49
394,03	0,49
394,488	0,49
394,947	0,49
395,405	0,49
395,864	0,49
396,322	0,49
396,781	0,49
397,239	0,49
397,698	0,49
398,156	0,49
398,614	0,49
399,073	0,49
399,531	0,49
399,989	0,49
400,447	0,49
400,905	0,49
401,364	0,49
401,822	0,48
402,28	0,48
402,738	0,48
403,196	0,48
403,654	0,48
404,112	0,48
404,57	0,48
405,028	0,48
405,486	0,48
405,944	0,48
406,402	0,48
406,859	0,48
407,317	0,48
407,775	0,48
408,233	0,48
408,691	0,48
409,148	0,48
409,606	0,48
410,064	0,48
410,521	0,48
410,979	0,48
411,436	0,48
411,894	0,48
412,351	0,48
412,809	0,48
413,266	0,48
413,724	0,48
414,181	0,48
414,638	0,48
415,096	0,48
415,553	0,48
416,01	0,48
416,467	0,48
416,925	0,48
417,382	0,48
417,839	0,48
418,296	0,48
418,753	0,48
419,21	0,48
419,667	0,48
420,124	0,48
420,581	0,48
421,038	0,47
421,495	0,47
421,952	0,47
422,409	0,47
422,866	0,47
423,322	0,47
423,779	0,48
424,236	0,48
424,693	0,48
425,149	0,48
425,606	0,48
426,063	0,48
426,519	0,48
426,976	0,48
427,433	0,48
427,889	0,48
428,346	0,48
428,802	0,48
429,258	0,48
429,715	0,47
430,171	0,47
430,628	0,47
431,084	0,47
431,54	0,47
431,997	0,47
432,453	0,47
432,909	0,47
433,365	0,47
433,821	0,47
434,277	0,47
434,734	0,47
435,19	0,47
435,646	0,47
436,102	0,47
436,558	0,47
437,014	0,47
437,47	0,47
437,925	0,47
438,381	0,47
438,837	0,47
439,293	0,47
439,749	0,47
440,205	0,47
440,66	0,47
441,116	0,47
441,572	0,47
442,027	0,47
442,483	0,47
442,939	0,47
443,394	0,47
443,85	0,47
444,305	0,47
444,761	0,47
445,216	0,47
445,672	0,47
446,127	0,47
446,582	0,47
447,038	0,47
447,493	0,47
447,948	0,47
448,403	0,47
448,859	0,47
449,314	0,47
449,769	0,47
450,224	0,47
450,679	0,47
451,134	0,47
451,589	0,47
452,044	0,47
452,499	0,47
452,954	0,47
453,409	0,47
453,864	0,47
454,319	0,47
454,774	0,47
455,229	0,47
455,684	0,47
456,138	0,47
456,593	0,47
457,048	0,47
457,503	0,47
457,957	0,47
458,412	0,47
458,866	0,47
459,321	0,47
459,776	0,47
460,23	0,48
460,685	0,48
461,139	0,48
461,593	0,48
462,048	0,48
462,502	0,48
462,957	0,48
463,411	0,48
463,865	0,48
464,319	0,48
464,774	0,48
465,228	0,48
465,682	0,48
466,136	0,48
466,59	0,48
467,044	0,48
467,499	0,48
467,953	0,48
468,407	0,48
468,861	0,49
469,315	0,49
469,768	0,49
470,222	0,49
470,676	0,49
471,13	0,49
471,584	0,49
472,038	0,49
472,491	0,49
472,945	0,49
473,399	0,49
473,852	0,49
474,306	0,49
474,76	0,49
475,213	0,49
475,667	0,49
476,12	0,49
476,574	0,49
477,027	0,49
477,481	0,5
477,934	0,5
478,388	0,5
478,841	0,5
479,294	0,5
479,748	0,5
480,201	0,5
480,654	0,5
481,107	0,5
481,561	0,51
482,014	0,51
482,467	0,51
482,92	0,51
483,373	0,51
483,826	0,51
484,279	0,51
484,732	0,51
485,185	0,51
485,638	0,52
486,091	0,52
486,544	0,52
486,997	0,52
487,449	0,52
487,902	0,52
488,355	0,52
488,808	0,52
489,26	0,53
489,713	0,53
490,166	0,53
490,618	0,53
491,071	0,53
491,523	0,54
491,976	0,54
492,429	0,54
492,881	0,54
493,333	0,54
493,786	0,55
494,238	0,55
494,691	0,55
495,143	0,55
495,595	0,56
496,048	0,56
496,5	0,56
496,952	0,56
497,404	0,56
497,856	0,57
498,309	0,57
498,761	0,57
499,213	0,57
499,665	0,58
500,117	0,58
500,569	0,58
501,021	0,59
501,473	0,59
501,925	0,59
502,377	0,59
502,828	0,6
503,28	0,6
503,732	0,6
504,184	0,6
504,636	0,61
505,087	0,61
505,539	0,61
505,991	0,61
506,442	0,62
506,894	0,62
507,345	0,62
507,797	0,62
508,249	0,63
508,7	0,63
509,151	0,63
509,603	0,64
510,054	0,64
510,506	0,64
510,957	0,64
511,408	0,65
511,86	0,65
512,311	0,65
512,762	0,65
513,213	0,66
513,665	0,66
514,116	0,66
514,567	0,66
515,018	0,67
515,469	0,67
515,92	0,67
516,371	0,67
516,822	0,67
517,273	0,68
517,724	0,68
518,175	0,68
518,626	0,68
519,076	0,68
519,527	0,69
519,978	0,69
520,429	0,69
520,88	0,69
521,33	0,69
521,781	0,69
522,232	0,69
522,682	0,7
523,133	0,7
523,583	0,7
524,034	0,7
524,484	0,7
524,935	0,7
525,385	0,7
525,836	0,7
526,286	0,7
526,736	0,7
527,187	0,7
527,637	0,7
528,087	0,7
528,538	0,7
528,988	0,7
529,438	0,7
529,888	0,7
530,338	0,7
530,788	0,7
531,238	0,7
531,688	0,7
532,139	0,7
532,589	0,7
533,038	0,7
533,488	0,7
533,938	0,7
534,388	0,69
534,838	0,69
535,288	0,69
535,738	0,69
536,187	0,69
536,637	0,69
537,087	0,68
537,537	0,68
537,986	0,68
538,436	0,68
538,885	0,67
539,335	0,67
539,785	0,67
540,234	0,66
540,684	0,66
541,133	0,66
541,582	0,66
542,032	0,65
542,481	0,65
542,931	0,65
543,38	0,64
543,829	0,64
544,278	0,64
544,728	0,63
545,177	0,63
545,626	0,63
546,075	0,62
546,524	0,62
546,973	0,62
547,422	0,62
547,871	0,62
548,32	0,61
548,769	0,61
549,218	0,61
549,667	0,61
550,116	0,61
550,565	0,61
551,014	0,61
551,463	0,6
551,911	0,6
552,36	0,6
552,809	0,6
553,258	0,59
553,706	0,59
554,155	0,59
554,603	0,59
555,052	0,58
555,501	0,58
555,949	0,58
556,398	0,57
556,846	0,57
557,294	0,57
557,743	0,57
558,191	0,56
558,64	0,56
559,088	0,56
559,536	0,55
559,985	0,55
560,433	0,55
560,881	0,55
561,329	0,54
561,777	0,54
562,225	0,54
562,674	0,54
563,122	0,54
563,57	0,53
564,018	0,53
564,466	0,53
564,914	0,53
565,362	0,52
565,809	0,52
566,257	0,52
566,705	0,52
567,153	0,51
567,601	0,51
568,048	0,51
568,496	0,51
568,944	0,5
569,392	0,5
569,839	0,5
570,287	0,5
570,734	0,49
571,182	0,49
571,63	0,49
572,077	0,49
572,525	0,49
572,972	0,48
573,419	0,48
573,867	0,48
574,314	0,48
574,761	0,47
575,209	0,47
575,656	0,47
576,103	0,47
576,551	0,47
576,998	0,47
577,445	0,47
577,892	0,46
578,339	0,46
578,786	0,46
579,233	0,46
579,68	0,46
580,127	0,46
580,574	0,45
581,021	0,45
581,468	0,45
581,915	0,45
582,362	0,45
582,809	0,45
583,255	0,44
583,702	0,44
584,149	0,44
584,596	0,44
585,042	0,44
585,489	0,44
585,936	0,43
586,382	0,43
586,829	0,43
587,275	0,43
587,722	0,43
588,168	0,43
588,615	0,43
589,061	0,43
589,508	0,43
589,954	0,43
590,4	0,42
590,847	0,42
591,293	0,42
591,739	0,42
592,185	0,42
592,632	0,42
593,078	0,42
593,524	0,42
593,97	0,42
594,416	0,42
594,862	0,42
595,308	0,41
595,754	0,41
596,2	0,41
596,646	0,41
597,092	0,41
597,538	0,41
597,984	0,41
598,43	0,41
598,876	0,41
599,321	0,41
599,767	0,4
600,213	0,4
600,659	0,4
601,104	0,4
601,55	0,4
601,995	0,4
602,441	0,4
602,887	0,4
603,332	0,4
603,778	0,4
604,223	0,4
604,668	0,4
605,114	0,4
605,559	0,4
606,005	0,4
606,45	0,4
606,895	0,39
607,341	0,39
607,786	0,39
608,231	0,39
608,676	0,39
609,121	0,38
609,566	0,38
610,012	0,38
610,457	0,37
610,902	0,37
611,347	0,37
611,792	0,37
612,237	0,37
612,682	0,37
613,127	0,37
613,571	0,37
614,016	0,37
614,461	0,37
614,906	0,37
615,351	0,37
615,795	0,37
616,24	0,37
616,685	0,37
617,129	0,37
617,574	0,38
618,019	0,38
618,463	0,38
618,908	0,38
619,352	0,38
619,797	0,38
620,241	0,37
620,686	0,37
621,13	0,37
621,574	0,37
622,019	0,37
622,463	0,37
622,907	0,37
623,352	0,37
623,796	0,37
624,24	0,37
624,684	0,37
625,128	0,37
625,572	0,37
626,016	0,37
626,461	0,37
626,905	0,37
627,349	0,37
627,793	0,37
628,236	0,37
628,68	0,37
629,124	0,37
629,568	0,37
630,012	0,36
630,456	0,36
630,9	0,36
631,343	0,36
631,787	0,36
632,231	0,36
632,674	0,36
633,118	0,36
633,562	0,36
634,005	0,36
634,449	0,36
634,892	0,36
635,336	0,36
635,779	0,36
636,223	0,36
636,666	0,36
637,109	0,36
637,553	0,36
637,996	0,36
638,439	0,36
638,883	0,36
639,326	0,36
639,769	0,36
640,212	0,36
640,655	0,36
641,099	0,36
641,542	0,36
641,985	0,36
642,428	0,36
642,871	0,36
643,314	0,36
643,757	0,36
644,2	0,36
644,643	0,36
645,085	0,36
645,528	0,36
645,971	0,36
646,414	0,35
646,857	0,35
647,299	0,35
647,742	0,35
648,185	0,35
648,627	0,35
649,07	0,35
649,513	0,35
649,955	0,35
650,398	0,35
650,84	0,35
651,283	0,35
651,725	0,35
652,168	0,35
652,61	0,35
653,052	0,35
653,495	0,35
653,937	0,27
654,379	0,22
654,821	0,22
655,264	0,22
655,706	0,22
656,148	0,22
656,59	0,22
657,032	0,22
657,474	0,22
657,916	0,22
658,358	0,22
658,8	0,27
659,242	0,35
659,684	0,35
660,126	0,35
660,568	0,35
661,01	0,35
661,452	0,35
661,894	0,35
662,335	0,35
662,777	0,35
663,219	0,35
663,661	0,35
664,102	0,35
664,544	0,34
664,985	0,34
665,427	0,34
665,869	0,34
666,31	0,34
666,752	0,34
667,193	0,34
667,634	0,34
668,076	0,34
668,517	0,34
668,959	0,34
669,4	0,34
669,841	0,35
670,282	0,34
670,724	0,34
671,165	0,34
671,606	0,34
672,047	0,34
672,488	0,34
672,929	0,34
673,37	0,34
673,811	0,34
674,252	0,34
674,693	0,34
675,134	0,34
675,575	0,34
676,016	0,34
676,457	0,34
676,898	0,34
677,339	0,34
677,78	0,34
678,22	0,34
678,661	0,34
679,102	0,34
679,542	0,34
679,983	0,34
680,424	0,34
680,864	0,34
681,305	0,34
681,745	0,34
682,186	0,34
682,626	0,34
683,067	0,34
683,507	0,34
683,948	0,34
684,388	0,34
684,828	0,34
685,269	0,34
685,709	0,33
686,149	0,33
686,589	0,33
687,029	0,33
687,47	0,33
687,91	0,33
688,35	0,33
688,79	0,33
689,23	0,33
689,67	0,33
690,11	0,33
690,55	0,33
690,99	0,33
691,43	0,33
691,87	0,33
692,31	0,33
692,749	0,33
693,189	0,33
693,629	0,33
694,069	0,32
694,508	0,32
694,948	0,32
695,388	0,32
695,827	0,33
696,267	0,33
696,706	0,33
697,146	0,33
697,586	0,33
698,025	0,33
698,464	0,33
698,904	0,33
699,343	0,33
699,783	0,33
700,222	0,33
700,661	0,33
701,101	0,33
701,54	0,33
701,979	0,33
702,418	0,33
702,857	0,33
703,297	0,33
703,736	0,33
704,175	0,33
704,614	0,33
705,053	0,33
705,492	0,33
705,931	0,32
706,37	0,32
706,809	0,32
707,248	0,32
707,687	0,32
708,125	0,32
708,564	0,32
709,003	0,32
709,442	0,32
709,88	0,32
710,319	0,32
710,758	0,32
711,196	0,32
711,635	0,32
712,074	0,32
712,512	0,32
712,951	0,32
713,389	0,32
713,828	0,32
714,266	0,32
714,705	0,32
715,143	0,31
715,581	0,31
716,02	0,31
716,458	0,31
716,896	0,31
717,334	0,31
717,773	0,31
718,211	0,31
718,649	0,31
719,087	0,31
719,525	0,31
719,963	0,31
720,401	0,31
720,839	0,31
721,277	0,31
721,715	0,31
722,153	0,31
722,591	0,31
723,029	0,31
723,467	0,31
723,905	0,31
724,342	0,31
724,78	0,31
725,218	0,31
725,656	0,31
726,093	0,31
726,531	0,31
726,969	0,31
727,406	0,31
727,844	0,31
728,281	0,31
728,719	0,31
729,156	0,31
729,594	0,31
730,031	0,31
730,469	0,31
730,906	0,31
731,343	0,31
731,781	0,31
732,218	0,31
732,655	0,31
733,092	0,31
733,53	0,31
733,967	0,31
734,404	0,31
734,841	0,31
735,278	0,31
735,715	0,31
736,152	0,31
736,589	0,31
737,026	0,31
737,463	0,3
737,9	0,3
738,337	0,3
738,774	0,3
739,211	0,3
739,647	0,3
740,084	0,3
740,521	0,3
740,958	0,3
741,394	0,3
741,831	0,3
742,268	0,3
742,704	0,3
743,141	0,29
743,577	0,29
744,014	0,29
744,45	0,29
744,887	0,29
745,323	0,29
745,76	0,29
746,196	0,29
746,632	0,29
747,069	0,29
747,505	0,29
747,941	0,29
748,378	0,29
748,814	0,29
749,25	0,29
749,686	0,29
750,122	0,29
750,558	0,29
750,994	0,3
751,43	0,3
751,866	0,3
752,302	0,3
752,738	0,3
753,174	0,3
753,61	0,3
754,046	0,3
754,482	0,3
754,918	0,3
755,354	0,3
755,789	0,3
756,225	0,3
756,661	0,3
757,096	0,3
757,532	0,3
757,968	0,3
758,403	0,29
758,839	0,29
759,274	0,29
759,71	0,29
760,145	0,28
760,581	0,28
761,016	0,28
761,452	0,27
761,887	0,27
762,322	0,27
762,758	0,26
763,193	0,26
763,628	0,26
764,063	0,25
764,499	0,24
764,934	0,24
765,369	0,24
765,804	0,23
766,239	0,22
766,674	0,22
767,109	0,22
767,544	0,21
767,979	0,2
768,414	0,19
768,849	0,18
769,284	0,18
769,719	0,17
770,154	0,16
770,588	0,16
771,023	0,15
771,458	0,13
771,893	0,12
772,327	0,11
772,762	0,11
773,197	0,1
773,631	0,09
774,066	0,08
774,5	0,08
774,935	0,07
775,369	0,06
775,804	0,05
776,238	0,04
776,673	0,03
777,107	0,02
777,541	0,01
777,976	0,01
778,41	0
778,844	-0,01
779,279	-0,01
779,713	-0,02
780,147	-0,02
780,581	-0,03
781,015	-0,04
781,449	-0,05
781,883	-0,06
782,317	-0,07
782,751	-0,08
783,185	-0,09
783,619	-0,1
784,053	-0,11
784,487	-0,11
784,921	-0,12
785,355	-0,12
785,789	-0,13
786,223	-0,14
786,656	-0,15
787,09	-0,15
787,524	-0,15
787,957	-0,17
788,391	-0,18
788,825	-0,2
789,258	-0,22
789,692	-0,23
790,125	-0,25
790,559	-0,26
790,992	-0,28
791,426	-0,31
791,859	-0,32
792,293	-0,35
792,726	-0,37
793,159	-0,39
793,593	-0,4
794,026	-0,43
794,459	-0,45
794,892	-0,48
795,326	-0,5
795,759	-0,54
796,192	-0,58
796,625	-0,63
797,058	-0,65
797,491	-0,69
797,924	-0,73
798,357	-0,78
798,79	-0,82
799,223	-0,87
799,656	-0,92
800,089	-0,97
800,522	-1,01
800,955	-1,06
801,387	-1,11
801,82	-1,17
802,253	-1,23
802,686	-1,31
803,118	-1,36
803,551	-1,41
803,984	-1,46
804,416	-1,5
804,849	-1,53
805,281	-1,64
805,714	-2
806,146	-2,46
806,579	-2,71
807,011	-2,87
807,444	-2,97
807,876	-3,06
808,308	-3,09
808,741	-3,12
809,173	-3,18
809,605	-3,2
810,037	-3,27
810,47	-3,19
810,902	-2,99
811,334	-2,85
811,766	-2,7
812,198	-2,47
812,63	-2,05
813,062	-1,82
813,494	-1,72
813,926	-1,63
814,358	-1,57
814,79	-1,49
815,222	-1,43
815,654	-1,39
816,086	-1,32
816,518	-1,27
816,949	-1,21
817,381	-1,17
817,813	-1,15
818,245	-1,11
818,676	-1,07
819,108	-1,03
819,54	-1,02
819,971	-0,99
820,403	-0,94
820,834	-0,93
821,266	-0,89
821,697	-0,86
822,129	-0,85
822,56	-0,83
822,991	-0,8
823,423	-0,78
823,854	-0,77
824,286	-0,74
824,717	-0,73
825,148	-0,71
825,579	-0,7
826,01	-0,68
826,442	-0,67
826,873	-0,66
827,304	-0,62
827,735	-0,61
828,166	-0,62
828,597	-0,62
829,028	-0,61
829,459	-0,62
829,89	-0,62
830,321	-0,58
830,752	-0,58
831,183	-0,56
831,613	-0,55
832,044	-0,54
832,475	-0,54
832,906	-0,54
833,336	-0,55
833,767	-0,55
834,198	-0,54
834,628	-0,52
835,059	-0,55
835,49	-0,57
835,92	-0,54
836,351	-0,55
836,781	-0,55
837,212	-0,56
837,642	-0,56
838,072	-0,54
838,503	-0,56
838,933	-0,54
839,364	-0,55
839,794	-0,52
840,224	-0,52
840,654	-0,56
841,085	-0,56
841,515	-0,54
841,945	-0,54
842,375	-0,49
842,805	-0,49
843,235	-0,47
843,665	-0,48
844,095	-0,46
844,525	-0,49
844,955	-0,48
845,385	-0,46
845,815	-0,44
846,245	-0,46
846,675	-0,47
847,105	-0,49
847,534	-0,5
847,964	-0,49
848,394	-0,48
848,824	-0,51
849,253	-0,49
849,683	-0,5
850,112	-0,51
850,542	-0,53
850,972	-0,54
851,401	-0,52
851,831	-0,5
852,26	-0,5
852,69	-0,53
853,119	-0,52
853,548	-0,53
853,978	-0,53
854,407	-0,52
854,836	-0,53
855,266	-0,52
855,695	-0,54
856,124	-0,55
856,553	-0,56
856,983	-0,58
857,412	-0,58
857,841	-0,59
858,27	-0,59
858,699	-0,6
859,128	-0,63
859,557	-0,63
859,986	-0,64
860,415	-0,62
860,844	-0,59
861,273	-0,6
861,702	-0,6
862,13	-0,58
862,559	-0,59
862,988	-0,56
863,417	-0,55
863,845	-0,54
864,274	-0,55
864,703	-0,54
865,131	-0,55
865,56	-0,56
865,989	-0,59
866,417	-0,56
866,846	-0,57
867,274	-0,57
867,703	-0,59
868,131	-0,6
868,559	-0,61
868,988	-0,62
869,416	-0,61
869,844	-0,62
870,273	-0,65
870,701	-0,62
871,129	-0,65
871,557	-0,67
871,986	-0,67
872,414	-0,68
872,842	-0,65
873,27	-0,63
873,698	-0,61
874,126	-0,65
874,554	-0,63
874,982	-0,63
875,41	-0,65
875,838	-0,61
876,266	-0,58
876,694	-0,58
877,122	-0,58
877,549	-0,64
877,977	-0,61
878,405	-0,63
878,833	-0,6
879,26	-0,58
879,688	-0,58
880,116	-0,56
880,543	-0,55
880,971	-0,53
881,399	-0,56
881,826	-0,57
882,254	-0,54
882,681	-0,59
883,109	-0,56
883,536	-0,56
883,963	-0,57
884,391	-0,56
884,818	-0,54
885,245	-0,58
885,673	-0,6
886,1	-0,56
886,527	-0,56
886,954	-0,52
887,381	-0,53
887,809	-0,55
888,236	-0,56
888,663	-0,57
889,09	-0,61
889,517	-0,64
889,944	-0,65
890,371	-0,63
890,798	-0,64
891,225	-0,65
891,652	-0,67
892,078	-0,65
892,505	-0,68
892,932	-0,63
893,359	-0,64
893,786	-0,64
894,212	-0,6
894,639	-0,61
895,066	-0,63
895,492	-0,57
895,919	-0,57
896,346	-0,56
896,772	-0,56
897,199	-0,52
897,625	-0,55
898,052	-0,52
898,478	-0,5
898,904	-0,52
899,331	-0,51
899,757	-0,53
900,183	-0,55
900,61	-0,53
901,036	-0,54
901,462	-0,54
901,888	-0,54
902,315	-0,52
902,741	-0,58
903,167	-0,57
903,593	-0,59
904,019	-0,58
904,445	-0,55
904,871	-0,58
905,297	-0,6
905,723	-0,59
906,149	-0,57
906,575	-0,59
907,001	-0,59
907,427	-0,56
907,852	-0,56
908,278	-0,57
908,704	-0,55
909,13	-0,54
909,555	-0,54
909,981	-0,53
910,407	-0,54
910,832	-0,54
911,258	-0,53
911,684	-0,53
912,109	-0,52
912,535	-0,53
912,96	-0,49
913,386	-0,54
913,811	-0,53
914,236	-0,55
914,662	-0,53
915,087	-0,56
915,512	-0,56
915,938	-0,58
916,363	-0,58
916,788	-0,6
917,213	-0,58
917,639	-0,63
918,064	-0,59
918,489	-0,6
918,914	-0,6
919,339	-0,61
919,764	-0,59
920,189	-0,59
920,614	-0,61
921,039	-0,6
921,464	-0,56
921,889	-0,59
922,314	-0,61
922,738	-0,65
923,163	-0,66
923,588	-0,66
924,013	-0,66
924,437	-0,66
924,862	-0,68
925,287	-0,63
925,711	-0,64
926,136	-0,65
926,561	-0,63
926,985	-0,62
927,41	-0,58
927,834	-0,56
928,259	-0,52
928,683	-0,51
929,108	-0,48
929,532	-0,48
929,956	-0,48
930,381	-0,47
930,805	-0,48
931,229	-0,47
931,653	-0,45
932,078	-0,46
932,502	-0,47
932,926	-0,48
933,35	-0,47
933,774	-0,46
934,198	-0,44
934,622	-0,43
935,046	-0,44
935,47	-0,44
935,894	-0,44
936,318	-0,43
936,742	-0,42
937,166	-0,42
937,59	-0,42
938,014	-0,45
938,437	-0,46
938,861	-0,48
939,285	-0,49
939,709	-0,48
940,132	-0,48
940,556	-0,49
940,98	-0,49
941,403	-0,47
941,827	-0,47
942,25	-0,49
942,674	-0,47
943,097	-0,46
943,521	-0,46
943,944	-0,48
944,368	-0,47
944,791	-0,46
945,214	-0,48
945,638	-0,49
946,061	-0,52
946,484	-0,52
946,907	-0,51
947,331	-0,52
947,754	-0,56
948,177	-0,53
948,6	-0,52
949,023	-0,52
949,446	-0,53
949,869	-0,5
950,292	-0,5
950,715	-0,47
951,138	-0,46
951,561	-0,44
951,984	-0,45
952,407	-0,43
952,83	-0,41
953,252	-0,38
953,675	-0,37
954,098	-0,38
954,521	-0,38
954,943	-0,37
955,366	-0,37
955,789	-0,35
956,211	-0,37
956,634	-0,38
957,056	-0,36
957,479	-0,37
957,902	-0,4
958,324	-0,4
958,746	-0,38
959,169	-0,39
959,591	-0,4
960,014	-0,41
960,436	-0,4
960,858	-0,39
961,281	-0,38
961,703	-0,39
962,125	-0,39
962,547	-0,37
962,969	-0,38
963,391	-0,39
963,814	-0,4
964,236	-0,38
964,658	-0,36
965,08	-0,37
965,502	-0,37
965,924	-0,35
966,346	-0,35
966,768	-0,34
967,189	-0,36
967,611	-0,35
968,033	-0,35
968,455	-0,32
968,877	-0,34
969,298	-0,34
969,72	-0,34
970,142	-0,33
970,563	-0,34
970,985	-0,33
971,407	-0,32
971,828	-0,3
972,25	-0,29
972,671	-0,27
973,093	-0,28
973,514	-0,27
973,936	-0,25
974,357	-0,24
974,778	-0,24
975,2	-0,24
975,621	-0,23
976,042	-0,21
976,464	-0,2
976,885	-0,19
977,306	-0,19
977,727	-0,19
978,148	-0,17
978,57	-0,17
978,991	-0,16
979,412	-0,15
979,833	-0,14
980,254	-0,13
980,675	-0,14
981,096	-0,13
981,517	-0,12
981,937	-0,11
982,358	-0,09
982,779	-0,07
983,2	-0,08
983,621	-0,07
984,042	-0,05
984,462	-0,04
984,883	-0,03
985,304	-0,01
985,724	-0
986,145	0,01
986,565	0,02
986,986	0,02
987,407	0,02
987,827	0,04
988,248	0,05
988,668	0,06
989,088	0,07
989,509	0,08
989,929	0,08
990,35	0,09
990,77	0,1
991,19	0,11
991,61	0,12
992,031	0,13
992,451	0,14
992,871	0,14
993,291	0,15
993,711	0,15
994,131	0,16
994,551	0,16
994,971	0,17
995,391	0,18
995,811	0,18
996,231	0,18
996,651	0,18
997,071	0,19
997,491	0,2
997,911	0,2
998,331	0,21
998,75	0,21
999,17	0,22
999,59	0,22
1000,009	0,22
1000,429	0,23
1000,849	0,23
1001,268	0,24
1001,688	0,24
1002,107	0,24
1002,527	0,24
1002,946	0,24
1003,366	0,25
1003,785	0,25
1004,205	0,25
1004,624	0,25
1005,044	0,25
1005,463	0,26
1005,882	0,26
1006,301	0,26
1006,721	0,26
1007,14	0,26
1007,559	0,26
1007,978	0,26
1008,397	0,26
1008,816	0,26
1009,235	0,26
1009,655	0,26
1010,074	0,26
1010,492	0,26
1010,911	0,25
1011,33	0,25
1011,749	0,25
1012,168	0,25
1012,587	0,25
1013,006	0,25
1013,425	0,25
1013,843	0,25
1014,262	0,25
1014,681	0,25
1015,099	0,25
1015,518	0,25
1015,937	0,25
1016,355	0,25
1016,774	0,25
1017,192	0,25
1017,611	0,25
1018,029	0,25
1018,448	0,25
1018,866	0,25
1019,285	0,25
1019,703	0,25
1020,121	0,25
1020,54	0,25
1020,958	0,25
1021,376	0,25
1021,794	0,25
1022,213	0,25
1022,631	0,25
1023,049	0,25
1023,467	0,25
1023,885	0,25
1024,303	0,25
1024,721	0,25
1025,139	0,25
1025,557	0,25
1025,975	0,25
1026,393	0,25
1026,811	0,25
1027,229	0,25
1027,647	0,25
1028,065	0,25
1028,482	0,25
1028,9	0,25
1029,318	0,25
1029,735	0,24
1030,153	0,24
1030,571	0,24
1030,988	0,24
1031,406	0,24
1031,823	0,24
1032,241	0,24
1032,659	0,24
1033,076	0,24
1033,493	0,24
1033,911	0,24
1034,328	0,24
1034,746	0,24
1035,163	0,24
1035,58	0,24
1035,997	0,24
1036,415	0,24
1036,832	0,24
1037,249	0,24
1037,666	0,24
1038,083	0,24
1038,501	0,24
1038,918	0,24
1039,335	0,24
1039,752	0,24
1040,169	0,24
1040,586	0,24
1041,003	0,24
1041,419	0,24
1041,836	0,24
1042,253	0,24
1042,67	0,24
1043,087	0,24
1043,504	0,24
1043,92	0,24
1044,337	0,24
1044,754	0,23
1045,17	0,23
1045,587	0,23
1046,004	0,23
1046,42	0,23
1046,837	0,23
1047,253	0,23
1047,67	0,23
1048,086	0,23
1048,503	0,23
1048,919	0,23
1049,335	0,23
1049,752	0,23
1050,168	0,23
1050,584	0,23
1051,001	0,23
1051,417	0,23
1051,833	0,23
1052,249	0,23
1052,665	0,23
1053,081	0,23
1053,497	0,23
1053,914	0,23
1054,33	0,23
1054,746	0,24
1055,162	0,24
1055,578	0,24
1055,993	0,24
1056,409	0,24
1056,825	0,24
1057,241	0,24
1057,657	0,24
1058,073	0,24
1058,488	0,24
1058,904	0,24
1059,32	0,24
1059,736	0,24
1060,151	0,24
1060,567	0,24
1060,982	0,24
1061,398	0,24
1061,813	0,24
1062,229	0,24
1062,644	0,24
1063,06	0,24
1063,475	0,24
1063,891	0,24
1064,306	0,24
1064,721	0,24
1065,137	0,24
1065,552	0,24
1065,967	0,24
1066,382	0,24
1066,798	0,24
1067,213	0,24
1067,628	0,24
1068,043	0,24
1068,458	0,24
1068,873	0,24
1069,288	0,24
1069,703	0,24
1070,118	0,24
1070,533	0,24
1070,948	0,24
1071,363	0,24
1071,778	0,24
1072,193	0,24
1072,607	0,24
1073,022	0,24
1073,437	0,24
1073,852	0,24
1074,266	0,24
1074,681	0,24
1075,096	0,24
1075,51	0,24
1075,925	0,24
1076,339	0,24
1076,754	0,24
1077,168	0,24
1077,583	0,24
1077,997	0,24
1078,412	0,24
1078,826	0,24
1079,24	0,24
1079,655	0,24
1080,069	0,24
1080,483	0,24
1080,897	0,23
1081,312	0,23
1081,726	0,23
1082,14	0,23
1082,554	0,23
1082,968	0,23
1083,382	0,23
1083,796	0,23
1084,21	0,23
1084,624	0,23
1085,038	0,23
1085,452	0,23
1085,866	0,23
1086,28	0,22
1086,694	0,22
1087,108	0,22
1087,521	0,22
1087,935	0,22
1088,349	0,22
1088,763	0,22
1089,176	0,22
1089,59	0,21
1090,004	0,21
1090,417	0,21
1090,831	0,21
1091,244	0,2
1091,658	0,2
1092,071	0,2
1092,485	0,2
1092,898	0,2
1093,312	0,2
1093,725	0,2
1094,138	0,2
1094,552	0,19
1094,965	0,19
1095,378	0,19
1095,791	0,19
1096,205	0,19
1096,618	0,19
1097,031	0,19
1097,444	0,18
1097,857	0,18
1098,27	0,18
1098,683	0,18
1099,096	0,18
1099,509	0,17
1099,922	0,17
1100,335	0,17
1100,748	0,16
1101,161	0,16
1101,574	0,16
1101,986	0,15
1102,399	0,15
1102,812	0,15
1103,225	0,14
1103,637	0,14
1104,05	0,14
1104,463	0,14
1104,875	0,14
1105,288	0,14
1105,7	0,13
1106,113	0,13
1106,525	0,13
1106,938	0,13
1107,35	0,12
1107,763	0,12
1108,175	0,12
1108,588	0,12
1109	0,12
1109,412	0,11
1109,824	0,11
1110,237	0,11
1110,649	0,11
1111,061	0,12
