Data from 18C-808nm-8A_Absorbance__1214__01214.txt Node

Date: Mon Jul 17 17:06:58 CEST 2023
User: Laser008
Spectrometer: MAYP115816
Trigger mode: 0
Integration Time (sec): 2,500000E-1
Scans to average: 10
Electric dark correction enabled: true
Nonlinearity correction enabled: true
Boxcar width: 5
XAxis mode: Wavelengths
Number of Pixels in Spectrum: 2068
>>>>>Begin Spectral Data<<<<<
198,914	-0,73
199,384	-0,5
199,855	-0,39
200,325	-0,31
200,796	-0,27
201,266	-0,22
201,737	-0,21
202,207	-0,2
202,677	-0,2
203,147	-0,18
203,618	-0,14
204,088	-0,13
204,558	-0,12
205,028	-0,11
205,498	-0,11
205,968	-0,12
206,439	-0,14
206,909	-0,13
207,379	-0,14
207,849	-0,13
208,319	-0,14
208,789	-0,14
209,258	-0,14
209,728	-0,15
210,198	-0,14
210,668	-0,15
211,138	-0,14
211,608	-0,14
212,077	-0,14
212,547	-0,14
213,017	-0,14
213,486	-0,14
213,956	-0,15
214,426	-0,16
214,895	-0,16
215,365	-0,17
215,834	-0,17
216,304	-0,18
216,773	-0,17
217,243	-0,19
217,712	-0,2
218,181	-0,2
218,651	-0,21
219,12	-0,21
219,589	-0,21
220,058	-0,19
220,528	-0,2
220,997	-0,21
221,466	-0,22
221,935	-0,23
222,404	-0,22
222,873	-0,21
223,342	-0,2
223,812	-0,2
224,281	-0,19
224,749	-0,2
225,218	-0,21
225,687	-0,21
226,156	-0,19
226,625	-0,18
227,094	-0,18
227,563	-0,18
228,031	-0,2
228,5	-0,2
228,969	-0,2
229,438	-0,2
229,906	-0,19
230,375	-0,18
230,844	-0,18
231,312	-0,18
231,781	-0,19
232,249	-0,17
232,718	-0,18
233,186	-0,16
233,655	-0,17
234,123	-0,16
234,591	-0,16
235,06	-0,17
235,528	-0,18
235,996	-0,18
236,465	-0,18
236,933	-0,18
237,401	-0,19
237,869	-0,17
238,337	-0,18
238,805	-0,17
239,274	-0,17
239,742	-0,17
240,21	-0,16
240,678	-0,15
241,146	-0,14
241,614	-0,13
242,081	-0,13
242,549	-0,12
243,017	-0,13
243,485	-0,13
243,953	-0,13
244,421	-0,12
244,888	-0,12
245,356	-0,12
245,824	-0,12
246,291	-0,13
246,759	-0,14
247,227	-0,14
247,694	-0,13
248,162	-0,12
248,629	-0,12
249,097	-0,12
249,564	-0,13
250,032	-0,13
250,499	-0,13
250,967	-0,13
251,434	-0,14
251,901	-0,13
252,369	-0,13
252,836	-0,14
253,303	-0,15
253,77	-0,16
254,237	-0,16
254,705	-0,16
255,172	-0,15
255,639	-0,15
256,106	-0,17
256,573	-0,17
257,04	-0,18
257,507	-0,19
257,974	-0,2
258,441	-0,19
258,908	-0,19
259,375	-0,2
259,841	-0,2
260,308	-0,21
260,775	-0,2
261,242	-0,19
261,709	-0,19
262,175	-0,2
262,642	-0,19
263,109	-0,18
263,575	-0,19
264,042	-0,18
264,508	-0,18
264,975	-0,19
265,441	-0,2
265,908	-0,2
266,374	-0,2
266,841	-0,21
267,307	-0,21
267,773	-0,21
268,24	-0,21
268,706	-0,21
269,172	-0,22
269,639	-0,22
270,105	-0,21
270,571	-0,22
271,037	-0,22
271,503	-0,24
271,969	-0,23
272,435	-0,22
272,902	-0,23
273,368	-0,25
273,834	-0,25
274,3	-0,25
274,765	-0,26
275,231	-0,27
275,697	-0,26
276,163	-0,25
276,629	-0,24
277,095	-0,25
277,56	-0,24
278,026	-0,25
278,492	-0,23
278,958	-0,22
279,423	-0,22
279,889	-0,21
280,354	-0,2
280,82	-0,21
281,286	-0,22
281,751	-0,22
282,217	-0,21
282,682	-0,21
283,147	-0,21
283,613	-0,22
284,078	-0,23
284,544	-0,24
285,009	-0,24
285,474	-0,24
285,939	-0,26
286,405	-0,25
286,87	-0,24
287,335	-0,24
287,8	-0,23
288,265	-0,22
288,73	-0,23
289,195	-0,25
289,66	-0,24
290,125	-0,23
290,59	-0,23
291,055	-0,21
291,52	-0,21
291,985	-0,22
292,45	-0,23
292,915	-0,24
293,38	-0,24
293,844	-0,22
294,309	-0,22
294,774	-0,21
295,239	-0,22
295,703	-0,23
296,168	-0,22
296,632	-0,22
297,097	-0,19
297,562	-0,18
298,026	-0,18
298,491	-0,18
298,955	-0,18
299,419	-0,17
299,884	-0,17
300,348	-0,16
300,813	-0,16
301,277	-0,17
301,741	-0,17
302,205	-0,17
302,67	-0,16
303,134	-0,17
303,598	-0,16
304,062	-0,16
304,526	-0,16
304,99	-0,17
305,454	-0,16
305,919	-0,15
306,383	-0,15
306,847	-0,15
307,31	-0,16
307,774	-0,16
308,238	-0,16
308,702	-0,16
309,166	-0,18
309,63	-0,18
310,094	-0,15
310,557	-0,15
311,021	-0,15
311,485	-0,15
311,948	-0,14
312,412	-0,14
312,876	-0,13
313,339	-0,14
313,803	-0,15
314,266	-0,14
314,73	-0,14
315,193	-0,15
315,657	-0,14
316,12	-0,14
316,584	-0,12
317,047	-0,13
317,51	-0,12
317,973	-0,11
318,437	-0,1
318,9	-0,09
319,363	-0,09
319,826	-0,08
320,29	-0,08
320,753	-0,08
321,216	-0,07
321,679	-0,08
322,142	-0,08
322,605	-0,08
323,068	-0,08
323,531	-0,08
323,994	-0,07
324,457	-0,08
324,92	-0,07
325,382	-0,07
325,845	-0,07
326,308	-0,06
326,771	-0,05
327,233	-0,05
327,696	-0,04
328,159	-0,04
328,622	-0,03
329,084	-0,03
329,547	-0,02
330,009	-0,01
330,472	-0
330,934	0
331,397	0
331,859	0,01
332,322	0,01
332,784	0,01
333,246	0,02
333,709	0,01
334,171	0,02
334,633	0,02
335,096	0,01
335,558	0,02
336,02	0,02
336,482	0,02
336,944	0,02
337,406	0,03
337,868	0,03
338,331	0,03
338,793	0,05
339,255	0,05
339,717	0,06
340,178	0,06
340,64	0,07
341,102	0,08
341,564	0,09
342,026	0,09
342,488	0,1
342,949	0,11
343,411	0,13
343,873	0,15
344,335	0,18
344,796	0,21
345,258	0,24
345,719	0,27
346,181	0,3
346,643	0,33
347,104	0,35
347,566	0,37
348,027	0,38
348,488	0,4
348,95	0,41
349,411	0,42
349,873	0,43
350,334	0,44
350,795	0,45
351,256	0,46
351,718	0,46
352,179	0,46
352,64	0,46
353,101	0,47
353,562	0,47
354,023	0,47
354,484	0,47
354,945	0,47
355,406	0,47
355,867	0,47
356,328	0,48
356,789	0,48
357,25	0,48
357,711	0,48
358,172	0,48
358,633	0,48
359,093	0,49
359,554	0,49
360,015	0,49
360,476	0,49
360,936	0,49
361,397	0,49
361,858	0,49
362,318	0,49
362,779	0,49
363,239	0,49
363,7	0,49
364,16	0,49
364,621	0,49
365,081	0,49
365,541	0,49
366,002	0,49
366,462	0,49
366,922	0,48
367,383	0,48
367,843	0,48
368,303	0,48
368,763	0,48
369,223	0,48
369,684	0,48
370,144	0,49
370,604	0,49
371,064	0,49
371,524	0,49
371,984	0,49
372,444	0,49
372,904	0,49
373,363	0,48
373,823	0,48
374,283	0,48
374,743	0,48
375,203	0,48
375,663	0,48
376,122	0,48
376,582	0,48
377,042	0,48
377,501	0,48
377,961	0,48
378,42	0,48
378,88	0,48
379,34	0,48
379,799	0,48
380,259	0,48
380,718	0,48
381,177	0,48
381,637	0,48
382,096	0,48
382,555	0,48
383,015	0,48
383,474	0,48
383,933	0,48
384,393	0,48
384,852	0,48
385,311	0,48
385,77	0,48
386,229	0,48
386,688	0,48
387,147	0,48
387,606	0,48
388,065	0,47
388,524	0,47
388,983	0,47
389,442	0,47
389,901	0,47
390,36	0,47
390,819	0,47
391,277	0,47
391,736	0,47
392,195	0,47
392,654	0,47
393,112	0,47
393,571	0,47
394,03	0,47
394,488	0,47
394,947	0,47
395,405	0,47
395,864	0,47
396,322	0,47
396,781	0,47
397,239	0,47
397,698	0,47
398,156	0,47
398,614	0,47
399,073	0,47
399,531	0,47
399,989	0,47
400,447	0,47
400,905	0,47
401,364	0,47
401,822	0,47
402,28	0,47
402,738	0,47
403,196	0,47
403,654	0,47
404,112	0,47
404,57	0,47
405,028	0,47
405,486	0,47
405,944	0,47
406,402	0,46
406,859	0,46
407,317	0,46
407,775	0,46
408,233	0,46
408,691	0,46
409,148	0,46
409,606	0,46
410,064	0,46
410,521	0,46
410,979	0,46
411,436	0,46
411,894	0,46
412,351	0,46
412,809	0,46
413,266	0,46
413,724	0,46
414,181	0,46
414,638	0,46
415,096	0,46
415,553	0,46
416,01	0,46
416,467	0,46
416,925	0,46
417,382	0,46
417,839	0,46
418,296	0,46
418,753	0,46
419,21	0,46
419,667	0,46
420,124	0,46
420,581	0,46
421,038	0,46
421,495	0,46
421,952	0,46
422,409	0,46
422,866	0,46
423,322	0,46
423,779	0,46
424,236	0,46
424,693	0,46
425,149	0,46
425,606	0,46
426,063	0,46
426,519	0,46
426,976	0,46
427,433	0,46
427,889	0,46
428,346	0,46
428,802	0,46
429,258	0,46
429,715	0,46
430,171	0,46
430,628	0,46
431,084	0,46
431,54	0,46
431,997	0,46
432,453	0,46
432,909	0,46
433,365	0,45
433,821	0,45
434,277	0,45
434,734	0,45
435,19	0,45
435,646	0,45
436,102	0,45
436,558	0,45
437,014	0,45
437,47	0,45
437,925	0,45
438,381	0,45
438,837	0,45
439,293	0,45
439,749	0,45
440,205	0,45
440,66	0,45
441,116	0,45
441,572	0,45
442,027	0,45
442,483	0,45
442,939	0,45
443,394	0,45
443,85	0,45
444,305	0,45
444,761	0,45
445,216	0,45
445,672	0,45
446,127	0,45
446,582	0,45
447,038	0,45
447,493	0,45
447,948	0,46
448,403	0,46
448,859	0,46
449,314	0,46
449,769	0,46
450,224	0,46
450,679	0,46
451,134	0,46
451,589	0,46
452,044	0,46
452,499	0,46
452,954	0,46
453,409	0,46
453,864	0,46
454,319	0,46
454,774	0,46
455,229	0,46
455,684	0,46
456,138	0,46
456,593	0,46
457,048	0,46
457,503	0,46
457,957	0,46
458,412	0,46
458,866	0,46
459,321	0,46
459,776	0,46
460,23	0,46
460,685	0,46
461,139	0,46
461,593	0,46
462,048	0,46
462,502	0,46
462,957	0,46
463,411	0,46
463,865	0,46
464,319	0,46
464,774	0,46
465,228	0,46
465,682	0,46
466,136	0,46
466,59	0,46
467,044	0,47
467,499	0,47
467,953	0,47
468,407	0,47
468,861	0,47
469,315	0,47
469,768	0,47
470,222	0,47
470,676	0,47
471,13	0,47
471,584	0,47
472,038	0,47
472,491	0,47
472,945	0,47
473,399	0,47
473,852	0,47
474,306	0,47
474,76	0,47
475,213	0,47
475,667	0,47
476,12	0,47
476,574	0,48
477,027	0,48
477,481	0,48
477,934	0,48
478,388	0,48
478,841	0,48
479,294	0,48
479,748	0,48
480,201	0,48
480,654	0,48
481,107	0,49
481,561	0,49
482,014	0,49
482,467	0,49
482,92	0,49
483,373	0,49
483,826	0,49
484,279	0,49
484,732	0,49
485,185	0,49
485,638	0,5
486,091	0,5
486,544	0,5
486,997	0,5
487,449	0,5
487,902	0,5
488,355	0,5
488,808	0,51
489,26	0,51
489,713	0,51
490,166	0,51
490,618	0,51
491,071	0,51
491,523	0,52
491,976	0,52
492,429	0,52
492,881	0,52
493,333	0,52
493,786	0,52
494,238	0,53
494,691	0,53
495,143	0,53
495,595	0,53
496,048	0,54
496,5	0,54
496,952	0,54
497,404	0,54
497,856	0,54
498,309	0,55
498,761	0,55
499,213	0,55
499,665	0,55
500,117	0,56
500,569	0,56
501,021	0,56
501,473	0,57
501,925	0,57
502,377	0,57
502,828	0,57
503,28	0,58
503,732	0,58
504,184	0,58
504,636	0,58
505,087	0,59
505,539	0,59
505,991	0,59
506,442	0,59
506,894	0,59
507,345	0,6
507,797	0,6
508,249	0,6
508,7	0,6
509,151	0,61
509,603	0,61
510,054	0,61
510,506	0,62
510,957	0,62
511,408	0,62
511,86	0,62
512,311	0,62
512,762	0,63
513,213	0,63
513,665	0,63
514,116	0,63
514,567	0,64
515,018	0,64
515,469	0,64
515,92	0,64
516,371	0,64
516,822	0,65
517,273	0,65
517,724	0,65
518,175	0,65
518,626	0,66
519,076	0,66
519,527	0,66
519,978	0,66
520,429	0,66
520,88	0,66
521,33	0,66
521,781	0,67
522,232	0,67
522,682	0,67
523,133	0,67
523,583	0,67
524,034	0,67
524,484	0,67
524,935	0,67
525,385	0,67
525,836	0,67
526,286	0,67
526,736	0,67
527,187	0,67
527,637	0,67
528,087	0,67
528,538	0,67
528,988	0,67
529,438	0,67
529,888	0,67
530,338	0,67
530,788	0,67
531,238	0,67
531,688	0,67
532,139	0,67
532,589	0,67
533,038	0,67
533,488	0,67
533,938	0,67
534,388	0,67
534,838	0,67
535,288	0,66
535,738	0,66
536,187	0,66
536,637	0,66
537,087	0,66
537,537	0,65
537,986	0,65
538,436	0,65
538,885	0,65
539,335	0,64
539,785	0,64
540,234	0,64
540,684	0,63
541,133	0,63
541,582	0,63
542,032	0,63
542,481	0,62
542,931	0,62
543,38	0,62
543,829	0,62
544,278	0,61
544,728	0,61
545,177	0,61
545,626	0,61
546,075	0,6
546,524	0,6
546,973	0,6
547,422	0,6
547,871	0,59
548,32	0,59
548,769	0,59
549,218	0,59
549,667	0,59
550,116	0,59
550,565	0,59
551,014	0,58
551,463	0,58
551,911	0,58
552,36	0,58
552,809	0,58
553,258	0,57
553,706	0,57
554,155	0,57
554,603	0,57
555,052	0,56
555,501	0,56
555,949	0,56
556,398	0,56
556,846	0,55
557,294	0,55
557,743	0,55
558,191	0,55
558,64	0,54
559,088	0,54
559,536	0,54
559,985	0,54
560,433	0,53
560,881	0,53
561,329	0,53
561,777	0,53
562,225	0,52
562,674	0,52
563,122	0,52
563,57	0,52
564,018	0,52
564,466	0,51
564,914	0,51
565,362	0,51
565,809	0,51
566,257	0,5
566,705	0,5
567,153	0,5
567,601	0,5
568,048	0,49
568,496	0,49
568,944	0,49
569,392	0,49
569,839	0,49
570,287	0,48
570,734	0,48
571,182	0,48
571,63	0,48
572,077	0,48
572,525	0,47
572,972	0,47
573,419	0,47
573,867	0,47
574,314	0,46
574,761	0,46
575,209	0,46
575,656	0,46
576,103	0,46
576,551	0,46
576,998	0,46
577,445	0,45
577,892	0,45
578,339	0,45
578,786	0,45
579,233	0,45
579,68	0,45
580,127	0,45
580,574	0,44
581,021	0,44
581,468	0,44
581,915	0,44
582,362	0,44
582,809	0,44
583,255	0,44
583,702	0,43
584,149	0,43
584,596	0,43
585,042	0,43
585,489	0,43
585,936	0,43
586,382	0,43
586,829	0,42
587,275	0,42
587,722	0,42
588,168	0,42
588,615	0,42
589,061	0,42
589,508	0,42
589,954	0,42
590,4	0,42
590,847	0,42
591,293	0,42
591,739	0,41
592,185	0,41
592,632	0,41
593,078	0,41
593,524	0,41
593,97	0,41
594,416	0,41
594,862	0,41
595,308	0,41
595,754	0,41
596,2	0,41
596,646	0,4
597,092	0,4
597,538	0,4
597,984	0,4
598,43	0,4
598,876	0,4
599,321	0,4
599,767	0,4
600,213	0,4
600,659	0,4
601,104	0,4
601,55	0,4
601,995	0,39
602,441	0,39
602,887	0,39
603,332	0,39
603,778	0,39
604,223	0,39
604,668	0,39
605,114	0,39
605,559	0,39
606,005	0,39
606,45	0,39
606,895	0,39
607,341	0,39
607,786	0,39
608,231	0,39
608,676	0,38
609,121	0,38
609,566	0,38
610,012	0,37
610,457	0,37
610,902	0,37
611,347	0,37
611,792	0,36
612,237	0,36
612,682	0,36
613,127	0,36
613,571	0,36
614,016	0,37
614,461	0,37
614,906	0,37
615,351	0,37
615,795	0,37
616,24	0,37
616,685	0,37
617,129	0,37
617,574	0,37
618,019	0,37
618,463	0,37
618,908	0,37
619,352	0,37
619,797	0,37
620,241	0,37
620,686	0,37
621,13	0,37
621,574	0,37
622,019	0,37
622,463	0,37
622,907	0,37
623,352	0,37
623,796	0,37
624,24	0,37
624,684	0,36
625,128	0,36
625,572	0,36
626,016	0,36
626,461	0,36
626,905	0,36
627,349	0,36
627,793	0,36
628,236	0,36
628,68	0,36
629,124	0,36
629,568	0,36
630,012	0,36
630,456	0,36
630,9	0,36
631,343	0,36
631,787	0,36
632,231	0,36
632,674	0,36
633,118	0,36
633,562	0,36
634,005	0,36
634,449	0,36
634,892	0,36
635,336	0,36
635,779	0,36
636,223	0,36
636,666	0,36
637,109	0,36
637,553	0,36
637,996	0,36
638,439	0,36
638,883	0,36
639,326	0,36
639,769	0,36
640,212	0,36
640,655	0,35
641,099	0,35
641,542	0,35
641,985	0,35
642,428	0,35
642,871	0,35
643,314	0,35
643,757	0,35
644,2	0,35
644,643	0,35
645,085	0,35
645,528	0,35
645,971	0,35
646,414	0,35
646,857	0,35
647,299	0,35
647,742	0,35
648,185	0,35
648,627	0,35
649,07	0,35
649,513	0,35
649,955	0,35
650,398	0,35
650,84	0,35
651,283	0,35
651,725	0,35
652,168	0,35
652,61	0,35
653,052	0,35
653,495	0,34
653,937	0,27
654,379	0,21
654,821	0,22
655,264	0,22
655,706	0,22
656,148	0,22
656,59	0,22
657,032	0,22
657,474	0,22
657,916	0,22
658,358	0,21
658,8	0,27
659,242	0,35
659,684	0,35
660,126	0,35
660,568	0,35
661,01	0,35
661,452	0,35
661,894	0,35
662,335	0,35
662,777	0,34
663,219	0,34
663,661	0,34
664,102	0,34
664,544	0,34
664,985	0,34
665,427	0,34
665,869	0,34
666,31	0,34
666,752	0,34
667,193	0,34
667,634	0,34
668,076	0,34
668,517	0,34
668,959	0,34
669,4	0,34
669,841	0,34
670,282	0,34
670,724	0,34
671,165	0,34
671,606	0,34
672,047	0,34
672,488	0,34
672,929	0,34
673,37	0,34
673,811	0,34
674,252	0,34
674,693	0,34
675,134	0,34
675,575	0,34
676,016	0,34
676,457	0,34
676,898	0,34
677,339	0,34
677,78	0,34
678,22	0,34
678,661	0,34
679,102	0,34
679,542	0,34
679,983	0,34
680,424	0,34
680,864	0,34
681,305	0,34
681,745	0,34
682,186	0,34
682,626	0,34
683,067	0,34
683,507	0,34
683,948	0,34
684,388	0,34
684,828	0,34
685,269	0,33
685,709	0,33
686,149	0,33
686,589	0,33
687,029	0,33
687,47	0,33
687,91	0,33
688,35	0,33
688,79	0,33
689,23	0,33
689,67	0,33
690,11	0,33
690,55	0,33
690,99	0,33
691,43	0,33
691,87	0,33
692,31	0,33
692,749	0,33
693,189	0,32
693,629	0,32
694,069	0,32
694,508	0,32
694,948	0,32
695,388	0,32
695,827	0,32
696,267	0,33
696,706	0,33
697,146	0,33
697,586	0,33
698,025	0,33
698,464	0,33
698,904	0,33
699,343	0,33
699,783	0,33
700,222	0,33
700,661	0,33
701,101	0,33
701,54	0,33
701,979	0,33
702,418	0,33
702,857	0,33
703,297	0,33
703,736	0,33
704,175	0,33
704,614	0,33
705,053	0,33
705,492	0,32
705,931	0,32
706,37	0,32
706,809	0,32
707,248	0,32
707,687	0,32
708,125	0,32
708,564	0,32
709,003	0,32
709,442	0,32
709,88	0,32
710,319	0,32
710,758	0,32
711,196	0,32
711,635	0,32
712,074	0,32
712,512	0,32
712,951	0,32
713,389	0,32
713,828	0,32
714,266	0,32
714,705	0,31
715,143	0,31
715,581	0,31
716,02	0,31
716,458	0,31
716,896	0,31
717,334	0,31
717,773	0,31
718,211	0,31
718,649	0,31
719,087	0,31
719,525	0,31
719,963	0,31
720,401	0,31
720,839	0,31
721,277	0,31
721,715	0,31
722,153	0,31
722,591	0,31
723,029	0,31
723,467	0,31
723,905	0,31
724,342	0,31
724,78	0,31
725,218	0,31
725,656	0,31
726,093	0,31
726,531	0,31
726,969	0,31
727,406	0,31
727,844	0,31
728,281	0,31
728,719	0,31
729,156	0,31
729,594	0,31
730,031	0,31
730,469	0,31
730,906	0,31
731,343	0,31
731,781	0,31
732,218	0,31
732,655	0,31
733,092	0,31
733,53	0,31
733,967	0,31
734,404	0,31
734,841	0,31
735,278	0,31
735,715	0,31
736,152	0,31
736,589	0,31
737,026	0,3
737,463	0,3
737,9	0,3
738,337	0,3
738,774	0,3
739,211	0,3
739,647	0,3
740,084	0,3
740,521	0,3
740,958	0,3
741,394	0,3
741,831	0,3
742,268	0,3
742,704	0,3
743,141	0,29
743,577	0,29
744,014	0,29
744,45	0,29
744,887	0,29
745,323	0,29
745,76	0,29
746,196	0,28
746,632	0,28
747,069	0,28
747,505	0,28
747,941	0,28
748,378	0,28
748,814	0,29
749,25	0,29
749,686	0,29
750,122	0,29
750,558	0,29
750,994	0,29
751,43	0,29
751,866	0,3
752,302	0,3
752,738	0,3
753,174	0,3
753,61	0,3
754,046	0,3
754,482	0,3
754,918	0,3
755,354	0,3
755,789	0,3
756,225	0,3
756,661	0,3
757,096	0,3
757,532	0,3
757,968	0,3
758,403	0,29
758,839	0,29
759,274	0,29
759,71	0,29
760,145	0,28
760,581	0,28
761,016	0,28
761,452	0,27
761,887	0,27
762,322	0,27
762,758	0,26
763,193	0,26
763,628	0,25
764,063	0,25
764,499	0,24
764,934	0,24
765,369	0,23
765,804	0,23
766,239	0,22
766,674	0,22
767,109	0,21
767,544	0,2
767,979	0,19
768,414	0,19
768,849	0,18
769,284	0,18
769,719	0,17
770,154	0,16
770,588	0,16
771,023	0,15
771,458	0,14
771,893	0,13
772,327	0,11
772,762	0,11
773,197	0,1
773,631	0,09
774,066	0,08
774,5	0,08
774,935	0,07
775,369	0,06
775,804	0,05
776,238	0,05
776,673	0,04
777,107	0,03
777,541	0,02
777,976	0,02
778,41	0,01
778,844	0
779,279	-0,01
779,713	-0,02
780,147	-0,02
780,581	-0,03
781,015	-0,04
781,449	-0,04
781,883	-0,05
782,317	-0,06
782,751	-0,08
783,185	-0,08
783,619	-0,09
784,053	-0,1
784,487	-0,11
784,921	-0,11
785,355	-0,12
785,789	-0,13
786,223	-0,14
786,656	-0,15
787,09	-0,16
787,524	-0,16
787,957	-0,17
788,391	-0,19
788,825	-0,21
789,258	-0,22
789,692	-0,23
790,125	-0,25
790,559	-0,26
790,992	-0,28
791,426	-0,3
791,859	-0,32
792,293	-0,35
792,726	-0,36
793,159	-0,38
793,593	-0,4
794,026	-0,42
794,459	-0,45
794,892	-0,48
795,326	-0,5
795,759	-0,54
796,192	-0,58
796,625	-0,63
797,058	-0,65
797,491	-0,7
797,924	-0,74
798,357	-0,79
798,79	-0,83
799,223	-0,87
799,656	-0,93
800,089	-0,98
800,522	-1,02
800,955	-1,06
801,387	-1,12
801,82	-1,17
802,253	-1,23
802,686	-1,31
803,118	-1,37
803,551	-1,42
803,984	-1,46
804,416	-1,5
804,849	-1,53
805,281	-1,64
805,714	-1,95
806,146	-2,43
806,579	-2,69
807,011	-2,86
807,444	-2,96
807,876	-3,05
808,308	-3,09
808,741	-3,12
809,173	-3,17
809,605	-3,19
810,037	-3,27
810,47	-3,19
810,902	-3
811,334	-2,86
811,766	-2,71
812,198	-2,49
812,63	-2,07
813,062	-1,83
813,494	-1,73
813,926	-1,64
814,358	-1,58
814,79	-1,5
815,222	-1,44
815,654	-1,39
816,086	-1,33
816,518	-1,27
816,949	-1,22
817,381	-1,18
817,813	-1,16
818,245	-1,12
818,676	-1,08
819,108	-1,04
819,54	-1,02
819,971	-1
820,403	-0,95
820,834	-0,94
821,266	-0,89
821,697	-0,86
822,129	-0,85
822,56	-0,82
822,991	-0,8
823,423	-0,77
823,854	-0,76
824,286	-0,73
824,717	-0,72
825,148	-0,7
825,579	-0,69
826,01	-0,67
826,442	-0,66
826,873	-0,65
827,304	-0,61
827,735	-0,6
828,166	-0,61
828,597	-0,6
829,028	-0,6
829,459	-0,6
829,89	-0,6
830,321	-0,56
830,752	-0,58
831,183	-0,56
831,613	-0,55
832,044	-0,55
832,475	-0,54
832,906	-0,55
833,336	-0,56
833,767	-0,56
834,198	-0,55
834,628	-0,54
835,059	-0,56
835,49	-0,57
835,92	-0,54
836,351	-0,54
836,781	-0,55
837,212	-0,57
837,642	-0,57
838,072	-0,55
838,503	-0,55
838,933	-0,53
839,364	-0,53
839,794	-0,51
840,224	-0,5
840,654	-0,54
841,085	-0,55
841,515	-0,52
841,945	-0,53
842,375	-0,48
842,805	-0,47
843,235	-0,46
843,665	-0,47
844,095	-0,46
844,525	-0,49
844,955	-0,49
845,385	-0,47
845,815	-0,45
846,245	-0,47
846,675	-0,48
847,105	-0,5
847,534	-0,5
847,964	-0,48
848,394	-0,47
848,824	-0,51
849,253	-0,5
849,683	-0,49
850,112	-0,5
850,542	-0,53
850,972	-0,54
851,401	-0,51
851,831	-0,5
852,26	-0,5
852,69	-0,54
853,119	-0,54
853,548	-0,53
853,978	-0,53
854,407	-0,52
854,836	-0,52
855,266	-0,52
855,695	-0,52
856,124	-0,53
856,553	-0,54
856,983	-0,56
857,412	-0,55
857,841	-0,56
858,27	-0,56
858,699	-0,57
859,128	-0,6
859,557	-0,61
859,986	-0,61
860,415	-0,6
860,844	-0,57
861,273	-0,58
861,702	-0,58
862,13	-0,57
862,559	-0,58
862,988	-0,55
863,417	-0,55
863,845	-0,53
864,274	-0,54
864,703	-0,54
865,131	-0,54
865,56	-0,56
865,989	-0,59
866,417	-0,55
866,846	-0,56
867,274	-0,55
867,703	-0,57
868,131	-0,58
868,559	-0,59
868,988	-0,61
869,416	-0,6
869,844	-0,61
870,273	-0,63
870,701	-0,61
871,129	-0,65
871,557	-0,67
871,986	-0,67
872,414	-0,68
872,842	-0,66
873,27	-0,64
873,698	-0,61
874,126	-0,64
874,554	-0,62
874,982	-0,62
875,41	-0,65
875,838	-0,6
876,266	-0,58
876,694	-0,58
877,122	-0,57
877,549	-0,63
877,977	-0,59
878,405	-0,62
878,833	-0,58
879,26	-0,57
879,688	-0,56
880,116	-0,54
880,543	-0,53
880,971	-0,52
881,399	-0,55
881,826	-0,56
882,254	-0,53
882,681	-0,58
883,109	-0,54
883,536	-0,56
883,963	-0,58
884,391	-0,57
884,818	-0,56
885,245	-0,59
885,673	-0,6
886,1	-0,58
886,527	-0,57
886,954	-0,54
887,381	-0,55
887,809	-0,56
888,236	-0,57
888,663	-0,58
889,09	-0,62
889,517	-0,63
889,944	-0,64
890,371	-0,63
890,798	-0,63
891,225	-0,63
891,652	-0,65
892,078	-0,63
892,505	-0,66
892,932	-0,61
893,359	-0,62
893,786	-0,62
894,212	-0,59
894,639	-0,6
895,066	-0,62
895,492	-0,56
895,919	-0,57
896,346	-0,57
896,772	-0,57
897,199	-0,54
897,625	-0,57
898,052	-0,53
898,478	-0,51
898,904	-0,52
899,331	-0,52
899,757	-0,54
900,183	-0,56
900,61	-0,54
901,036	-0,55
901,462	-0,55
901,888	-0,55
902,315	-0,54
902,741	-0,58
903,167	-0,57
903,593	-0,6
904,019	-0,59
904,445	-0,56
904,871	-0,59
905,297	-0,61
905,723	-0,61
906,149	-0,6
906,575	-0,61
907,001	-0,61
907,427	-0,58
907,852	-0,59
908,278	-0,59
908,704	-0,57
909,13	-0,56
909,555	-0,55
909,981	-0,54
910,407	-0,54
910,832	-0,53
911,258	-0,53
911,684	-0,53
912,109	-0,53
912,535	-0,54
912,96	-0,5
913,386	-0,54
913,811	-0,53
914,236	-0,56
914,662	-0,53
915,087	-0,57
915,512	-0,57
915,938	-0,6
916,363	-0,58
916,788	-0,59
917,213	-0,57
917,639	-0,61
918,064	-0,59
918,489	-0,59
918,914	-0,58
919,339	-0,6
919,764	-0,57
920,189	-0,57
920,614	-0,58
921,039	-0,58
921,464	-0,55
921,889	-0,58
922,314	-0,59
922,738	-0,62
923,163	-0,63
923,588	-0,63
924,013	-0,63
924,437	-0,62
924,862	-0,63
925,287	-0,6
925,711	-0,61
926,136	-0,62
926,561	-0,6
926,985	-0,59
927,41	-0,56
927,834	-0,53
928,259	-0,51
928,683	-0,49
929,108	-0,47
929,532	-0,48
929,956	-0,48
930,381	-0,47
930,805	-0,47
931,229	-0,46
931,653	-0,45
932,078	-0,45
932,502	-0,47
932,926	-0,48
933,35	-0,48
933,774	-0,47
934,198	-0,45
934,622	-0,44
935,046	-0,46
935,47	-0,45
935,894	-0,45
936,318	-0,45
936,742	-0,45
937,166	-0,44
937,59	-0,43
938,014	-0,45
938,437	-0,46
938,861	-0,48
939,285	-0,49
939,709	-0,48
940,132	-0,49
940,556	-0,5
940,98	-0,49
941,403	-0,48
941,827	-0,49
942,25	-0,5
942,674	-0,49
943,097	-0,48
943,521	-0,48
943,944	-0,5
944,368	-0,48
944,791	-0,46
945,214	-0,48
945,638	-0,49
946,061	-0,52
946,484	-0,52
946,907	-0,5
947,331	-0,51
947,754	-0,55
948,177	-0,52
948,6	-0,51
949,023	-0,52
949,446	-0,52
949,869	-0,49
950,292	-0,49
950,715	-0,46
951,138	-0,45
951,561	-0,42
951,984	-0,43
952,407	-0,4
952,83	-0,38
953,252	-0,34
953,675	-0,35
954,098	-0,36
954,521	-0,35
954,943	-0,35
955,366	-0,35
955,789	-0,34
956,211	-0,36
956,634	-0,37
957,056	-0,35
957,479	-0,36
957,902	-0,39
958,324	-0,39
958,746	-0,37
959,169	-0,39
959,591	-0,39
960,014	-0,4
960,436	-0,4
960,858	-0,39
961,281	-0,38
961,703	-0,4
962,125	-0,39
962,547	-0,37
962,969	-0,38
963,391	-0,38
963,814	-0,39
964,236	-0,37
964,658	-0,35
965,08	-0,35
965,502	-0,36
965,924	-0,34
966,346	-0,34
966,768	-0,34
967,189	-0,37
967,611	-0,36
968,033	-0,36
968,455	-0,34
968,877	-0,35
969,298	-0,36
969,72	-0,37
970,142	-0,36
970,563	-0,36
970,985	-0,35
971,407	-0,34
971,828	-0,32
972,25	-0,31
972,671	-0,3
973,093	-0,29
973,514	-0,27
973,936	-0,26
974,357	-0,25
974,778	-0,25
975,2	-0,25
975,621	-0,25
976,042	-0,22
976,464	-0,21
976,885	-0,2
977,306	-0,19
977,727	-0,19
978,148	-0,18
978,57	-0,16
978,991	-0,14
979,412	-0,13
979,833	-0,12
980,254	-0,12
980,675	-0,13
981,096	-0,12
981,517	-0,11
981,937	-0,12
982,358	-0,11
982,779	-0,09
983,2	-0,09
983,621	-0,09
984,042	-0,08
984,462	-0,06
984,883	-0,04
985,304	-0,03
985,724	-0,02
986,145	-0,01
986,565	0,01
986,986	0,01
987,407	0,02
987,827	0,04
988,248	0,05
988,668	0,05
989,088	0,06
989,509	0,07
989,929	0,08
990,35	0,09
990,77	0,1
991,19	0,11
991,61	0,12
992,031	0,13
992,451	0,14
992,871	0,15
993,291	0,15
993,711	0,16
994,131	0,16
994,551	0,17
994,971	0,17
995,391	0,17
995,811	0,18
996,231	0,18
996,651	0,19
997,071	0,19
997,491	0,2
997,911	0,2
998,331	0,2
998,75	0,21
999,17	0,22
999,59	0,22
1000,009	0,22
1000,429	0,23
1000,849	0,23
1001,268	0,23
1001,688	0,24
1002,107	0,24
1002,527	0,24
1002,946	0,24
1003,366	0,25
1003,785	0,25
1004,205	0,25
1004,624	0,25
1005,044	0,25
1005,463	0,25
1005,882	0,25
1006,301	0,25
1006,721	0,26
1007,14	0,26
1007,559	0,26
1007,978	0,26
1008,397	0,26
1008,816	0,26
1009,235	0,26
1009,655	0,25
1010,074	0,25
1010,492	0,25
1010,911	0,25
1011,33	0,25
1011,749	0,25
1012,168	0,25
1012,587	0,25
1013,006	0,25
1013,425	0,25
1013,843	0,25
1014,262	0,25
1014,681	0,25
1015,099	0,25
1015,518	0,25
1015,937	0,25
1016,355	0,25
1016,774	0,25
1017,192	0,25
1017,611	0,25
1018,029	0,25
1018,448	0,25
1018,866	0,25
1019,285	0,25
1019,703	0,25
1020,121	0,25
1020,54	0,25
1020,958	0,25
1021,376	0,25
1021,794	0,25
1022,213	0,25
1022,631	0,25
1023,049	0,25
1023,467	0,25
1023,885	0,25
1024,303	0,25
1024,721	0,25
1025,139	0,25
1025,557	0,25
1025,975	0,25
1026,393	0,25
1026,811	0,24
1027,229	0,24
1027,647	0,24
1028,065	0,24
1028,482	0,24
1028,9	0,24
1029,318	0,24
1029,735	0,24
1030,153	0,24
1030,571	0,24
1030,988	0,24
1031,406	0,24
1031,823	0,24
1032,241	0,24
1032,659	0,24
1033,076	0,24
1033,493	0,24
1033,911	0,24
1034,328	0,24
1034,746	0,24
1035,163	0,24
1035,58	0,24
1035,997	0,24
1036,415	0,24
1036,832	0,24
1037,249	0,24
1037,666	0,24
1038,083	0,24
1038,501	0,24
1038,918	0,24
1039,335	0,24
1039,752	0,24
1040,169	0,24
1040,586	0,24
1041,003	0,24
1041,419	0,23
1041,836	0,23
1042,253	0,23
1042,67	0,23
1043,087	0,23
1043,504	0,23
1043,92	0,23
1044,337	0,23
1044,754	0,23
1045,17	0,23
1045,587	0,23
1046,004	0,23
1046,42	0,23
1046,837	0,23
1047,253	0,23
1047,67	0,23
1048,086	0,23
1048,503	0,23
1048,919	0,23
1049,335	0,23
1049,752	0,23
1050,168	0,23
1050,584	0,23
1051,001	0,23
1051,417	0,23
1051,833	0,23
1052,249	0,23
1052,665	0,23
1053,081	0,23
1053,497	0,23
1053,914	0,23
1054,33	0,23
1054,746	0,23
1055,162	0,23
1055,578	0,23
1055,993	0,23
1056,409	0,23
1056,825	0,24
1057,241	0,24
1057,657	0,24
1058,073	0,24
1058,488	0,24
1058,904	0,24
1059,32	0,24
1059,736	0,24
1060,151	0,24
1060,567	0,24
1060,982	0,24
1061,398	0,24
1061,813	0,24
1062,229	0,24
1062,644	0,24
1063,06	0,23
1063,475	0,23
1063,891	0,23
1064,306	0,23
1064,721	0,23
1065,137	0,23
1065,552	0,23
1065,967	0,23
1066,382	0,23
1066,798	0,23
1067,213	0,23
1067,628	0,23
1068,043	0,23
1068,458	0,23
1068,873	0,23
1069,288	0,23
1069,703	0,23
1070,118	0,23
1070,533	0,24
1070,948	0,24
1071,363	0,24
1071,778	0,24
1072,193	0,24
1072,607	0,24
1073,022	0,24
1073,437	0,24
1073,852	0,24
1074,266	0,24
1074,681	0,24
1075,096	0,24
1075,51	0,24
1075,925	0,24
1076,339	0,24
1076,754	0,24
1077,168	0,24
1077,583	0,24
1077,997	0,24
1078,412	0,24
1078,826	0,24
1079,24	0,24
1079,655	0,24
1080,069	0,24
1080,483	0,23
1080,897	0,23
1081,312	0,23
1081,726	0,23
1082,14	0,23
1082,554	0,23
1082,968	0,23
1083,382	0,23
1083,796	0,23
1084,21	0,23
1084,624	0,23
1085,038	0,22
1085,452	0,22
1085,866	0,22
1086,28	0,22
1086,694	0,22
1087,108	0,22
1087,521	0,22
1087,935	0,22
1088,349	0,22
1088,763	0,21
1089,176	0,21
1089,59	0,21
1090,004	0,21
1090,417	0,21
1090,831	0,2
1091,244	0,2
1091,658	0,2
1092,071	0,2
1092,485	0,2
1092,898	0,2
1093,312	0,19
1093,725	0,19
1094,138	0,19
1094,552	0,19
1094,965	0,19
1095,378	0,19
1095,791	0,19
1096,205	0,19
1096,618	0,19
1097,031	0,18
1097,444	0,18
1097,857	0,18
1098,27	0,18
1098,683	0,18
1099,096	0,18
1099,509	0,17
1099,922	0,17
1100,335	0,17
1100,748	0,16
1101,161	0,16
1101,574	0,16
1101,986	0,15
1102,399	0,15
1102,812	0,15
1103,225	0,14
1103,637	0,14
1104,05	0,14
1104,463	0,14
1104,875	0,14
1105,288	0,13
1105,7	0,13
1106,113	0,13
1106,525	0,13
1106,938	0,12
1107,35	0,12
1107,763	0,11
1108,175	0,11
1108,588	0,11
1109	0,1
1109,412	0,1
1109,824	0,1
1110,237	0,1
1110,649	0,1
1111,061	0,09
