Data from 18C-808nm-8A_Absorbance__839__00839.txt Node

Date: Mon Jul 17 16:51:21 CEST 2023
User: Laser008
Spectrometer: MAYP115816
Trigger mode: 0
Integration Time (sec): 2,500000E-1
Scans to average: 10
Electric dark correction enabled: true
Nonlinearity correction enabled: true
Boxcar width: 5
XAxis mode: Wavelengths
Number of Pixels in Spectrum: 2068
>>>>>Begin Spectral Data<<<<<
198,914	-0,7
199,384	-0,46
199,855	-0,34
200,325	-0,27
200,796	-0,25
201,266	-0,22
201,737	-0,2
202,207	-0,19
202,677	-0,18
203,147	-0,16
203,618	-0,14
204,088	-0,12
204,558	-0,12
205,028	-0,12
205,498	-0,12
205,968	-0,12
206,439	-0,13
206,909	-0,12
207,379	-0,12
207,849	-0,13
208,319	-0,14
208,789	-0,14
209,258	-0,14
209,728	-0,15
210,198	-0,15
210,668	-0,15
211,138	-0,14
211,608	-0,14
212,077	-0,15
212,547	-0,14
213,017	-0,14
213,486	-0,15
213,956	-0,15
214,426	-0,16
214,895	-0,15
215,365	-0,16
215,834	-0,17
216,304	-0,18
216,773	-0,18
217,243	-0,19
217,712	-0,2
218,181	-0,2
218,651	-0,2
219,12	-0,2
219,589	-0,2
220,058	-0,19
220,528	-0,2
220,997	-0,2
221,466	-0,21
221,935	-0,21
222,404	-0,2
222,873	-0,19
223,342	-0,19
223,812	-0,19
224,281	-0,19
224,749	-0,19
225,218	-0,2
225,687	-0,21
226,156	-0,19
226,625	-0,18
227,094	-0,18
227,563	-0,18
228,031	-0,19
228,5	-0,19
228,969	-0,2
229,438	-0,2
229,906	-0,19
230,375	-0,18
230,844	-0,17
231,312	-0,18
231,781	-0,19
232,249	-0,18
232,718	-0,18
233,186	-0,16
233,655	-0,17
234,123	-0,16
234,591	-0,17
235,06	-0,17
235,528	-0,18
235,996	-0,17
236,465	-0,16
236,933	-0,16
237,401	-0,16
237,869	-0,15
238,337	-0,15
238,805	-0,14
239,274	-0,14
239,742	-0,15
240,21	-0,14
240,678	-0,13
241,146	-0,13
241,614	-0,13
242,081	-0,13
242,549	-0,13
243,017	-0,14
243,485	-0,14
243,953	-0,13
244,421	-0,13
244,888	-0,13
245,356	-0,13
245,824	-0,13
246,291	-0,14
246,759	-0,14
247,227	-0,15
247,694	-0,13
248,162	-0,13
248,629	-0,12
249,097	-0,13
249,564	-0,13
250,032	-0,14
250,499	-0,14
250,967	-0,15
251,434	-0,15
251,901	-0,16
252,369	-0,16
252,836	-0,17
253,303	-0,19
253,77	-0,21
254,237	-0,2
254,705	-0,2
255,172	-0,19
255,639	-0,19
256,106	-0,2
256,573	-0,2
257,04	-0,2
257,507	-0,21
257,974	-0,21
258,441	-0,19
258,908	-0,19
259,375	-0,2
259,841	-0,2
260,308	-0,21
260,775	-0,21
261,242	-0,21
261,709	-0,21
262,175	-0,22
262,642	-0,21
263,109	-0,2
263,575	-0,22
264,042	-0,2
264,508	-0,2
264,975	-0,21
265,441	-0,22
265,908	-0,22
266,374	-0,22
266,841	-0,22
267,307	-0,22
267,773	-0,2
268,24	-0,21
268,706	-0,21
269,172	-0,23
269,639	-0,24
270,105	-0,22
270,571	-0,23
271,037	-0,23
271,503	-0,24
271,969	-0,23
272,435	-0,23
272,902	-0,25
273,368	-0,26
273,834	-0,25
274,3	-0,25
274,765	-0,24
275,231	-0,24
275,697	-0,22
276,163	-0,22
276,629	-0,21
277,095	-0,23
277,56	-0,22
278,026	-0,22
278,492	-0,21
278,958	-0,21
279,423	-0,21
279,889	-0,2
280,354	-0,21
280,82	-0,22
281,286	-0,23
281,751	-0,23
282,217	-0,23
282,682	-0,23
283,147	-0,23
283,613	-0,23
284,078	-0,24
284,544	-0,26
285,009	-0,27
285,474	-0,26
285,939	-0,27
286,405	-0,26
286,87	-0,25
287,335	-0,24
287,8	-0,24
288,265	-0,23
288,73	-0,24
289,195	-0,26
289,66	-0,25
290,125	-0,24
290,59	-0,24
291,055	-0,24
291,52	-0,23
291,985	-0,24
292,45	-0,26
292,915	-0,26
293,38	-0,26
293,844	-0,23
294,309	-0,22
294,774	-0,21
295,239	-0,22
295,703	-0,22
296,168	-0,21
296,632	-0,2
297,097	-0,19
297,562	-0,17
298,026	-0,17
298,491	-0,17
298,955	-0,17
299,419	-0,16
299,884	-0,17
300,348	-0,16
300,813	-0,15
301,277	-0,16
301,741	-0,16
302,205	-0,16
302,67	-0,16
303,134	-0,16
303,598	-0,16
304,062	-0,15
304,526	-0,15
304,99	-0,16
305,454	-0,16
305,919	-0,16
306,383	-0,15
306,847	-0,15
307,31	-0,16
307,774	-0,16
308,238	-0,16
308,702	-0,16
309,166	-0,17
309,63	-0,16
310,094	-0,14
310,557	-0,14
311,021	-0,14
311,485	-0,15
311,948	-0,15
312,412	-0,14
312,876	-0,13
313,339	-0,14
313,803	-0,15
314,266	-0,15
314,73	-0,16
315,193	-0,16
315,657	-0,15
316,12	-0,15
316,584	-0,14
317,047	-0,13
317,51	-0,12
317,973	-0,12
318,437	-0,11
318,9	-0,1
319,363	-0,09
319,826	-0,08
320,29	-0,09
320,753	-0,09
321,216	-0,08
321,679	-0,09
322,142	-0,09
322,605	-0,1
323,068	-0,1
323,531	-0,11
323,994	-0,1
324,457	-0,1
324,92	-0,09
325,382	-0,09
325,845	-0,09
326,308	-0,08
326,771	-0,08
327,233	-0,08
327,696	-0,07
328,159	-0,06
328,622	-0,05
329,084	-0,05
329,547	-0,04
330,009	-0,04
330,472	-0,03
330,934	-0,03
331,397	-0,03
331,859	-0,03
332,322	-0,02
332,784	-0,02
333,246	-0,02
333,709	-0,02
334,171	-0,02
334,633	-0,02
335,096	-0,02
335,558	-0,02
336,02	-0,02
336,482	-0,01
336,944	-0,01
337,406	0
337,868	0,01
338,331	0,01
338,793	0,02
339,255	0,02
339,717	0,02
340,178	0,02
340,64	0,03
341,102	0,04
341,564	0,04
342,026	0,05
342,488	0,06
342,949	0,06
343,411	0,08
343,873	0,1
344,335	0,12
344,796	0,14
345,258	0,17
345,719	0,19
346,181	0,21
346,643	0,23
347,104	0,25
347,566	0,26
348,027	0,28
348,488	0,28
348,95	0,29
349,411	0,3
349,873	0,31
350,334	0,32
350,795	0,32
351,256	0,33
351,718	0,33
352,179	0,34
352,64	0,34
353,101	0,34
353,562	0,34
354,023	0,34
354,484	0,34
354,945	0,34
355,406	0,34
355,867	0,34
356,328	0,34
356,789	0,35
357,25	0,35
357,711	0,35
358,172	0,35
358,633	0,35
359,093	0,35
359,554	0,35
360,015	0,35
360,476	0,35
360,936	0,35
361,397	0,35
361,858	0,35
362,318	0,35
362,779	0,35
363,239	0,35
363,7	0,35
364,16	0,35
364,621	0,35
365,081	0,35
365,541	0,35
366,002	0,35
366,462	0,35
366,922	0,35
367,383	0,35
367,843	0,35
368,303	0,35
368,763	0,35
369,223	0,35
369,684	0,35
370,144	0,35
370,604	0,35
371,064	0,35
371,524	0,35
371,984	0,35
372,444	0,35
372,904	0,35
373,363	0,35
373,823	0,35
374,283	0,35
374,743	0,35
375,203	0,35
375,663	0,35
376,122	0,35
376,582	0,35
377,042	0,35
377,501	0,35
377,961	0,35
378,42	0,35
378,88	0,35
379,34	0,35
379,799	0,35
380,259	0,35
380,718	0,35
381,177	0,35
381,637	0,34
382,096	0,34
382,555	0,34
383,015	0,34
383,474	0,34
383,933	0,34
384,393	0,34
384,852	0,34
385,311	0,34
385,77	0,34
386,229	0,34
386,688	0,34
387,147	0,34
387,606	0,34
388,065	0,34
388,524	0,34
388,983	0,34
389,442	0,34
389,901	0,34
390,36	0,34
390,819	0,34
391,277	0,34
391,736	0,34
392,195	0,34
392,654	0,34
393,112	0,34
393,571	0,34
394,03	0,34
394,488	0,34
394,947	0,34
395,405	0,34
395,864	0,34
396,322	0,34
396,781	0,34
397,239	0,34
397,698	0,34
398,156	0,34
398,614	0,34
399,073	0,34
399,531	0,34
399,989	0,34
400,447	0,34
400,905	0,34
401,364	0,34
401,822	0,34
402,28	0,34
402,738	0,34
403,196	0,34
403,654	0,34
404,112	0,33
404,57	0,33
405,028	0,33
405,486	0,33
405,944	0,33
406,402	0,33
406,859	0,33
407,317	0,33
407,775	0,33
408,233	0,33
408,691	0,33
409,148	0,33
409,606	0,33
410,064	0,33
410,521	0,33
410,979	0,33
411,436	0,33
411,894	0,33
412,351	0,33
412,809	0,33
413,266	0,33
413,724	0,33
414,181	0,33
414,638	0,33
415,096	0,33
415,553	0,33
416,01	0,33
416,467	0,33
416,925	0,33
417,382	0,33
417,839	0,33
418,296	0,33
418,753	0,33
419,21	0,33
419,667	0,33
420,124	0,33
420,581	0,33
421,038	0,33
421,495	0,33
421,952	0,33
422,409	0,33
422,866	0,33
423,322	0,33
423,779	0,33
424,236	0,33
424,693	0,33
425,149	0,33
425,606	0,33
426,063	0,33
426,519	0,33
426,976	0,33
427,433	0,33
427,889	0,33
428,346	0,33
428,802	0,33
429,258	0,33
429,715	0,33
430,171	0,33
430,628	0,33
431,084	0,33
431,54	0,33
431,997	0,33
432,453	0,33
432,909	0,33
433,365	0,32
433,821	0,32
434,277	0,32
434,734	0,32
435,19	0,32
435,646	0,32
436,102	0,32
436,558	0,32
437,014	0,32
437,47	0,32
437,925	0,32
438,381	0,32
438,837	0,32
439,293	0,32
439,749	0,32
440,205	0,32
440,66	0,32
441,116	0,32
441,572	0,32
442,027	0,32
442,483	0,32
442,939	0,32
443,394	0,32
443,85	0,32
444,305	0,32
444,761	0,32
445,216	0,32
445,672	0,32
446,127	0,32
446,582	0,32
447,038	0,32
447,493	0,32
447,948	0,32
448,403	0,32
448,859	0,32
449,314	0,32
449,769	0,32
450,224	0,32
450,679	0,32
451,134	0,32
451,589	0,32
452,044	0,32
452,499	0,32
452,954	0,32
453,409	0,32
453,864	0,32
454,319	0,32
454,774	0,32
455,229	0,32
455,684	0,32
456,138	0,32
456,593	0,32
457,048	0,32
457,503	0,32
457,957	0,32
458,412	0,32
458,866	0,32
459,321	0,32
459,776	0,32
460,23	0,32
460,685	0,32
461,139	0,32
461,593	0,33
462,048	0,33
462,502	0,33
462,957	0,33
463,411	0,33
463,865	0,33
464,319	0,33
464,774	0,33
465,228	0,33
465,682	0,33
466,136	0,33
466,59	0,33
467,044	0,33
467,499	0,33
467,953	0,33
468,407	0,33
468,861	0,33
469,315	0,33
469,768	0,33
470,222	0,33
470,676	0,33
471,13	0,33
471,584	0,33
472,038	0,33
472,491	0,33
472,945	0,33
473,399	0,33
473,852	0,33
474,306	0,33
474,76	0,33
475,213	0,33
475,667	0,33
476,12	0,33
476,574	0,33
477,027	0,33
477,481	0,34
477,934	0,34
478,388	0,34
478,841	0,34
479,294	0,34
479,748	0,34
480,201	0,34
480,654	0,34
481,107	0,34
481,561	0,34
482,014	0,34
482,467	0,34
482,92	0,34
483,373	0,35
483,826	0,35
484,279	0,35
484,732	0,35
485,185	0,35
485,638	0,35
486,091	0,35
486,544	0,35
486,997	0,35
487,449	0,35
487,902	0,35
488,355	0,35
488,808	0,35
489,26	0,36
489,713	0,36
490,166	0,36
490,618	0,36
491,071	0,36
491,523	0,36
491,976	0,36
492,429	0,37
492,881	0,37
493,333	0,37
493,786	0,37
494,238	0,37
494,691	0,37
495,143	0,37
495,595	0,38
496,048	0,38
496,5	0,38
496,952	0,38
497,404	0,38
497,856	0,38
498,309	0,38
498,761	0,39
499,213	0,39
499,665	0,39
500,117	0,39
500,569	0,39
501,021	0,4
501,473	0,4
501,925	0,4
502,377	0,4
502,828	0,4
503,28	0,41
503,732	0,41
504,184	0,41
504,636	0,41
505,087	0,41
505,539	0,41
505,991	0,42
506,442	0,42
506,894	0,42
507,345	0,42
507,797	0,42
508,249	0,43
508,7	0,43
509,151	0,43
509,603	0,43
510,054	0,43
510,506	0,44
510,957	0,44
511,408	0,44
511,86	0,44
512,311	0,44
512,762	0,44
513,213	0,44
513,665	0,45
514,116	0,45
514,567	0,45
515,018	0,45
515,469	0,45
515,92	0,45
516,371	0,46
516,822	0,46
517,273	0,46
517,724	0,46
518,175	0,46
518,626	0,46
519,076	0,47
519,527	0,47
519,978	0,47
520,429	0,47
520,88	0,47
521,33	0,47
521,781	0,47
522,232	0,47
522,682	0,48
523,133	0,48
523,583	0,48
524,034	0,48
524,484	0,48
524,935	0,48
525,385	0,48
525,836	0,48
526,286	0,48
526,736	0,48
527,187	0,48
527,637	0,48
528,087	0,48
528,538	0,48
528,988	0,48
529,438	0,48
529,888	0,48
530,338	0,48
530,788	0,48
531,238	0,48
531,688	0,48
532,139	0,48
532,589	0,48
533,038	0,48
533,488	0,48
533,938	0,48
534,388	0,48
534,838	0,48
535,288	0,48
535,738	0,48
536,187	0,48
536,637	0,47
537,087	0,47
537,537	0,47
537,986	0,47
538,436	0,47
538,885	0,47
539,335	0,46
539,785	0,46
540,234	0,46
540,684	0,46
541,133	0,46
541,582	0,46
542,032	0,45
542,481	0,45
542,931	0,45
543,38	0,45
543,829	0,45
544,278	0,44
544,728	0,44
545,177	0,44
545,626	0,44
546,075	0,44
546,524	0,44
546,973	0,44
547,422	0,43
547,871	0,43
548,32	0,43
548,769	0,43
549,218	0,43
549,667	0,43
550,116	0,43
550,565	0,43
551,014	0,43
551,463	0,43
551,911	0,43
552,36	0,43
552,809	0,42
553,258	0,42
553,706	0,42
554,155	0,42
554,603	0,42
555,052	0,42
555,501	0,42
555,949	0,41
556,398	0,41
556,846	0,41
557,294	0,41
557,743	0,41
558,191	0,41
558,64	0,41
559,088	0,4
559,536	0,4
559,985	0,4
560,433	0,4
560,881	0,4
561,329	0,4
561,777	0,39
562,225	0,39
562,674	0,39
563,122	0,39
563,57	0,39
564,018	0,39
564,466	0,39
564,914	0,38
565,362	0,38
565,809	0,38
566,257	0,38
566,705	0,38
567,153	0,38
567,601	0,38
568,048	0,37
568,496	0,37
568,944	0,37
569,392	0,37
569,839	0,37
570,287	0,37
570,734	0,37
571,182	0,37
571,63	0,36
572,077	0,36
572,525	0,36
572,972	0,36
573,419	0,36
573,867	0,36
574,314	0,36
574,761	0,35
575,209	0,35
575,656	0,35
576,103	0,35
576,551	0,35
576,998	0,35
577,445	0,35
577,892	0,35
578,339	0,35
578,786	0,35
579,233	0,35
579,68	0,35
580,127	0,35
580,574	0,35
581,021	0,34
581,468	0,34
581,915	0,34
582,362	0,34
582,809	0,34
583,255	0,34
583,702	0,34
584,149	0,34
584,596	0,34
585,042	0,33
585,489	0,33
585,936	0,33
586,382	0,33
586,829	0,33
587,275	0,33
587,722	0,33
588,168	0,33
588,615	0,33
589,061	0,33
589,508	0,33
589,954	0,33
590,4	0,33
590,847	0,33
591,293	0,33
591,739	0,32
592,185	0,32
592,632	0,32
593,078	0,32
593,524	0,32
593,97	0,32
594,416	0,32
594,862	0,32
595,308	0,32
595,754	0,32
596,2	0,32
596,646	0,32
597,092	0,32
597,538	0,32
597,984	0,32
598,43	0,32
598,876	0,32
599,321	0,32
599,767	0,32
600,213	0,32
600,659	0,32
601,104	0,32
601,55	0,31
601,995	0,31
602,441	0,31
602,887	0,31
603,332	0,31
603,778	0,31
604,223	0,31
604,668	0,31
605,114	0,31
605,559	0,31
606,005	0,31
606,45	0,31
606,895	0,31
607,341	0,31
607,786	0,31
608,231	0,31
608,676	0,31
609,121	0,3
609,566	0,3
610,012	0,3
610,457	0,3
610,902	0,29
611,347	0,29
611,792	0,29
612,237	0,29
612,682	0,29
613,127	0,29
613,571	0,29
614,016	0,29
614,461	0,29
614,906	0,3
615,351	0,3
615,795	0,3
616,24	0,3
616,685	0,3
617,129	0,3
617,574	0,3
618,019	0,3
618,463	0,3
618,908	0,3
619,352	0,3
619,797	0,3
620,241	0,3
620,686	0,3
621,13	0,3
621,574	0,3
622,019	0,3
622,463	0,3
622,907	0,3
623,352	0,3
623,796	0,29
624,24	0,29
624,684	0,29
625,128	0,29
625,572	0,29
626,016	0,29
626,461	0,29
626,905	0,29
627,349	0,3
627,793	0,3
628,236	0,29
628,68	0,29
629,124	0,29
629,568	0,29
630,012	0,29
630,456	0,29
630,9	0,29
631,343	0,29
631,787	0,29
632,231	0,29
632,674	0,29
633,118	0,29
633,562	0,29
634,005	0,29
634,449	0,29
634,892	0,29
635,336	0,29
635,779	0,29
636,223	0,29
636,666	0,29
637,109	0,29
637,553	0,29
637,996	0,29
638,439	0,29
638,883	0,29
639,326	0,29
639,769	0,29
640,212	0,29
640,655	0,29
641,099	0,29
641,542	0,29
641,985	0,29
642,428	0,29
642,871	0,29
643,314	0,29
643,757	0,29
644,2	0,29
644,643	0,29
645,085	0,29
645,528	0,29
645,971	0,29
646,414	0,29
646,857	0,29
647,299	0,29
647,742	0,29
648,185	0,29
648,627	0,29
649,07	0,28
649,513	0,28
649,955	0,28
650,398	0,28
650,84	0,28
651,283	0,28
651,725	0,28
652,168	0,28
652,61	0,28
653,052	0,28
653,495	0,28
653,937	0,22
654,379	0,18
654,821	0,18
655,264	0,18
655,706	0,18
656,148	0,18
656,59	0,18
657,032	0,18
657,474	0,18
657,916	0,18
658,358	0,18
658,8	0,22
659,242	0,28
659,684	0,28
660,126	0,28
660,568	0,28
661,01	0,28
661,452	0,28
661,894	0,28
662,335	0,28
662,777	0,28
663,219	0,28
663,661	0,28
664,102	0,28
664,544	0,28
664,985	0,28
665,427	0,28
665,869	0,28
666,31	0,28
666,752	0,28
667,193	0,28
667,634	0,28
668,076	0,28
668,517	0,28
668,959	0,28
669,4	0,28
669,841	0,28
670,282	0,28
670,724	0,28
671,165	0,28
671,606	0,28
672,047	0,28
672,488	0,28
672,929	0,28
673,37	0,28
673,811	0,28
674,252	0,28
674,693	0,28
675,134	0,28
675,575	0,28
676,016	0,28
676,457	0,28
676,898	0,28
677,339	0,28
677,78	0,28
678,22	0,28
678,661	0,28
679,102	0,28
679,542	0,28
679,983	0,28
680,424	0,28
680,864	0,28
681,305	0,28
681,745	0,28
682,186	0,28
682,626	0,28
683,067	0,28
683,507	0,28
683,948	0,28
684,388	0,28
684,828	0,28
685,269	0,28
685,709	0,28
686,149	0,28
686,589	0,27
687,029	0,27
687,47	0,27
687,91	0,27
688,35	0,27
688,79	0,27
689,23	0,27
689,67	0,27
690,11	0,27
690,55	0,27
690,99	0,27
691,43	0,27
691,87	0,27
692,31	0,27
692,749	0,26
693,189	0,26
693,629	0,26
694,069	0,26
694,508	0,26
694,948	0,26
695,388	0,26
695,827	0,26
696,267	0,27
696,706	0,27
697,146	0,27
697,586	0,27
698,025	0,27
698,464	0,27
698,904	0,27
699,343	0,27
699,783	0,27
700,222	0,27
700,661	0,27
701,101	0,27
701,54	0,27
701,979	0,27
702,418	0,27
702,857	0,27
703,297	0,27
703,736	0,27
704,175	0,27
704,614	0,27
705,053	0,27
705,492	0,27
705,931	0,27
706,37	0,26
706,809	0,26
707,248	0,26
707,687	0,26
708,125	0,26
708,564	0,26
709,003	0,26
709,442	0,26
709,88	0,26
710,319	0,26
710,758	0,26
711,196	0,26
711,635	0,26
712,074	0,26
712,512	0,26
712,951	0,26
713,389	0,26
713,828	0,26
714,266	0,26
714,705	0,26
715,143	0,26
715,581	0,26
716,02	0,26
716,458	0,26
716,896	0,25
717,334	0,25
717,773	0,25
718,211	0,25
718,649	0,25
719,087	0,25
719,525	0,25
719,963	0,25
720,401	0,25
720,839	0,25
721,277	0,25
721,715	0,26
722,153	0,26
722,591	0,26
723,029	0,26
723,467	0,26
723,905	0,25
724,342	0,25
724,78	0,25
725,218	0,25
725,656	0,25
726,093	0,25
726,531	0,25
726,969	0,25
727,406	0,25
727,844	0,25
728,281	0,25
728,719	0,25
729,156	0,25
729,594	0,25
730,031	0,25
730,469	0,25
730,906	0,25
731,343	0,25
731,781	0,25
732,218	0,25
732,655	0,25
733,092	0,25
733,53	0,25
733,967	0,25
734,404	0,25
734,841	0,25
735,278	0,25
735,715	0,25
736,152	0,25
736,589	0,25
737,026	0,25
737,463	0,24
737,9	0,24
738,337	0,24
738,774	0,24
739,211	0,24
739,647	0,24
740,084	0,24
740,521	0,24
740,958	0,24
741,394	0,24
741,831	0,24
742,268	0,24
742,704	0,24
743,141	0,24
743,577	0,24
744,014	0,23
744,45	0,23
744,887	0,23
745,323	0,23
745,76	0,23
746,196	0,23
746,632	0,23
747,069	0,23
747,505	0,23
747,941	0,23
748,378	0,23
748,814	0,23
749,25	0,23
749,686	0,23
750,122	0,23
750,558	0,24
750,994	0,24
751,43	0,24
751,866	0,24
752,302	0,24
752,738	0,24
753,174	0,24
753,61	0,24
754,046	0,24
754,482	0,24
754,918	0,24
755,354	0,24
755,789	0,24
756,225	0,24
756,661	0,24
757,096	0,24
757,532	0,24
757,968	0,24
758,403	0,24
758,839	0,24
759,274	0,23
759,71	0,23
760,145	0,23
760,581	0,22
761,016	0,22
761,452	0,22
761,887	0,22
762,322	0,21
762,758	0,21
763,193	0,21
763,628	0,21
764,063	0,2
764,499	0,2
764,934	0,19
765,369	0,19
765,804	0,18
766,239	0,18
766,674	0,17
767,109	0,17
767,544	0,16
767,979	0,15
768,414	0,15
768,849	0,14
769,284	0,13
769,719	0,13
770,154	0,12
770,588	0,12
771,023	0,11
771,458	0,1
771,893	0,1
772,327	0,09
772,762	0,08
773,197	0,07
773,631	0,06
774,066	0,06
774,5	0,05
774,935	0,04
775,369	0,04
775,804	0,03
776,238	0,02
776,673	0,01
777,107	0,01
777,541	0
777,976	-0
778,41	-0,01
778,844	-0,02
779,279	-0,02
779,713	-0,03
780,147	-0,03
780,581	-0,04
781,015	-0,05
781,449	-0,06
781,883	-0,06
782,317	-0,07
782,751	-0,08
783,185	-0,09
783,619	-0,1
784,053	-0,11
784,487	-0,11
784,921	-0,12
785,355	-0,13
785,789	-0,14
786,223	-0,15
786,656	-0,16
787,09	-0,16
787,524	-0,17
787,957	-0,18
788,391	-0,2
788,825	-0,21
789,258	-0,23
789,692	-0,24
790,125	-0,26
790,559	-0,27
790,992	-0,29
791,426	-0,32
791,859	-0,34
792,293	-0,37
792,726	-0,39
793,159	-0,41
793,593	-0,43
794,026	-0,45
794,459	-0,47
794,892	-0,5
795,326	-0,53
795,759	-0,57
796,192	-0,61
796,625	-0,66
797,058	-0,68
797,491	-0,73
797,924	-0,77
798,357	-0,82
798,79	-0,87
799,223	-0,91
799,656	-0,97
800,089	-1,02
800,522	-1,06
800,955	-1,11
801,387	-1,17
801,82	-1,22
802,253	-1,28
802,686	-1,36
803,118	-1,42
803,551	-1,47
803,984	-1,52
804,416	-1,56
804,849	-1,62
805,281	-1,79
805,714	-2,19
806,146	-2,54
806,579	-2,77
807,011	-2,92
807,444	-3
807,876	-3,07
808,308	-3,09
808,741	-3,12
809,173	-3,17
809,605	-3,19
810,037	-3,26
810,47	-3,16
810,902	-2,96
811,334	-2,8
811,766	-2,63
812,198	-2,35
812,63	-1,97
813,062	-1,81
813,494	-1,72
813,926	-1,63
814,358	-1,58
814,79	-1,5
815,222	-1,44
815,654	-1,39
816,086	-1,33
816,518	-1,27
816,949	-1,22
817,381	-1,17
817,813	-1,16
818,245	-1,12
818,676	-1,08
819,108	-1,04
819,54	-1,03
819,971	-1
820,403	-0,95
820,834	-0,93
821,266	-0,89
821,697	-0,87
822,129	-0,85
822,56	-0,82
822,991	-0,8
823,423	-0,77
823,854	-0,76
824,286	-0,73
824,717	-0,72
825,148	-0,7
825,579	-0,69
826,01	-0,67
826,442	-0,66
826,873	-0,64
827,304	-0,6
827,735	-0,59
828,166	-0,59
828,597	-0,6
829,028	-0,59
829,459	-0,6
829,89	-0,59
830,321	-0,55
830,752	-0,56
831,183	-0,55
831,613	-0,55
832,044	-0,55
832,475	-0,54
832,906	-0,55
833,336	-0,56
833,767	-0,56
834,198	-0,55
834,628	-0,53
835,059	-0,57
835,49	-0,57
835,92	-0,53
836,351	-0,52
836,781	-0,52
837,212	-0,53
837,642	-0,54
838,072	-0,51
838,503	-0,52
838,933	-0,5
839,364	-0,51
839,794	-0,48
840,224	-0,48
840,654	-0,52
841,085	-0,53
841,515	-0,51
841,945	-0,51
842,375	-0,46
842,805	-0,45
843,235	-0,44
843,665	-0,45
844,095	-0,44
844,525	-0,46
844,955	-0,46
845,385	-0,43
845,815	-0,42
846,245	-0,44
846,675	-0,45
847,105	-0,47
847,534	-0,47
847,964	-0,46
848,394	-0,44
848,824	-0,47
849,253	-0,47
849,683	-0,47
850,112	-0,48
850,542	-0,51
850,972	-0,52
851,401	-0,49
851,831	-0,48
852,26	-0,48
852,69	-0,52
853,119	-0,51
853,548	-0,52
853,978	-0,52
854,407	-0,51
854,836	-0,51
855,266	-0,49
855,695	-0,51
856,124	-0,51
856,553	-0,52
856,983	-0,54
857,412	-0,53
857,841	-0,54
858,27	-0,54
858,699	-0,54
859,128	-0,57
859,557	-0,57
859,986	-0,59
860,415	-0,56
860,844	-0,54
861,273	-0,53
861,702	-0,54
862,13	-0,52
862,559	-0,53
862,988	-0,52
863,417	-0,51
863,845	-0,5
864,274	-0,52
864,703	-0,51
865,131	-0,52
865,56	-0,53
865,989	-0,57
866,417	-0,54
866,846	-0,55
867,274	-0,55
867,703	-0,57
868,131	-0,58
868,559	-0,58
868,988	-0,6
869,416	-0,6
869,844	-0,6
870,273	-0,63
870,701	-0,61
871,129	-0,64
871,557	-0,66
871,986	-0,66
872,414	-0,68
872,842	-0,65
873,27	-0,62
873,698	-0,58
874,126	-0,62
874,554	-0,6
874,982	-0,61
875,41	-0,63
875,838	-0,58
876,266	-0,56
876,694	-0,56
877,122	-0,55
877,549	-0,59
877,977	-0,56
878,405	-0,6
878,833	-0,56
879,26	-0,54
879,688	-0,53
880,116	-0,51
880,543	-0,49
880,971	-0,47
881,399	-0,51
881,826	-0,51
882,254	-0,51
882,681	-0,54
883,109	-0,5
883,536	-0,52
883,963	-0,54
884,391	-0,53
884,818	-0,51
885,245	-0,55
885,673	-0,57
886,1	-0,53
886,527	-0,53
886,954	-0,5
887,381	-0,52
887,809	-0,54
888,236	-0,55
888,663	-0,56
889,09	-0,6
889,517	-0,63
889,944	-0,62
890,371	-0,62
890,798	-0,62
891,225	-0,62
891,652	-0,64
892,078	-0,61
892,505	-0,63
892,932	-0,58
893,359	-0,58
893,786	-0,57
894,212	-0,54
894,639	-0,56
895,066	-0,59
895,492	-0,53
895,919	-0,52
896,346	-0,53
896,772	-0,53
897,199	-0,5
897,625	-0,53
898,052	-0,5
898,478	-0,48
898,904	-0,49
899,331	-0,49
899,757	-0,51
900,183	-0,53
900,61	-0,52
901,036	-0,52
901,462	-0,52
901,888	-0,52
902,315	-0,51
902,741	-0,55
903,167	-0,55
903,593	-0,58
904,019	-0,56
904,445	-0,53
904,871	-0,56
905,297	-0,58
905,723	-0,57
906,149	-0,56
906,575	-0,57
907,001	-0,56
907,427	-0,53
907,852	-0,52
908,278	-0,52
908,704	-0,51
909,13	-0,5
909,555	-0,5
909,981	-0,5
910,407	-0,5
910,832	-0,5
911,258	-0,5
911,684	-0,5
912,109	-0,5
912,535	-0,51
912,96	-0,47
913,386	-0,51
913,811	-0,51
914,236	-0,52
914,662	-0,5
915,087	-0,54
915,512	-0,54
915,938	-0,55
916,363	-0,55
916,788	-0,57
917,213	-0,55
917,639	-0,6
918,064	-0,57
918,489	-0,57
918,914	-0,57
919,339	-0,59
919,764	-0,56
920,189	-0,55
920,614	-0,58
921,039	-0,58
921,464	-0,54
921,889	-0,56
922,314	-0,57
922,738	-0,6
923,163	-0,62
923,588	-0,62
924,013	-0,61
924,437	-0,61
924,862	-0,62
925,287	-0,58
925,711	-0,59
926,136	-0,6
926,561	-0,59
926,985	-0,58
927,41	-0,55
927,834	-0,52
928,259	-0,49
928,683	-0,48
929,108	-0,45
929,532	-0,46
929,956	-0,45
930,381	-0,45
930,805	-0,45
931,229	-0,44
931,653	-0,43
932,078	-0,43
932,502	-0,44
932,926	-0,45
933,35	-0,45
933,774	-0,44
934,198	-0,42
934,622	-0,41
935,046	-0,41
935,47	-0,42
935,894	-0,41
936,318	-0,41
936,742	-0,41
937,166	-0,41
937,59	-0,41
938,014	-0,43
938,437	-0,44
938,861	-0,45
939,285	-0,47
939,709	-0,46
940,132	-0,46
940,556	-0,46
940,98	-0,46
941,403	-0,45
941,827	-0,45
942,25	-0,47
942,674	-0,46
943,097	-0,45
943,521	-0,45
943,944	-0,46
944,368	-0,46
944,791	-0,44
945,214	-0,47
945,638	-0,47
946,061	-0,49
946,484	-0,51
946,907	-0,49
947,331	-0,48
947,754	-0,53
948,177	-0,5
948,6	-0,5
949,023	-0,5
949,446	-0,5
949,869	-0,47
950,292	-0,47
950,715	-0,45
951,138	-0,43
951,561	-0,42
951,984	-0,42
952,407	-0,41
952,83	-0,4
953,252	-0,37
953,675	-0,36
954,098	-0,36
954,521	-0,35
954,943	-0,35
955,366	-0,36
955,789	-0,34
956,211	-0,36
956,634	-0,36
957,056	-0,34
957,479	-0,34
957,902	-0,36
958,324	-0,37
958,746	-0,36
959,169	-0,36
959,591	-0,37
960,014	-0,37
960,436	-0,37
960,858	-0,37
961,281	-0,37
961,703	-0,38
962,125	-0,38
962,547	-0,36
962,969	-0,36
963,391	-0,38
963,814	-0,39
964,236	-0,39
964,658	-0,36
965,08	-0,37
965,502	-0,36
965,924	-0,34
966,346	-0,34
966,768	-0,34
967,189	-0,36
967,611	-0,35
968,033	-0,34
968,455	-0,32
968,877	-0,32
969,298	-0,33
969,72	-0,34
970,142	-0,33
970,563	-0,33
970,985	-0,32
971,407	-0,31
971,828	-0,29
972,25	-0,28
972,671	-0,27
973,093	-0,27
973,514	-0,27
973,936	-0,25
974,357	-0,23
974,778	-0,24
975,2	-0,24
975,621	-0,24
976,042	-0,23
976,464	-0,22
976,885	-0,21
977,306	-0,2
977,727	-0,19
978,148	-0,18
978,57	-0,17
978,991	-0,16
979,412	-0,15
979,833	-0,14
980,254	-0,13
980,675	-0,13
981,096	-0,13
981,517	-0,12
981,937	-0,12
982,358	-0,11
982,779	-0,1
983,2	-0,1
983,621	-0,1
984,042	-0,08
984,462	-0,07
984,883	-0,06
985,304	-0,05
985,724	-0,04
986,145	-0,03
986,565	-0,02
986,986	-0,02
987,407	-0
987,827	0,01
988,248	0,02
988,668	0,03
989,088	0,03
989,509	0,04
989,929	0,04
990,35	0,05
990,77	0,06
991,19	0,07
991,61	0,08
992,031	0,08
992,451	0,09
992,871	0,09
993,291	0,1
993,711	0,11
994,131	0,11
994,551	0,11
994,971	0,12
995,391	0,12
995,811	0,12
996,231	0,13
996,651	0,13
997,071	0,14
997,491	0,14
997,911	0,14
998,331	0,15
998,75	0,15
999,17	0,15
999,59	0,16
1000,009	0,16
1000,429	0,16
1000,849	0,16
1001,268	0,17
1001,688	0,17
1002,107	0,17
1002,527	0,17
1002,946	0,17
1003,366	0,18
1003,785	0,18
1004,205	0,18
1004,624	0,18
1005,044	0,18
1005,463	0,18
1005,882	0,18
1006,301	0,18
1006,721	0,19
1007,14	0,19
1007,559	0,19
1007,978	0,19
1008,397	0,19
1008,816	0,19
1009,235	0,19
1009,655	0,18
1010,074	0,18
1010,492	0,18
1010,911	0,18
1011,33	0,18
1011,749	0,18
1012,168	0,18
1012,587	0,18
1013,006	0,18
1013,425	0,18
1013,843	0,18
1014,262	0,17
1014,681	0,17
1015,099	0,17
1015,518	0,17
1015,937	0,17
1016,355	0,18
1016,774	0,18
1017,192	0,18
1017,611	0,18
1018,029	0,18
1018,448	0,18
1018,866	0,18
1019,285	0,18
1019,703	0,18
1020,121	0,18
1020,54	0,18
1020,958	0,18
1021,376	0,18
1021,794	0,18
1022,213	0,18
1022,631	0,18
1023,049	0,18
1023,467	0,18
1023,885	0,18
1024,303	0,18
1024,721	0,18
1025,139	0,18
1025,557	0,18
1025,975	0,17
1026,393	0,17
1026,811	0,17
1027,229	0,17
1027,647	0,17
1028,065	0,17
1028,482	0,17
1028,9	0,17
1029,318	0,17
1029,735	0,17
1030,153	0,17
1030,571	0,17
1030,988	0,17
1031,406	0,17
1031,823	0,17
1032,241	0,17
1032,659	0,17
1033,076	0,17
1033,493	0,17
1033,911	0,17
1034,328	0,17
1034,746	0,17
1035,163	0,17
1035,58	0,17
1035,997	0,17
1036,415	0,17
1036,832	0,17
1037,249	0,17
1037,666	0,17
1038,083	0,17
1038,501	0,17
1038,918	0,17
1039,335	0,17
1039,752	0,17
1040,169	0,17
1040,586	0,17
1041,003	0,17
1041,419	0,17
1041,836	0,16
1042,253	0,16
1042,67	0,16
1043,087	0,16
1043,504	0,16
1043,92	0,16
1044,337	0,16
1044,754	0,16
1045,17	0,16
1045,587	0,16
1046,004	0,16
1046,42	0,16
1046,837	0,16
1047,253	0,16
1047,67	0,15
1048,086	0,15
1048,503	0,15
1048,919	0,15
1049,335	0,15
1049,752	0,15
1050,168	0,15
1050,584	0,15
1051,001	0,15
1051,417	0,15
1051,833	0,16
1052,249	0,16
1052,665	0,16
1053,081	0,16
1053,497	0,16
1053,914	0,16
1054,33	0,16
1054,746	0,16
1055,162	0,16
1055,578	0,16
1055,993	0,16
1056,409	0,16
1056,825	0,16
1057,241	0,16
1057,657	0,16
1058,073	0,16
1058,488	0,16
1058,904	0,16
1059,32	0,16
1059,736	0,16
1060,151	0,16
1060,567	0,16
1060,982	0,16
1061,398	0,16
1061,813	0,16
1062,229	0,16
1062,644	0,16
1063,06	0,16
1063,475	0,16
1063,891	0,16
1064,306	0,16
1064,721	0,16
1065,137	0,16
1065,552	0,16
1065,967	0,16
1066,382	0,16
1066,798	0,16
1067,213	0,16
1067,628	0,16
1068,043	0,16
1068,458	0,16
1068,873	0,16
1069,288	0,16
1069,703	0,16
1070,118	0,16
1070,533	0,16
1070,948	0,16
1071,363	0,16
1071,778	0,17
1072,193	0,17
1072,607	0,17
1073,022	0,17
1073,437	0,17
1073,852	0,17
1074,266	0,17
1074,681	0,17
1075,096	0,17
1075,51	0,17
1075,925	0,17
1076,339	0,17
1076,754	0,17
1077,168	0,17
1077,583	0,17
1077,997	0,17
1078,412	0,17
1078,826	0,17
1079,24	0,17
1079,655	0,16
1080,069	0,16
1080,483	0,16
1080,897	0,16
1081,312	0,16
1081,726	0,16
1082,14	0,16
1082,554	0,16
1082,968	0,16
1083,382	0,16
1083,796	0,16
1084,21	0,16
1084,624	0,16
1085,038	0,15
1085,452	0,15
1085,866	0,15
1086,28	0,15
1086,694	0,15
1087,108	0,15
1087,521	0,15
1087,935	0,15
1088,349	0,15
1088,763	0,15
1089,176	0,15
1089,59	0,14
1090,004	0,14
1090,417	0,14
1090,831	0,14
1091,244	0,14
1091,658	0,14
1092,071	0,13
1092,485	0,13
1092,898	0,13
1093,312	0,13
1093,725	0,13
1094,138	0,13
1094,552	0,13
1094,965	0,13
1095,378	0,13
1095,791	0,12
1096,205	0,12
1096,618	0,12
1097,031	0,12
1097,444	0,12
1097,857	0,12
1098,27	0,12
1098,683	0,12
1099,096	0,11
1099,509	0,11
1099,922	0,11
1100,335	0,11
1100,748	0,1
1101,161	0,1
1101,574	0,1
1101,986	0,1
1102,399	0,09
1102,812	0,09
1103,225	0,09
1103,637	0,09
1104,05	0,08
1104,463	0,09
1104,875	0,08
1105,288	0,08
1105,7	0,08
1106,113	0,08
1106,525	0,07
1106,938	0,07
1107,35	0,07
1107,763	0,07
1108,175	0,06
1108,588	0,06
1109	0,06
1109,412	0,05
1109,824	0,05
1110,237	0,05
1110,649	0,04
1111,061	0,04
