Data from 18C-808nm-8A_Absorbance__1196__01196.txt Node

Date: Mon Jul 17 17:06:13 CEST 2023
User: Laser008
Spectrometer: MAYP115816
Trigger mode: 0
Integration Time (sec): 2,500000E-1
Scans to average: 10
Electric dark correction enabled: true
Nonlinearity correction enabled: true
Boxcar width: 5
XAxis mode: Wavelengths
Number of Pixels in Spectrum: 2068
>>>>>Begin Spectral Data<<<<<
198,914	-0,73
199,384	-0,48
199,855	-0,38
200,325	-0,31
200,796	-0,28
201,266	-0,23
201,737	-0,22
202,207	-0,2
202,677	-0,19
203,147	-0,18
203,618	-0,15
204,088	-0,13
204,558	-0,12
205,028	-0,11
205,498	-0,11
205,968	-0,11
206,439	-0,13
206,909	-0,11
207,379	-0,12
207,849	-0,13
208,319	-0,13
208,789	-0,13
209,258	-0,13
209,728	-0,15
210,198	-0,15
210,668	-0,15
211,138	-0,14
211,608	-0,13
212,077	-0,13
212,547	-0,12
213,017	-0,12
213,486	-0,13
213,956	-0,14
214,426	-0,15
214,895	-0,14
215,365	-0,15
215,834	-0,16
216,304	-0,17
216,773	-0,18
217,243	-0,2
217,712	-0,21
218,181	-0,21
218,651	-0,21
219,12	-0,21
219,589	-0,2
220,058	-0,19
220,528	-0,19
220,997	-0,2
221,466	-0,2
221,935	-0,21
222,404	-0,2
222,873	-0,19
223,342	-0,19
223,812	-0,2
224,281	-0,2
224,749	-0,21
225,218	-0,22
225,687	-0,22
226,156	-0,21
226,625	-0,19
227,094	-0,19
227,563	-0,18
228,031	-0,2
228,5	-0,2
228,969	-0,2
229,438	-0,19
229,906	-0,18
230,375	-0,17
230,844	-0,17
231,312	-0,17
231,781	-0,18
232,249	-0,17
232,718	-0,19
233,186	-0,17
233,655	-0,18
234,123	-0,17
234,591	-0,17
235,06	-0,17
235,528	-0,18
235,996	-0,17
236,465	-0,17
236,933	-0,17
237,401	-0,17
237,869	-0,15
238,337	-0,15
238,805	-0,14
239,274	-0,14
239,742	-0,13
240,21	-0,14
240,678	-0,13
241,146	-0,12
241,614	-0,12
242,081	-0,12
242,549	-0,12
243,017	-0,14
243,485	-0,14
243,953	-0,14
244,421	-0,13
244,888	-0,13
245,356	-0,13
245,824	-0,13
246,291	-0,13
246,759	-0,14
247,227	-0,14
247,694	-0,13
248,162	-0,12
248,629	-0,11
249,097	-0,11
249,564	-0,12
250,032	-0,14
250,499	-0,13
250,967	-0,13
251,434	-0,14
251,901	-0,14
252,369	-0,14
252,836	-0,15
253,303	-0,16
253,77	-0,17
254,237	-0,17
254,705	-0,17
255,172	-0,15
255,639	-0,16
256,106	-0,17
256,573	-0,17
257,04	-0,17
257,507	-0,17
257,974	-0,18
258,441	-0,16
258,908	-0,16
259,375	-0,18
259,841	-0,18
260,308	-0,19
260,775	-0,19
261,242	-0,18
261,709	-0,18
262,175	-0,19
262,642	-0,19
263,109	-0,19
263,575	-0,2
264,042	-0,19
264,508	-0,18
264,975	-0,2
265,441	-0,2
265,908	-0,21
266,374	-0,21
266,841	-0,21
267,307	-0,21
267,773	-0,2
268,24	-0,2
268,706	-0,21
269,172	-0,22
269,639	-0,23
270,105	-0,21
270,571	-0,21
271,037	-0,21
271,503	-0,22
271,969	-0,22
272,435	-0,23
272,902	-0,24
273,368	-0,24
273,834	-0,23
274,3	-0,24
274,765	-0,23
275,231	-0,23
275,697	-0,23
276,163	-0,22
276,629	-0,22
277,095	-0,22
277,56	-0,21
278,026	-0,22
278,492	-0,2
278,958	-0,2
279,423	-0,21
279,889	-0,21
280,354	-0,22
280,82	-0,21
281,286	-0,23
281,751	-0,24
282,217	-0,23
282,682	-0,24
283,147	-0,23
283,613	-0,24
284,078	-0,24
284,544	-0,25
285,009	-0,25
285,474	-0,24
285,939	-0,26
286,405	-0,24
286,87	-0,23
287,335	-0,22
287,8	-0,21
288,265	-0,21
288,73	-0,23
289,195	-0,25
289,66	-0,25
290,125	-0,24
290,59	-0,23
291,055	-0,23
291,52	-0,23
291,985	-0,23
292,45	-0,24
292,915	-0,24
293,38	-0,24
293,844	-0,21
294,309	-0,2
294,774	-0,19
295,239	-0,2
295,703	-0,22
296,168	-0,2
296,632	-0,2
297,097	-0,19
297,562	-0,17
298,026	-0,18
298,491	-0,18
298,955	-0,18
299,419	-0,17
299,884	-0,17
300,348	-0,16
300,813	-0,15
301,277	-0,17
301,741	-0,17
302,205	-0,17
302,67	-0,17
303,134	-0,17
303,598	-0,17
304,062	-0,16
304,526	-0,15
304,99	-0,17
305,454	-0,17
305,919	-0,17
306,383	-0,16
306,847	-0,16
307,31	-0,17
307,774	-0,17
308,238	-0,17
308,702	-0,16
309,166	-0,19
309,63	-0,19
310,094	-0,16
310,557	-0,15
311,021	-0,15
311,485	-0,15
311,948	-0,15
312,412	-0,14
312,876	-0,14
313,339	-0,15
313,803	-0,15
314,266	-0,14
314,73	-0,14
315,193	-0,15
315,657	-0,14
316,12	-0,14
316,584	-0,12
317,047	-0,12
317,51	-0,11
317,973	-0,11
318,437	-0,1
318,9	-0,09
319,363	-0,09
319,826	-0,08
320,29	-0,09
320,753	-0,09
321,216	-0,08
321,679	-0,09
322,142	-0,08
322,605	-0,1
323,068	-0,1
323,531	-0,09
323,994	-0,09
324,457	-0,09
324,92	-0,08
325,382	-0,08
325,845	-0,08
326,308	-0,07
326,771	-0,07
327,233	-0,06
327,696	-0,06
328,159	-0,05
328,622	-0,04
329,084	-0,04
329,547	-0,04
330,009	-0,03
330,472	-0,02
330,934	-0,01
331,397	-0,01
331,859	-0,01
332,322	-0,01
332,784	-0
333,246	0
333,709	0
334,171	0
334,633	0,01
335,096	0,01
335,558	0,01
336,02	0
336,482	0,01
336,944	0,02
337,406	0,03
337,868	0,04
338,331	0,03
338,793	0,04
339,255	0,04
339,717	0,05
340,178	0,06
340,64	0,07
341,102	0,07
341,564	0,08
342,026	0,09
342,488	0,09
342,949	0,1
343,411	0,12
343,873	0,14
344,335	0,16
344,796	0,19
345,258	0,22
345,719	0,25
346,181	0,29
346,643	0,31
347,104	0,33
347,566	0,35
348,027	0,37
348,488	0,38
348,95	0,39
349,411	0,41
349,873	0,42
350,334	0,43
350,795	0,44
351,256	0,44
351,718	0,45
352,179	0,45
352,64	0,45
353,101	0,46
353,562	0,46
354,023	0,46
354,484	0,46
354,945	0,46
355,406	0,46
355,867	0,46
356,328	0,46
356,789	0,46
357,25	0,47
357,711	0,47
358,172	0,47
358,633	0,47
359,093	0,47
359,554	0,47
360,015	0,47
360,476	0,47
360,936	0,47
361,397	0,47
361,858	0,47
362,318	0,47
362,779	0,47
363,239	0,47
363,7	0,47
364,16	0,47
364,621	0,47
365,081	0,47
365,541	0,47
366,002	0,47
366,462	0,47
366,922	0,47
367,383	0,47
367,843	0,47
368,303	0,47
368,763	0,47
369,223	0,47
369,684	0,47
370,144	0,47
370,604	0,47
371,064	0,47
371,524	0,47
371,984	0,47
372,444	0,47
372,904	0,47
373,363	0,47
373,823	0,47
374,283	0,47
374,743	0,47
375,203	0,47
375,663	0,47
376,122	0,47
376,582	0,47
377,042	0,47
377,501	0,47
377,961	0,47
378,42	0,47
378,88	0,47
379,34	0,47
379,799	0,47
380,259	0,47
380,718	0,47
381,177	0,47
381,637	0,47
382,096	0,47
382,555	0,47
383,015	0,47
383,474	0,47
383,933	0,47
384,393	0,47
384,852	0,47
385,311	0,47
385,77	0,46
386,229	0,46
386,688	0,46
387,147	0,46
387,606	0,46
388,065	0,46
388,524	0,46
388,983	0,46
389,442	0,46
389,901	0,46
390,36	0,46
390,819	0,46
391,277	0,46
391,736	0,46
392,195	0,46
392,654	0,46
393,112	0,46
393,571	0,46
394,03	0,46
394,488	0,46
394,947	0,46
395,405	0,46
395,864	0,46
396,322	0,46
396,781	0,46
397,239	0,46
397,698	0,46
398,156	0,46
398,614	0,46
399,073	0,46
399,531	0,46
399,989	0,46
400,447	0,46
400,905	0,46
401,364	0,46
401,822	0,46
402,28	0,46
402,738	0,46
403,196	0,46
403,654	0,45
404,112	0,45
404,57	0,45
405,028	0,45
405,486	0,45
405,944	0,45
406,402	0,45
406,859	0,45
407,317	0,45
407,775	0,45
408,233	0,45
408,691	0,45
409,148	0,45
409,606	0,45
410,064	0,45
410,521	0,45
410,979	0,45
411,436	0,45
411,894	0,45
412,351	0,45
412,809	0,45
413,266	0,45
413,724	0,45
414,181	0,45
414,638	0,45
415,096	0,45
415,553	0,45
416,01	0,45
416,467	0,45
416,925	0,45
417,382	0,45
417,839	0,45
418,296	0,45
418,753	0,45
419,21	0,45
419,667	0,45
420,124	0,45
420,581	0,45
421,038	0,45
421,495	0,45
421,952	0,45
422,409	0,45
422,866	0,45
423,322	0,45
423,779	0,45
424,236	0,45
424,693	0,45
425,149	0,45
425,606	0,45
426,063	0,45
426,519	0,45
426,976	0,45
427,433	0,45
427,889	0,45
428,346	0,45
428,802	0,45
429,258	0,45
429,715	0,45
430,171	0,45
430,628	0,45
431,084	0,45
431,54	0,45
431,997	0,45
432,453	0,45
432,909	0,44
433,365	0,44
433,821	0,44
434,277	0,44
434,734	0,44
435,19	0,44
435,646	0,44
436,102	0,44
436,558	0,44
437,014	0,44
437,47	0,44
437,925	0,44
438,381	0,44
438,837	0,44
439,293	0,44
439,749	0,44
440,205	0,44
440,66	0,44
441,116	0,44
441,572	0,44
442,027	0,44
442,483	0,44
442,939	0,44
443,394	0,44
443,85	0,44
444,305	0,44
444,761	0,44
445,216	0,44
445,672	0,44
446,127	0,44
446,582	0,44
447,038	0,44
447,493	0,44
447,948	0,44
448,403	0,44
448,859	0,44
449,314	0,44
449,769	0,44
450,224	0,44
450,679	0,44
451,134	0,45
451,589	0,45
452,044	0,45
452,499	0,45
452,954	0,45
453,409	0,45
453,864	0,45
454,319	0,45
454,774	0,45
455,229	0,45
455,684	0,45
456,138	0,45
456,593	0,45
457,048	0,45
457,503	0,45
457,957	0,45
458,412	0,45
458,866	0,45
459,321	0,45
459,776	0,45
460,23	0,45
460,685	0,45
461,139	0,45
461,593	0,45
462,048	0,45
462,502	0,45
462,957	0,45
463,411	0,45
463,865	0,45
464,319	0,45
464,774	0,45
465,228	0,45
465,682	0,45
466,136	0,45
466,59	0,45
467,044	0,45
467,499	0,45
467,953	0,46
468,407	0,46
468,861	0,46
469,315	0,46
469,768	0,46
470,222	0,46
470,676	0,46
471,13	0,46
471,584	0,46
472,038	0,46
472,491	0,46
472,945	0,46
473,399	0,46
473,852	0,46
474,306	0,46
474,76	0,46
475,213	0,46
475,667	0,46
476,12	0,46
476,574	0,46
477,027	0,46
477,481	0,46
477,934	0,47
478,388	0,47
478,841	0,47
479,294	0,47
479,748	0,47
480,201	0,47
480,654	0,47
481,107	0,47
481,561	0,47
482,014	0,48
482,467	0,48
482,92	0,48
483,373	0,48
483,826	0,48
484,279	0,48
484,732	0,48
485,185	0,48
485,638	0,48
486,091	0,48
486,544	0,49
486,997	0,49
487,449	0,49
487,902	0,49
488,355	0,49
488,808	0,49
489,26	0,49
489,713	0,5
490,166	0,5
490,618	0,5
491,071	0,5
491,523	0,5
491,976	0,5
492,429	0,51
492,881	0,51
493,333	0,51
493,786	0,51
494,238	0,51
494,691	0,52
495,143	0,52
495,595	0,52
496,048	0,52
496,5	0,52
496,952	0,53
497,404	0,53
497,856	0,53
498,309	0,53
498,761	0,54
499,213	0,54
499,665	0,54
500,117	0,54
500,569	0,55
501,021	0,55
501,473	0,55
501,925	0,55
502,377	0,56
502,828	0,56
503,28	0,56
503,732	0,56
504,184	0,57
504,636	0,57
505,087	0,57
505,539	0,57
505,991	0,58
506,442	0,58
506,894	0,58
507,345	0,58
507,797	0,59
508,249	0,59
508,7	0,59
509,151	0,59
509,603	0,6
510,054	0,6
510,506	0,6
510,957	0,6
511,408	0,61
511,86	0,61
512,311	0,61
512,762	0,61
513,213	0,61
513,665	0,62
514,116	0,62
514,567	0,62
515,018	0,62
515,469	0,62
515,92	0,63
516,371	0,63
516,822	0,63
517,273	0,63
517,724	0,64
518,175	0,64
518,626	0,64
519,076	0,64
519,527	0,64
519,978	0,64
520,429	0,65
520,88	0,65
521,33	0,65
521,781	0,65
522,232	0,65
522,682	0,65
523,133	0,65
523,583	0,66
524,034	0,66
524,484	0,66
524,935	0,66
525,385	0,66
525,836	0,66
526,286	0,66
526,736	0,66
527,187	0,66
527,637	0,66
528,087	0,66
528,538	0,66
528,988	0,66
529,438	0,66
529,888	0,66
530,338	0,66
530,788	0,66
531,238	0,66
531,688	0,65
532,139	0,65
532,589	0,65
533,038	0,65
533,488	0,65
533,938	0,65
534,388	0,65
534,838	0,65
535,288	0,65
535,738	0,65
536,187	0,65
536,637	0,64
537,087	0,64
537,537	0,64
537,986	0,64
538,436	0,63
538,885	0,63
539,335	0,63
539,785	0,63
540,234	0,62
540,684	0,62
541,133	0,62
541,582	0,62
542,032	0,61
542,481	0,61
542,931	0,61
543,38	0,6
543,829	0,6
544,278	0,6
544,728	0,6
545,177	0,59
545,626	0,59
546,075	0,59
546,524	0,59
546,973	0,58
547,422	0,58
547,871	0,58
548,32	0,58
548,769	0,58
549,218	0,58
549,667	0,58
550,116	0,58
550,565	0,57
551,014	0,57
551,463	0,57
551,911	0,57
552,36	0,57
552,809	0,56
553,258	0,56
553,706	0,56
554,155	0,56
554,603	0,55
555,052	0,55
555,501	0,55
555,949	0,55
556,398	0,54
556,846	0,54
557,294	0,54
557,743	0,54
558,191	0,53
558,64	0,53
559,088	0,53
559,536	0,53
559,985	0,52
560,433	0,52
560,881	0,52
561,329	0,52
561,777	0,51
562,225	0,51
562,674	0,51
563,122	0,51
563,57	0,51
564,018	0,5
564,466	0,5
564,914	0,5
565,362	0,5
565,809	0,49
566,257	0,49
566,705	0,49
567,153	0,49
567,601	0,49
568,048	0,48
568,496	0,48
568,944	0,48
569,392	0,48
569,839	0,47
570,287	0,47
570,734	0,47
571,182	0,47
571,63	0,47
572,077	0,46
572,525	0,46
572,972	0,46
573,419	0,46
573,867	0,46
574,314	0,45
574,761	0,45
575,209	0,45
575,656	0,45
576,103	0,45
576,551	0,45
576,998	0,45
577,445	0,45
577,892	0,44
578,339	0,44
578,786	0,44
579,233	0,44
579,68	0,44
580,127	0,44
580,574	0,44
581,021	0,43
581,468	0,43
581,915	0,43
582,362	0,43
582,809	0,43
583,255	0,43
583,702	0,43
584,149	0,42
584,596	0,42
585,042	0,42
585,489	0,42
585,936	0,42
586,382	0,42
586,829	0,42
587,275	0,42
587,722	0,41
588,168	0,41
588,615	0,41
589,061	0,41
589,508	0,41
589,954	0,41
590,4	0,41
590,847	0,41
591,293	0,41
591,739	0,41
592,185	0,4
592,632	0,4
593,078	0,4
593,524	0,4
593,97	0,4
594,416	0,4
594,862	0,4
595,308	0,4
595,754	0,4
596,2	0,4
596,646	0,4
597,092	0,39
597,538	0,39
597,984	0,39
598,43	0,39
598,876	0,39
599,321	0,39
599,767	0,39
600,213	0,39
600,659	0,39
601,104	0,39
601,55	0,39
601,995	0,39
602,441	0,39
602,887	0,38
603,332	0,38
603,778	0,38
604,223	0,38
604,668	0,38
605,114	0,38
605,559	0,38
606,005	0,38
606,45	0,38
606,895	0,38
607,341	0,38
607,786	0,38
608,231	0,38
608,676	0,38
609,121	0,37
609,566	0,37
610,012	0,37
610,457	0,36
610,902	0,36
611,347	0,36
611,792	0,36
612,237	0,36
612,682	0,35
613,127	0,35
613,571	0,36
614,016	0,36
614,461	0,36
614,906	0,36
615,351	0,36
615,795	0,36
616,24	0,36
616,685	0,36
617,129	0,36
617,574	0,36
618,019	0,36
618,463	0,36
618,908	0,36
619,352	0,36
619,797	0,36
620,241	0,36
620,686	0,36
621,13	0,36
621,574	0,36
622,019	0,36
622,463	0,36
622,907	0,36
623,352	0,36
623,796	0,36
624,24	0,36
624,684	0,36
625,128	0,36
625,572	0,36
626,016	0,36
626,461	0,36
626,905	0,36
627,349	0,36
627,793	0,36
628,236	0,36
628,68	0,36
629,124	0,36
629,568	0,35
630,012	0,35
630,456	0,35
630,9	0,35
631,343	0,35
631,787	0,35
632,231	0,35
632,674	0,35
633,118	0,35
633,562	0,35
634,005	0,35
634,449	0,35
634,892	0,35
635,336	0,35
635,779	0,35
636,223	0,35
636,666	0,35
637,109	0,35
637,553	0,35
637,996	0,35
638,439	0,35
638,883	0,35
639,326	0,35
639,769	0,35
640,212	0,35
640,655	0,35
641,099	0,35
641,542	0,35
641,985	0,35
642,428	0,35
642,871	0,35
643,314	0,35
643,757	0,35
644,2	0,35
644,643	0,35
645,085	0,35
645,528	0,35
645,971	0,35
646,414	0,35
646,857	0,34
647,299	0,34
647,742	0,34
648,185	0,34
648,627	0,34
649,07	0,34
649,513	0,34
649,955	0,34
650,398	0,34
650,84	0,34
651,283	0,34
651,725	0,34
652,168	0,34
652,61	0,34
653,052	0,34
653,495	0,34
653,937	0,26
654,379	0,21
654,821	0,22
655,264	0,22
655,706	0,22
656,148	0,22
656,59	0,22
657,032	0,22
657,474	0,22
657,916	0,22
658,358	0,21
658,8	0,26
659,242	0,34
659,684	0,34
660,126	0,34
660,568	0,34
661,01	0,34
661,452	0,34
661,894	0,34
662,335	0,34
662,777	0,34
663,219	0,34
663,661	0,34
664,102	0,34
664,544	0,34
664,985	0,34
665,427	0,34
665,869	0,34
666,31	0,34
666,752	0,34
667,193	0,34
667,634	0,34
668,076	0,34
668,517	0,34
668,959	0,34
669,4	0,34
669,841	0,34
670,282	0,34
670,724	0,34
671,165	0,34
671,606	0,34
672,047	0,34
672,488	0,33
672,929	0,33
673,37	0,33
673,811	0,33
674,252	0,33
674,693	0,33
675,134	0,33
675,575	0,33
676,016	0,33
676,457	0,33
676,898	0,33
677,339	0,33
677,78	0,33
678,22	0,33
678,661	0,33
679,102	0,33
679,542	0,33
679,983	0,33
680,424	0,33
680,864	0,33
681,305	0,33
681,745	0,33
682,186	0,33
682,626	0,33
683,067	0,33
683,507	0,33
683,948	0,33
684,388	0,33
684,828	0,33
685,269	0,33
685,709	0,33
686,149	0,33
686,589	0,33
687,029	0,32
687,47	0,32
687,91	0,32
688,35	0,32
688,79	0,32
689,23	0,32
689,67	0,32
690,11	0,32
690,55	0,32
690,99	0,32
691,43	0,32
691,87	0,32
692,31	0,32
692,749	0,32
693,189	0,32
693,629	0,32
694,069	0,32
694,508	0,32
694,948	0,32
695,388	0,32
695,827	0,32
696,267	0,32
696,706	0,32
697,146	0,32
697,586	0,32
698,025	0,32
698,464	0,32
698,904	0,32
699,343	0,32
699,783	0,32
700,222	0,32
700,661	0,32
701,101	0,32
701,54	0,32
701,979	0,32
702,418	0,32
702,857	0,32
703,297	0,32
703,736	0,32
704,175	0,32
704,614	0,32
705,053	0,32
705,492	0,32
705,931	0,32
706,37	0,32
706,809	0,32
707,248	0,31
707,687	0,31
708,125	0,31
708,564	0,31
709,003	0,31
709,442	0,31
709,88	0,31
710,319	0,31
710,758	0,31
711,196	0,31
711,635	0,31
712,074	0,31
712,512	0,31
712,951	0,31
713,389	0,31
713,828	0,31
714,266	0,31
714,705	0,31
715,143	0,31
715,581	0,31
716,02	0,31
716,458	0,31
716,896	0,31
717,334	0,3
717,773	0,3
718,211	0,3
718,649	0,3
719,087	0,3
719,525	0,3
719,963	0,3
720,401	0,3
720,839	0,3
721,277	0,31
721,715	0,31
722,153	0,31
722,591	0,31
723,029	0,31
723,467	0,31
723,905	0,31
724,342	0,3
724,78	0,3
725,218	0,3
725,656	0,31
726,093	0,31
726,531	0,31
726,969	0,31
727,406	0,31
727,844	0,31
728,281	0,3
728,719	0,3
729,156	0,3
729,594	0,3
730,031	0,3
730,469	0,3
730,906	0,3
731,343	0,3
731,781	0,3
732,218	0,3
732,655	0,3
733,092	0,3
733,53	0,3
733,967	0,3
734,404	0,3
734,841	0,3
735,278	0,3
735,715	0,3
736,152	0,3
736,589	0,3
737,026	0,3
737,463	0,3
737,9	0,3
738,337	0,3
738,774	0,29
739,211	0,29
739,647	0,29
740,084	0,29
740,521	0,29
740,958	0,29
741,394	0,29
741,831	0,29
742,268	0,29
742,704	0,29
743,141	0,29
743,577	0,29
744,014	0,29
744,45	0,28
744,887	0,28
745,323	0,28
745,76	0,28
746,196	0,28
746,632	0,28
747,069	0,28
747,505	0,28
747,941	0,28
748,378	0,28
748,814	0,28
749,25	0,28
749,686	0,28
750,122	0,28
750,558	0,29
750,994	0,29
751,43	0,29
751,866	0,29
752,302	0,29
752,738	0,29
753,174	0,29
753,61	0,29
754,046	0,29
754,482	0,29
754,918	0,29
755,354	0,29
755,789	0,3
756,225	0,29
756,661	0,29
757,096	0,29
757,532	0,29
757,968	0,29
758,403	0,29
758,839	0,29
759,274	0,29
759,71	0,28
760,145	0,28
760,581	0,27
761,016	0,27
761,452	0,27
761,887	0,26
762,322	0,26
762,758	0,26
763,193	0,25
763,628	0,25
764,063	0,24
764,499	0,24
764,934	0,23
765,369	0,23
765,804	0,22
766,239	0,22
766,674	0,22
767,109	0,21
767,544	0,21
767,979	0,2
768,414	0,19
768,849	0,18
769,284	0,18
769,719	0,17
770,154	0,16
770,588	0,15
771,023	0,14
771,458	0,13
771,893	0,12
772,327	0,11
772,762	0,1
773,197	0,09
773,631	0,09
774,066	0,08
774,5	0,08
774,935	0,07
775,369	0,07
775,804	0,06
776,238	0,05
776,673	0,05
777,107	0,04
777,541	0,03
777,976	0,02
778,41	0,01
778,844	0
779,279	0
779,713	-0,01
780,147	-0,02
780,581	-0,03
781,015	-0,04
781,449	-0,04
781,883	-0,05
782,317	-0,07
782,751	-0,08
783,185	-0,08
783,619	-0,09
784,053	-0,1
784,487	-0,11
784,921	-0,11
785,355	-0,12
785,789	-0,13
786,223	-0,14
786,656	-0,14
787,09	-0,15
787,524	-0,16
787,957	-0,17
788,391	-0,19
788,825	-0,2
789,258	-0,21
789,692	-0,23
790,125	-0,24
790,559	-0,26
790,992	-0,28
791,426	-0,31
791,859	-0,32
792,293	-0,35
792,726	-0,37
793,159	-0,39
793,593	-0,41
794,026	-0,43
794,459	-0,45
794,892	-0,48
795,326	-0,5
795,759	-0,54
796,192	-0,59
796,625	-0,63
797,058	-0,65
797,491	-0,7
797,924	-0,74
798,357	-0,79
798,79	-0,83
799,223	-0,87
799,656	-0,93
800,089	-0,98
800,522	-1,02
800,955	-1,06
801,387	-1,12
801,82	-1,17
802,253	-1,24
802,686	-1,31
803,118	-1,37
803,551	-1,42
803,984	-1,47
804,416	-1,5
804,849	-1,54
805,281	-1,64
805,714	-1,99
806,146	-2,45
806,579	-2,71
807,011	-2,87
807,444	-2,96
807,876	-3,06
808,308	-3,09
808,741	-3,12
809,173	-3,17
809,605	-3,19
810,037	-3,27
810,47	-3,19
810,902	-2,99
811,334	-2,85
811,766	-2,69
812,198	-2,47
812,63	-2,04
813,062	-1,82
813,494	-1,72
813,926	-1,64
814,358	-1,58
814,79	-1,5
815,222	-1,44
815,654	-1,39
816,086	-1,33
816,518	-1,27
816,949	-1,22
817,381	-1,17
817,813	-1,15
818,245	-1,11
818,676	-1,07
819,108	-1,04
819,54	-1,03
819,971	-1
820,403	-0,95
820,834	-0,94
821,266	-0,89
821,697	-0,87
822,129	-0,85
822,56	-0,83
822,991	-0,8
823,423	-0,77
823,854	-0,76
824,286	-0,73
824,717	-0,72
825,148	-0,7
825,579	-0,69
826,01	-0,67
826,442	-0,67
826,873	-0,65
827,304	-0,61
827,735	-0,61
828,166	-0,62
828,597	-0,62
829,028	-0,62
829,459	-0,62
829,89	-0,62
830,321	-0,57
830,752	-0,58
831,183	-0,56
831,613	-0,55
832,044	-0,55
832,475	-0,53
832,906	-0,54
833,336	-0,53
833,767	-0,54
834,198	-0,53
834,628	-0,52
835,059	-0,55
835,49	-0,55
835,92	-0,53
836,351	-0,53
836,781	-0,54
837,212	-0,55
837,642	-0,55
838,072	-0,54
838,503	-0,55
838,933	-0,53
839,364	-0,54
839,794	-0,52
840,224	-0,51
840,654	-0,55
841,085	-0,56
841,515	-0,54
841,945	-0,54
842,375	-0,5
842,805	-0,49
843,235	-0,47
843,665	-0,48
844,095	-0,46
844,525	-0,48
844,955	-0,49
845,385	-0,47
845,815	-0,45
846,245	-0,47
846,675	-0,47
847,105	-0,49
847,534	-0,49
847,964	-0,48
848,394	-0,46
848,824	-0,49
849,253	-0,49
849,683	-0,48
850,112	-0,5
850,542	-0,54
850,972	-0,54
851,401	-0,52
851,831	-0,5
852,26	-0,5
852,69	-0,54
853,119	-0,54
853,548	-0,55
853,978	-0,55
854,407	-0,53
854,836	-0,53
855,266	-0,52
855,695	-0,53
856,124	-0,54
856,553	-0,55
856,983	-0,57
857,412	-0,56
857,841	-0,56
858,27	-0,56
858,699	-0,57
859,128	-0,6
859,557	-0,61
859,986	-0,62
860,415	-0,6
860,844	-0,57
861,273	-0,57
861,702	-0,58
862,13	-0,57
862,559	-0,59
862,988	-0,55
863,417	-0,54
863,845	-0,53
864,274	-0,53
864,703	-0,53
865,131	-0,53
865,56	-0,54
865,989	-0,57
866,417	-0,54
866,846	-0,55
867,274	-0,55
867,703	-0,57
868,131	-0,58
868,559	-0,59
868,988	-0,61
869,416	-0,6
869,844	-0,61
870,273	-0,64
870,701	-0,62
871,129	-0,66
871,557	-0,67
871,986	-0,67
872,414	-0,69
872,842	-0,67
873,27	-0,65
873,698	-0,62
874,126	-0,66
874,554	-0,64
874,982	-0,64
875,41	-0,67
875,838	-0,61
876,266	-0,59
876,694	-0,59
877,122	-0,57
877,549	-0,62
877,977	-0,59
878,405	-0,61
878,833	-0,58
879,26	-0,57
879,688	-0,57
880,116	-0,55
880,543	-0,53
880,971	-0,53
881,399	-0,55
881,826	-0,56
882,254	-0,53
882,681	-0,57
883,109	-0,54
883,536	-0,55
883,963	-0,56
884,391	-0,53
884,818	-0,52
885,245	-0,55
885,673	-0,57
886,1	-0,55
886,527	-0,55
886,954	-0,52
887,381	-0,53
887,809	-0,55
888,236	-0,57
888,663	-0,59
889,09	-0,64
889,517	-0,65
889,944	-0,65
890,371	-0,65
890,798	-0,65
891,225	-0,65
891,652	-0,68
892,078	-0,65
892,505	-0,67
892,932	-0,62
893,359	-0,62
893,786	-0,62
894,212	-0,59
894,639	-0,6
895,066	-0,61
895,492	-0,56
895,919	-0,56
896,346	-0,56
896,772	-0,56
897,199	-0,53
897,625	-0,56
898,052	-0,52
898,478	-0,51
898,904	-0,52
899,331	-0,52
899,757	-0,55
900,183	-0,57
900,61	-0,54
901,036	-0,55
901,462	-0,55
901,888	-0,54
902,315	-0,52
902,741	-0,58
903,167	-0,56
903,593	-0,59
904,019	-0,58
904,445	-0,54
904,871	-0,57
905,297	-0,6
905,723	-0,59
906,149	-0,58
906,575	-0,59
907,001	-0,59
907,427	-0,56
907,852	-0,55
908,278	-0,55
908,704	-0,53
909,13	-0,53
909,555	-0,52
909,981	-0,52
910,407	-0,52
910,832	-0,52
911,258	-0,53
911,684	-0,53
912,109	-0,53
912,535	-0,56
912,96	-0,51
913,386	-0,55
913,811	-0,55
914,236	-0,57
914,662	-0,55
915,087	-0,59
915,512	-0,59
915,938	-0,59
916,363	-0,58
916,788	-0,59
917,213	-0,57
917,639	-0,61
918,064	-0,59
918,489	-0,59
918,914	-0,59
919,339	-0,59
919,764	-0,56
920,189	-0,55
920,614	-0,58
921,039	-0,58
921,464	-0,54
921,889	-0,56
922,314	-0,57
922,738	-0,61
923,163	-0,62
923,588	-0,61
924,013	-0,61
924,437	-0,61
924,862	-0,62
925,287	-0,58
925,711	-0,6
926,136	-0,61
926,561	-0,61
926,985	-0,6
927,41	-0,57
927,834	-0,56
928,259	-0,53
928,683	-0,5
929,108	-0,48
929,532	-0,49
929,956	-0,48
930,381	-0,48
930,805	-0,48
931,229	-0,46
931,653	-0,44
932,078	-0,44
932,502	-0,45
932,926	-0,47
933,35	-0,47
933,774	-0,46
934,198	-0,45
934,622	-0,43
935,046	-0,44
935,47	-0,44
935,894	-0,45
936,318	-0,44
936,742	-0,44
937,166	-0,45
937,59	-0,44
938,014	-0,46
938,437	-0,46
938,861	-0,49
939,285	-0,5
939,709	-0,5
940,132	-0,5
940,556	-0,51
940,98	-0,51
941,403	-0,5
941,827	-0,5
942,25	-0,5
942,674	-0,5
943,097	-0,49
943,521	-0,48
943,944	-0,49
944,368	-0,48
944,791	-0,46
945,214	-0,48
945,638	-0,49
946,061	-0,53
946,484	-0,53
946,907	-0,52
947,331	-0,51
947,754	-0,56
948,177	-0,53
948,6	-0,53
949,023	-0,53
949,446	-0,54
949,869	-0,51
950,292	-0,51
950,715	-0,48
951,138	-0,46
951,561	-0,44
951,984	-0,44
952,407	-0,42
952,83	-0,41
953,252	-0,36
953,675	-0,36
954,098	-0,37
954,521	-0,35
954,943	-0,34
955,366	-0,35
955,789	-0,35
956,211	-0,37
956,634	-0,37
957,056	-0,35
957,479	-0,36
957,902	-0,39
958,324	-0,4
958,746	-0,38
959,169	-0,38
959,591	-0,39
960,014	-0,41
960,436	-0,4
960,858	-0,39
961,281	-0,39
961,703	-0,4
962,125	-0,39
962,547	-0,37
962,969	-0,38
963,391	-0,39
963,814	-0,4
964,236	-0,38
964,658	-0,35
965,08	-0,36
965,502	-0,36
965,924	-0,33
966,346	-0,34
966,768	-0,34
967,189	-0,35
967,611	-0,35
968,033	-0,34
968,455	-0,33
968,877	-0,34
969,298	-0,35
969,72	-0,36
970,142	-0,35
970,563	-0,36
970,985	-0,34
971,407	-0,33
971,828	-0,32
972,25	-0,3
972,671	-0,29
973,093	-0,28
973,514	-0,27
973,936	-0,25
974,357	-0,24
974,778	-0,24
975,2	-0,24
975,621	-0,23
976,042	-0,22
976,464	-0,21
976,885	-0,2
977,306	-0,2
977,727	-0,2
978,148	-0,19
978,57	-0,18
978,991	-0,16
979,412	-0,14
979,833	-0,14
980,254	-0,14
980,675	-0,14
981,096	-0,13
981,517	-0,11
981,937	-0,1
982,358	-0,09
982,779	-0,08
983,2	-0,08
983,621	-0,08
984,042	-0,06
984,462	-0,04
984,883	-0,03
985,304	-0,02
985,724	-0,01
986,145	-0
986,565	0,02
986,986	0,02
987,407	0,03
987,827	0,05
988,248	0,06
988,668	0,07
989,088	0,07
989,509	0,08
989,929	0,09
990,35	0,09
990,77	0,1
991,19	0,11
991,61	0,12
992,031	0,12
992,451	0,12
992,871	0,13
993,291	0,14
993,711	0,14
994,131	0,15
994,551	0,16
994,971	0,16
995,391	0,17
995,811	0,17
996,231	0,17
996,651	0,18
997,071	0,19
997,491	0,19
997,911	0,2
998,331	0,2
998,75	0,21
999,17	0,21
999,59	0,22
1000,009	0,22
1000,429	0,22
1000,849	0,23
1001,268	0,23
1001,688	0,23
1002,107	0,23
1002,527	0,23
1002,946	0,23
1003,366	0,24
1003,785	0,24
1004,205	0,24
1004,624	0,24
1005,044	0,24
1005,463	0,24
1005,882	0,25
1006,301	0,25
1006,721	0,25
1007,14	0,25
1007,559	0,25
1007,978	0,25
1008,397	0,25
1008,816	0,25
1009,235	0,25
1009,655	0,25
1010,074	0,25
1010,492	0,25
1010,911	0,24
1011,33	0,24
1011,749	0,24
1012,168	0,24
1012,587	0,24
1013,006	0,24
1013,425	0,24
1013,843	0,24
1014,262	0,24
1014,681	0,24
1015,099	0,24
1015,518	0,24
1015,937	0,24
1016,355	0,24
1016,774	0,24
1017,192	0,24
1017,611	0,24
1018,029	0,24
1018,448	0,24
1018,866	0,24
1019,285	0,24
1019,703	0,24
1020,121	0,24
1020,54	0,24
1020,958	0,24
1021,376	0,24
1021,794	0,24
1022,213	0,24
1022,631	0,24
1023,049	0,24
1023,467	0,24
1023,885	0,24
1024,303	0,24
1024,721	0,24
1025,139	0,24
1025,557	0,24
1025,975	0,24
1026,393	0,24
1026,811	0,24
1027,229	0,24
1027,647	0,24
1028,065	0,24
1028,482	0,24
1028,9	0,24
1029,318	0,24
1029,735	0,23
1030,153	0,23
1030,571	0,23
1030,988	0,23
1031,406	0,23
1031,823	0,23
1032,241	0,23
1032,659	0,23
1033,076	0,23
1033,493	0,23
1033,911	0,23
1034,328	0,23
1034,746	0,23
1035,163	0,23
1035,58	0,23
1035,997	0,23
1036,415	0,23
1036,832	0,23
1037,249	0,23
1037,666	0,23
1038,083	0,23
1038,501	0,23
1038,918	0,23
1039,335	0,23
1039,752	0,23
1040,169	0,23
1040,586	0,23
1041,003	0,23
1041,419	0,23
1041,836	0,23
1042,253	0,23
1042,67	0,23
1043,087	0,22
1043,504	0,22
1043,92	0,22
1044,337	0,22
1044,754	0,22
1045,17	0,22
1045,587	0,22
1046,004	0,22
1046,42	0,22
1046,837	0,22
1047,253	0,22
1047,67	0,22
1048,086	0,22
1048,503	0,22
1048,919	0,22
1049,335	0,22
1049,752	0,22
1050,168	0,22
1050,584	0,22
1051,001	0,22
1051,417	0,22
1051,833	0,22
1052,249	0,22
1052,665	0,22
1053,081	0,22
1053,497	0,22
1053,914	0,22
1054,33	0,22
1054,746	0,22
1055,162	0,23
1055,578	0,23
1055,993	0,23
1056,409	0,23
1056,825	0,23
1057,241	0,23
1057,657	0,23
1058,073	0,23
1058,488	0,23
1058,904	0,23
1059,32	0,23
1059,736	0,23
1060,151	0,23
1060,567	0,23
1060,982	0,23
1061,398	0,23
1061,813	0,23
1062,229	0,23
1062,644	0,23
1063,06	0,23
1063,475	0,23
1063,891	0,22
1064,306	0,22
1064,721	0,22
1065,137	0,22
1065,552	0,22
1065,967	0,22
1066,382	0,22
1066,798	0,22
1067,213	0,22
1067,628	0,22
1068,043	0,22
1068,458	0,22
1068,873	0,22
1069,288	0,22
1069,703	0,22
1070,118	0,23
1070,533	0,23
1070,948	0,23
1071,363	0,23
1071,778	0,23
1072,193	0,23
1072,607	0,23
1073,022	0,23
1073,437	0,23
1073,852	0,23
1074,266	0,23
1074,681	0,23
1075,096	0,23
1075,51	0,23
1075,925	0,23
1076,339	0,23
1076,754	0,23
1077,168	0,23
1077,583	0,23
1077,997	0,23
1078,412	0,23
1078,826	0,23
1079,24	0,23
1079,655	0,23
1080,069	0,23
1080,483	0,23
1080,897	0,22
1081,312	0,23
1081,726	0,22
1082,14	0,22
1082,554	0,22
1082,968	0,22
1083,382	0,22
1083,796	0,22
1084,21	0,22
1084,624	0,22
1085,038	0,22
1085,452	0,22
1085,866	0,21
1086,28	0,21
1086,694	0,21
1087,108	0,21
1087,521	0,21
1087,935	0,21
1088,349	0,21
1088,763	0,21
1089,176	0,21
1089,59	0,21
1090,004	0,2
1090,417	0,2
1090,831	0,2
1091,244	0,2
1091,658	0,2
1092,071	0,19
1092,485	0,19
1092,898	0,19
1093,312	0,19
1093,725	0,19
1094,138	0,19
1094,552	0,19
1094,965	0,19
1095,378	0,19
1095,791	0,19
1096,205	0,19
1096,618	0,19
1097,031	0,18
1097,444	0,18
1097,857	0,18
1098,27	0,18
1098,683	0,18
1099,096	0,17
1099,509	0,17
1099,922	0,17
1100,335	0,17
1100,748	0,16
1101,161	0,16
1101,574	0,15
1101,986	0,15
1102,399	0,15
1102,812	0,14
1103,225	0,14
1103,637	0,14
1104,05	0,14
1104,463	0,14
1104,875	0,13
1105,288	0,13
1105,7	0,13
1106,113	0,13
1106,525	0,13
1106,938	0,12
1107,35	0,12
1107,763	0,12
1108,175	0,11
1108,588	0,11
1109	0,1
1109,412	0,1
1109,824	0,1
1110,237	0,1
1110,649	0,1
1111,061	0,09
