Data from 18C-808nm-8A_Absorbance__1180__01180.txt Node

Date: Mon Jul 17 17:05:33 CEST 2023
User: Laser008
Spectrometer: MAYP115816
Trigger mode: 0
Integration Time (sec): 2,500000E-1
Scans to average: 10
Electric dark correction enabled: true
Nonlinearity correction enabled: true
Boxcar width: 5
XAxis mode: Wavelengths
Number of Pixels in Spectrum: 2068
>>>>>Begin Spectral Data<<<<<
198,914	-0,76
199,384	-0,54
199,855	-0,41
200,325	-0,32
200,796	-0,28
201,266	-0,22
201,737	-0,21
202,207	-0,2
202,677	-0,18
203,147	-0,17
203,618	-0,13
204,088	-0,12
204,558	-0,1
205,028	-0,09
205,498	-0,1
205,968	-0,1
206,439	-0,12
206,909	-0,11
207,379	-0,11
207,849	-0,11
208,319	-0,12
208,789	-0,13
209,258	-0,13
209,728	-0,14
210,198	-0,13
210,668	-0,13
211,138	-0,12
211,608	-0,12
212,077	-0,13
212,547	-0,13
213,017	-0,13
213,486	-0,13
213,956	-0,13
214,426	-0,14
214,895	-0,13
215,365	-0,15
215,834	-0,15
216,304	-0,17
216,773	-0,17
217,243	-0,18
217,712	-0,19
218,181	-0,19
218,651	-0,19
219,12	-0,19
219,589	-0,19
220,058	-0,18
220,528	-0,18
220,997	-0,19
221,466	-0,2
221,935	-0,2
222,404	-0,2
222,873	-0,18
223,342	-0,18
223,812	-0,19
224,281	-0,18
224,749	-0,19
225,218	-0,21
225,687	-0,21
226,156	-0,2
226,625	-0,19
227,094	-0,18
227,563	-0,18
228,031	-0,2
228,5	-0,2
228,969	-0,21
229,438	-0,21
229,906	-0,19
230,375	-0,18
230,844	-0,17
231,312	-0,18
231,781	-0,18
232,249	-0,18
232,718	-0,18
233,186	-0,16
233,655	-0,16
234,123	-0,16
234,591	-0,15
235,06	-0,16
235,528	-0,17
235,996	-0,16
236,465	-0,16
236,933	-0,15
237,401	-0,15
237,869	-0,15
238,337	-0,15
238,805	-0,14
239,274	-0,14
239,742	-0,13
240,21	-0,13
240,678	-0,12
241,146	-0,12
241,614	-0,12
242,081	-0,11
242,549	-0,11
243,017	-0,12
243,485	-0,11
243,953	-0,12
244,421	-0,12
244,888	-0,12
245,356	-0,13
245,824	-0,13
246,291	-0,14
246,759	-0,14
247,227	-0,15
247,694	-0,13
248,162	-0,13
248,629	-0,12
249,097	-0,13
249,564	-0,14
250,032	-0,14
250,499	-0,14
250,967	-0,14
251,434	-0,13
251,901	-0,13
252,369	-0,13
252,836	-0,14
253,303	-0,15
253,77	-0,17
254,237	-0,16
254,705	-0,16
255,172	-0,15
255,639	-0,16
256,106	-0,18
256,573	-0,18
257,04	-0,19
257,507	-0,19
257,974	-0,19
258,441	-0,17
258,908	-0,18
259,375	-0,19
259,841	-0,19
260,308	-0,2
260,775	-0,2
261,242	-0,19
261,709	-0,2
262,175	-0,2
262,642	-0,2
263,109	-0,19
263,575	-0,21
264,042	-0,19
264,508	-0,19
264,975	-0,21
265,441	-0,22
265,908	-0,23
266,374	-0,22
266,841	-0,22
267,307	-0,23
267,773	-0,21
268,24	-0,22
268,706	-0,22
269,172	-0,23
269,639	-0,24
270,105	-0,23
270,571	-0,22
271,037	-0,22
271,503	-0,22
271,969	-0,22
272,435	-0,22
272,902	-0,23
273,368	-0,25
273,834	-0,24
274,3	-0,25
274,765	-0,25
275,231	-0,25
275,697	-0,24
276,163	-0,24
276,629	-0,23
277,095	-0,24
277,56	-0,23
278,026	-0,23
278,492	-0,21
278,958	-0,21
279,423	-0,2
279,889	-0,2
280,354	-0,21
280,82	-0,2
281,286	-0,21
281,751	-0,22
282,217	-0,22
282,682	-0,21
283,147	-0,21
283,613	-0,23
284,078	-0,22
284,544	-0,24
285,009	-0,24
285,474	-0,24
285,939	-0,25
286,405	-0,24
286,87	-0,23
287,335	-0,23
287,8	-0,22
288,265	-0,21
288,73	-0,22
289,195	-0,24
289,66	-0,23
290,125	-0,22
290,59	-0,22
291,055	-0,21
291,52	-0,22
291,985	-0,22
292,45	-0,24
292,915	-0,24
293,38	-0,24
293,844	-0,22
294,309	-0,21
294,774	-0,2
295,239	-0,21
295,703	-0,21
296,168	-0,21
296,632	-0,2
297,097	-0,19
297,562	-0,18
298,026	-0,19
298,491	-0,19
298,955	-0,18
299,419	-0,17
299,884	-0,18
300,348	-0,16
300,813	-0,15
301,277	-0,16
301,741	-0,15
302,205	-0,15
302,67	-0,15
303,134	-0,14
303,598	-0,14
304,062	-0,13
304,526	-0,14
304,99	-0,15
305,454	-0,15
305,919	-0,15
306,383	-0,15
306,847	-0,16
307,31	-0,17
307,774	-0,17
308,238	-0,17
308,702	-0,18
309,166	-0,2
309,63	-0,19
310,094	-0,16
310,557	-0,16
311,021	-0,15
311,485	-0,16
311,948	-0,14
312,412	-0,14
312,876	-0,13
313,339	-0,13
313,803	-0,13
314,266	-0,12
314,73	-0,13
315,193	-0,14
315,657	-0,12
316,12	-0,12
316,584	-0,11
317,047	-0,11
317,51	-0,1
317,973	-0,09
318,437	-0,08
318,9	-0,07
319,363	-0,07
319,826	-0,07
320,29	-0,07
320,753	-0,07
321,216	-0,07
321,679	-0,07
322,142	-0,07
322,605	-0,09
323,068	-0,09
323,531	-0,1
323,994	-0,09
324,457	-0,08
324,92	-0,08
325,382	-0,08
325,845	-0,08
326,308	-0,07
326,771	-0,07
327,233	-0,06
327,696	-0,05
328,159	-0,04
328,622	-0,03
329,084	-0,04
329,547	-0,03
330,009	-0,03
330,472	-0,02
330,934	-0,01
331,397	-0,01
331,859	0
332,322	0
332,784	0
333,246	0,02
333,709	0,01
334,171	0,02
334,633	0,02
335,096	0,01
335,558	0,02
336,02	0,02
336,482	0,02
336,944	0,03
337,406	0,04
337,868	0,05
338,331	0,04
338,793	0,04
339,255	0,04
339,717	0,05
340,178	0,05
340,64	0,06
341,102	0,06
341,564	0,07
342,026	0,07
342,488	0,08
342,949	0,08
343,411	0,11
343,873	0,13
344,335	0,15
344,796	0,19
345,258	0,22
345,719	0,25
346,181	0,28
346,643	0,31
347,104	0,33
347,566	0,35
348,027	0,37
348,488	0,39
348,95	0,4
349,411	0,41
349,873	0,42
350,334	0,43
350,795	0,44
351,256	0,45
351,718	0,46
352,179	0,46
352,64	0,46
353,101	0,46
353,562	0,47
354,023	0,47
354,484	0,47
354,945	0,47
355,406	0,47
355,867	0,47
356,328	0,47
356,789	0,47
357,25	0,48
357,711	0,48
358,172	0,48
358,633	0,48
359,093	0,48
359,554	0,48
360,015	0,48
360,476	0,48
360,936	0,48
361,397	0,48
361,858	0,48
362,318	0,48
362,779	0,49
363,239	0,49
363,7	0,49
364,16	0,49
364,621	0,49
365,081	0,49
365,541	0,49
366,002	0,49
366,462	0,49
366,922	0,48
367,383	0,48
367,843	0,48
368,303	0,48
368,763	0,48
369,223	0,48
369,684	0,48
370,144	0,48
370,604	0,49
371,064	0,49
371,524	0,49
371,984	0,49
372,444	0,49
372,904	0,48
373,363	0,48
373,823	0,48
374,283	0,48
374,743	0,48
375,203	0,48
375,663	0,48
376,122	0,48
376,582	0,48
377,042	0,48
377,501	0,48
377,961	0,48
378,42	0,48
378,88	0,48
379,34	0,48
379,799	0,48
380,259	0,48
380,718	0,48
381,177	0,48
381,637	0,48
382,096	0,48
382,555	0,48
383,015	0,48
383,474	0,48
383,933	0,48
384,393	0,48
384,852	0,48
385,311	0,48
385,77	0,48
386,229	0,48
386,688	0,48
387,147	0,48
387,606	0,48
388,065	0,48
388,524	0,47
388,983	0,47
389,442	0,47
389,901	0,47
390,36	0,47
390,819	0,47
391,277	0,47
391,736	0,47
392,195	0,47
392,654	0,47
393,112	0,47
393,571	0,47
394,03	0,47
394,488	0,47
394,947	0,47
395,405	0,47
395,864	0,47
396,322	0,47
396,781	0,47
397,239	0,47
397,698	0,47
398,156	0,47
398,614	0,47
399,073	0,47
399,531	0,47
399,989	0,47
400,447	0,47
400,905	0,47
401,364	0,47
401,822	0,47
402,28	0,47
402,738	0,47
403,196	0,47
403,654	0,47
404,112	0,47
404,57	0,47
405,028	0,47
405,486	0,47
405,944	0,47
406,402	0,47
406,859	0,47
407,317	0,47
407,775	0,47
408,233	0,47
408,691	0,47
409,148	0,47
409,606	0,47
410,064	0,47
410,521	0,46
410,979	0,46
411,436	0,46
411,894	0,46
412,351	0,46
412,809	0,46
413,266	0,46
413,724	0,46
414,181	0,46
414,638	0,46
415,096	0,46
415,553	0,46
416,01	0,46
416,467	0,46
416,925	0,46
417,382	0,46
417,839	0,46
418,296	0,46
418,753	0,46
419,21	0,46
419,667	0,46
420,124	0,46
420,581	0,46
421,038	0,46
421,495	0,46
421,952	0,46
422,409	0,46
422,866	0,46
423,322	0,46
423,779	0,46
424,236	0,46
424,693	0,46
425,149	0,46
425,606	0,46
426,063	0,46
426,519	0,46
426,976	0,46
427,433	0,46
427,889	0,46
428,346	0,46
428,802	0,46
429,258	0,46
429,715	0,46
430,171	0,46
430,628	0,46
431,084	0,46
431,54	0,46
431,997	0,46
432,453	0,46
432,909	0,46
433,365	0,46
433,821	0,45
434,277	0,45
434,734	0,45
435,19	0,45
435,646	0,45
436,102	0,45
436,558	0,45
437,014	0,45
437,47	0,45
437,925	0,45
438,381	0,46
438,837	0,46
439,293	0,46
439,749	0,46
440,205	0,46
440,66	0,46
441,116	0,45
441,572	0,45
442,027	0,45
442,483	0,45
442,939	0,45
443,394	0,45
443,85	0,45
444,305	0,45
444,761	0,46
445,216	0,46
445,672	0,46
446,127	0,46
446,582	0,46
447,038	0,46
447,493	0,46
447,948	0,46
448,403	0,46
448,859	0,46
449,314	0,46
449,769	0,46
450,224	0,46
450,679	0,46
451,134	0,46
451,589	0,46
452,044	0,46
452,499	0,46
452,954	0,46
453,409	0,46
453,864	0,46
454,319	0,46
454,774	0,46
455,229	0,46
455,684	0,46
456,138	0,46
456,593	0,46
457,048	0,46
457,503	0,46
457,957	0,46
458,412	0,46
458,866	0,46
459,321	0,46
459,776	0,46
460,23	0,46
460,685	0,46
461,139	0,46
461,593	0,46
462,048	0,46
462,502	0,46
462,957	0,46
463,411	0,46
463,865	0,46
464,319	0,46
464,774	0,46
465,228	0,46
465,682	0,46
466,136	0,46
466,59	0,47
467,044	0,47
467,499	0,47
467,953	0,47
468,407	0,47
468,861	0,47
469,315	0,47
469,768	0,47
470,222	0,47
470,676	0,47
471,13	0,47
471,584	0,47
472,038	0,47
472,491	0,47
472,945	0,47
473,399	0,47
473,852	0,47
474,306	0,47
474,76	0,47
475,213	0,47
475,667	0,47
476,12	0,47
476,574	0,47
477,027	0,48
477,481	0,48
477,934	0,48
478,388	0,48
478,841	0,48
479,294	0,48
479,748	0,48
480,201	0,48
480,654	0,48
481,107	0,49
481,561	0,49
482,014	0,49
482,467	0,49
482,92	0,49
483,373	0,49
483,826	0,49
484,279	0,49
484,732	0,49
485,185	0,49
485,638	0,5
486,091	0,5
486,544	0,5
486,997	0,5
487,449	0,5
487,902	0,5
488,355	0,5
488,808	0,5
489,26	0,51
489,713	0,51
490,166	0,51
490,618	0,51
491,071	0,51
491,523	0,51
491,976	0,52
492,429	0,52
492,881	0,52
493,333	0,52
493,786	0,52
494,238	0,53
494,691	0,53
495,143	0,53
495,595	0,53
496,048	0,53
496,5	0,54
496,952	0,54
497,404	0,54
497,856	0,54
498,309	0,54
498,761	0,55
499,213	0,55
499,665	0,55
500,117	0,55
500,569	0,56
501,021	0,56
501,473	0,56
501,925	0,56
502,377	0,57
502,828	0,57
503,28	0,57
503,732	0,57
504,184	0,58
504,636	0,58
505,087	0,58
505,539	0,58
505,991	0,59
506,442	0,59
506,894	0,59
507,345	0,59
507,797	0,6
508,249	0,6
508,7	0,6
509,151	0,6
509,603	0,61
510,054	0,61
510,506	0,61
510,957	0,61
511,408	0,62
511,86	0,62
512,311	0,62
512,762	0,62
513,213	0,62
513,665	0,63
514,116	0,63
514,567	0,63
515,018	0,63
515,469	0,63
515,92	0,64
516,371	0,64
516,822	0,64
517,273	0,64
517,724	0,65
518,175	0,65
518,626	0,65
519,076	0,65
519,527	0,65
519,978	0,65
520,429	0,65
520,88	0,66
521,33	0,66
521,781	0,66
522,232	0,66
522,682	0,66
523,133	0,66
523,583	0,66
524,034	0,66
524,484	0,67
524,935	0,67
525,385	0,67
525,836	0,67
526,286	0,67
526,736	0,67
527,187	0,67
527,637	0,67
528,087	0,67
528,538	0,67
528,988	0,67
529,438	0,67
529,888	0,67
530,338	0,67
530,788	0,67
531,238	0,66
531,688	0,66
532,139	0,66
532,589	0,66
533,038	0,66
533,488	0,66
533,938	0,66
534,388	0,66
534,838	0,66
535,288	0,66
535,738	0,66
536,187	0,65
536,637	0,65
537,087	0,65
537,537	0,65
537,986	0,65
538,436	0,64
538,885	0,64
539,335	0,64
539,785	0,64
540,234	0,63
540,684	0,63
541,133	0,63
541,582	0,63
542,032	0,62
542,481	0,62
542,931	0,62
543,38	0,61
543,829	0,61
544,278	0,61
544,728	0,61
545,177	0,6
545,626	0,6
546,075	0,6
546,524	0,6
546,973	0,59
547,422	0,59
547,871	0,59
548,32	0,59
548,769	0,59
549,218	0,59
549,667	0,59
550,116	0,59
550,565	0,59
551,014	0,58
551,463	0,58
551,911	0,58
552,36	0,58
552,809	0,57
553,258	0,57
553,706	0,57
554,155	0,57
554,603	0,57
555,052	0,56
555,501	0,56
555,949	0,56
556,398	0,56
556,846	0,55
557,294	0,55
557,743	0,55
558,191	0,55
558,64	0,54
559,088	0,54
559,536	0,54
559,985	0,54
560,433	0,53
560,881	0,53
561,329	0,53
561,777	0,53
562,225	0,53
562,674	0,52
563,122	0,52
563,57	0,52
564,018	0,52
564,466	0,52
564,914	0,51
565,362	0,51
565,809	0,51
566,257	0,51
566,705	0,5
567,153	0,5
567,601	0,5
568,048	0,5
568,496	0,5
568,944	0,49
569,392	0,49
569,839	0,49
570,287	0,49
570,734	0,49
571,182	0,48
571,63	0,48
572,077	0,48
572,525	0,48
572,972	0,48
573,419	0,47
573,867	0,47
574,314	0,47
574,761	0,47
575,209	0,47
575,656	0,46
576,103	0,46
576,551	0,46
576,998	0,46
577,445	0,46
577,892	0,46
578,339	0,46
578,786	0,46
579,233	0,45
579,68	0,45
580,127	0,45
580,574	0,45
581,021	0,45
581,468	0,45
581,915	0,45
582,362	0,44
582,809	0,44
583,255	0,44
583,702	0,44
584,149	0,44
584,596	0,44
585,042	0,44
585,489	0,43
585,936	0,43
586,382	0,43
586,829	0,43
587,275	0,43
587,722	0,43
588,168	0,43
588,615	0,43
589,061	0,43
589,508	0,43
589,954	0,43
590,4	0,42
590,847	0,42
591,293	0,42
591,739	0,42
592,185	0,42
592,632	0,42
593,078	0,42
593,524	0,42
593,97	0,42
594,416	0,42
594,862	0,42
595,308	0,42
595,754	0,41
596,2	0,41
596,646	0,41
597,092	0,41
597,538	0,41
597,984	0,41
598,43	0,41
598,876	0,41
599,321	0,41
599,767	0,41
600,213	0,41
600,659	0,41
601,104	0,4
601,55	0,4
601,995	0,4
602,441	0,4
602,887	0,4
603,332	0,4
603,778	0,4
604,223	0,4
604,668	0,4
605,114	0,4
605,559	0,4
606,005	0,4
606,45	0,4
606,895	0,4
607,341	0,4
607,786	0,4
608,231	0,4
608,676	0,39
609,121	0,39
609,566	0,38
610,012	0,38
610,457	0,38
610,902	0,38
611,347	0,37
611,792	0,37
612,237	0,37
612,682	0,37
613,127	0,37
613,571	0,37
614,016	0,37
614,461	0,38
614,906	0,38
615,351	0,38
615,795	0,38
616,24	0,38
616,685	0,38
617,129	0,38
617,574	0,38
618,019	0,38
618,463	0,38
618,908	0,38
619,352	0,38
619,797	0,38
620,241	0,38
620,686	0,38
621,13	0,38
621,574	0,38
622,019	0,38
622,463	0,38
622,907	0,38
623,352	0,38
623,796	0,38
624,24	0,37
624,684	0,37
625,128	0,37
625,572	0,37
626,016	0,37
626,461	0,37
626,905	0,37
627,349	0,37
627,793	0,37
628,236	0,37
628,68	0,37
629,124	0,37
629,568	0,37
630,012	0,37
630,456	0,37
630,9	0,37
631,343	0,37
631,787	0,37
632,231	0,37
632,674	0,37
633,118	0,37
633,562	0,37
634,005	0,37
634,449	0,37
634,892	0,37
635,336	0,37
635,779	0,37
636,223	0,37
636,666	0,37
637,109	0,37
637,553	0,37
637,996	0,37
638,439	0,37
638,883	0,37
639,326	0,37
639,769	0,37
640,212	0,37
640,655	0,37
641,099	0,36
641,542	0,36
641,985	0,36
642,428	0,36
642,871	0,37
643,314	0,37
643,757	0,37
644,2	0,37
644,643	0,37
645,085	0,37
645,528	0,36
645,971	0,36
646,414	0,36
646,857	0,36
647,299	0,36
647,742	0,36
648,185	0,36
648,627	0,36
649,07	0,36
649,513	0,36
649,955	0,36
650,398	0,36
650,84	0,36
651,283	0,36
651,725	0,36
652,168	0,36
652,61	0,36
653,052	0,36
653,495	0,35
653,937	0,28
654,379	0,22
654,821	0,23
655,264	0,23
655,706	0,23
656,148	0,23
656,59	0,23
657,032	0,23
657,474	0,23
657,916	0,23
658,358	0,22
658,8	0,28
659,242	0,36
659,684	0,36
660,126	0,36
660,568	0,36
661,01	0,36
661,452	0,36
661,894	0,36
662,335	0,36
662,777	0,36
663,219	0,36
663,661	0,36
664,102	0,35
664,544	0,35
664,985	0,35
665,427	0,35
665,869	0,35
666,31	0,35
666,752	0,35
667,193	0,35
667,634	0,35
668,076	0,35
668,517	0,35
668,959	0,35
669,4	0,35
669,841	0,35
670,282	0,35
670,724	0,35
671,165	0,35
671,606	0,35
672,047	0,35
672,488	0,35
672,929	0,35
673,37	0,35
673,811	0,35
674,252	0,35
674,693	0,35
675,134	0,35
675,575	0,35
676,016	0,35
676,457	0,35
676,898	0,35
677,339	0,35
677,78	0,35
678,22	0,35
678,661	0,35
679,102	0,35
679,542	0,35
679,983	0,35
680,424	0,35
680,864	0,35
681,305	0,35
681,745	0,35
682,186	0,35
682,626	0,35
683,067	0,35
683,507	0,35
683,948	0,35
684,388	0,35
684,828	0,35
685,269	0,35
685,709	0,35
686,149	0,34
686,589	0,34
687,029	0,34
687,47	0,34
687,91	0,34
688,35	0,34
688,79	0,34
689,23	0,34
689,67	0,34
690,11	0,34
690,55	0,34
690,99	0,34
691,43	0,34
691,87	0,34
692,31	0,34
692,749	0,34
693,189	0,34
693,629	0,34
694,069	0,34
694,508	0,33
694,948	0,33
695,388	0,34
695,827	0,34
696,267	0,34
696,706	0,34
697,146	0,34
697,586	0,34
698,025	0,34
698,464	0,34
698,904	0,34
699,343	0,34
699,783	0,34
700,222	0,34
700,661	0,34
701,101	0,34
701,54	0,34
701,979	0,34
702,418	0,34
702,857	0,34
703,297	0,34
703,736	0,34
704,175	0,34
704,614	0,34
705,053	0,34
705,492	0,34
705,931	0,33
706,37	0,33
706,809	0,33
707,248	0,33
707,687	0,33
708,125	0,33
708,564	0,33
709,003	0,33
709,442	0,33
709,88	0,33
710,319	0,33
710,758	0,33
711,196	0,33
711,635	0,33
712,074	0,33
712,512	0,33
712,951	0,33
713,389	0,33
713,828	0,33
714,266	0,33
714,705	0,33
715,143	0,33
715,581	0,33
716,02	0,32
716,458	0,32
716,896	0,32
717,334	0,32
717,773	0,32
718,211	0,32
718,649	0,32
719,087	0,32
719,525	0,32
719,963	0,32
720,401	0,32
720,839	0,32
721,277	0,32
721,715	0,32
722,153	0,32
722,591	0,32
723,029	0,32
723,467	0,32
723,905	0,32
724,342	0,32
724,78	0,32
725,218	0,32
725,656	0,32
726,093	0,32
726,531	0,32
726,969	0,32
727,406	0,32
727,844	0,32
728,281	0,32
728,719	0,32
729,156	0,32
729,594	0,32
730,031	0,32
730,469	0,32
730,906	0,32
731,343	0,32
731,781	0,32
732,218	0,32
732,655	0,32
733,092	0,32
733,53	0,32
733,967	0,32
734,404	0,32
734,841	0,32
735,278	0,32
735,715	0,32
736,152	0,32
736,589	0,32
737,026	0,32
737,463	0,32
737,9	0,31
738,337	0,31
738,774	0,31
739,211	0,31
739,647	0,31
740,084	0,31
740,521	0,31
740,958	0,31
741,394	0,31
741,831	0,31
742,268	0,31
742,704	0,31
743,141	0,31
743,577	0,3
744,014	0,3
744,45	0,3
744,887	0,3
745,323	0,3
745,76	0,3
746,196	0,3
746,632	0,3
747,069	0,3
747,505	0,3
747,941	0,3
748,378	0,3
748,814	0,3
749,25	0,3
749,686	0,3
750,122	0,3
750,558	0,3
750,994	0,3
751,43	0,31
751,866	0,31
752,302	0,31
752,738	0,31
753,174	0,31
753,61	0,31
754,046	0,31
754,482	0,31
754,918	0,31
755,354	0,31
755,789	0,31
756,225	0,31
756,661	0,31
757,096	0,31
757,532	0,31
757,968	0,3
758,403	0,3
758,839	0,3
759,274	0,3
759,71	0,3
760,145	0,29
760,581	0,29
761,016	0,28
761,452	0,28
761,887	0,28
762,322	0,27
762,758	0,27
763,193	0,27
763,628	0,26
764,063	0,25
764,499	0,25
764,934	0,25
765,369	0,24
765,804	0,24
766,239	0,23
766,674	0,22
767,109	0,22
767,544	0,21
767,979	0,2
768,414	0,2
768,849	0,19
769,284	0,18
769,719	0,17
770,154	0,17
770,588	0,16
771,023	0,15
771,458	0,14
771,893	0,14
772,327	0,12
772,762	0,12
773,197	0,11
773,631	0,1
774,066	0,1
774,5	0,09
774,935	0,08
775,369	0,07
775,804	0,06
776,238	0,05
776,673	0,04
777,107	0,03
777,541	0,02
777,976	0,01
778,41	0,01
778,844	-0
779,279	-0
779,713	-0,01
780,147	-0,02
780,581	-0,03
781,015	-0,03
781,449	-0,04
781,883	-0,04
782,317	-0,05
782,751	-0,06
783,185	-0,07
783,619	-0,08
784,053	-0,09
784,487	-0,09
784,921	-0,1
785,355	-0,11
785,789	-0,12
786,223	-0,13
786,656	-0,14
787,09	-0,15
787,524	-0,16
787,957	-0,17
788,391	-0,19
788,825	-0,21
789,258	-0,22
789,692	-0,24
790,125	-0,25
790,559	-0,27
790,992	-0,29
791,426	-0,31
791,859	-0,32
792,293	-0,35
792,726	-0,37
793,159	-0,39
793,593	-0,4
794,026	-0,42
794,459	-0,45
794,892	-0,48
795,326	-0,5
795,759	-0,54
796,192	-0,59
796,625	-0,63
797,058	-0,66
797,491	-0,7
797,924	-0,74
798,357	-0,79
798,79	-0,83
799,223	-0,88
799,656	-0,93
800,089	-0,98
800,522	-1,03
800,955	-1,07
801,387	-1,13
801,82	-1,18
802,253	-1,24
802,686	-1,32
803,118	-1,38
803,551	-1,43
803,984	-1,48
804,416	-1,52
804,849	-1,56
805,281	-1,69
805,714	-2,06
806,146	-2,48
806,579	-2,73
807,011	-2,89
807,444	-2,98
807,876	-3,06
808,308	-3,1
808,741	-3,13
809,173	-3,18
809,605	-3,2
810,037	-3,28
810,47	-3,19
810,902	-2,99
811,334	-2,84
811,766	-2,69
812,198	-2,46
812,63	-2,04
813,062	-1,82
813,494	-1,72
813,926	-1,64
814,358	-1,58
814,79	-1,5
815,222	-1,44
815,654	-1,39
816,086	-1,33
816,518	-1,27
816,949	-1,22
817,381	-1,18
817,813	-1,16
818,245	-1,12
818,676	-1,08
819,108	-1,04
819,54	-1,03
819,971	-1
820,403	-0,95
820,834	-0,93
821,266	-0,89
821,697	-0,86
822,129	-0,85
822,56	-0,82
822,991	-0,8
823,423	-0,77
823,854	-0,76
824,286	-0,73
824,717	-0,72
825,148	-0,7
825,579	-0,7
826,01	-0,69
826,442	-0,68
826,873	-0,66
827,304	-0,63
827,735	-0,62
828,166	-0,62
828,597	-0,62
829,028	-0,62
829,459	-0,63
829,89	-0,63
830,321	-0,58
830,752	-0,58
831,183	-0,58
831,613	-0,57
832,044	-0,56
832,475	-0,55
832,906	-0,56
833,336	-0,56
833,767	-0,57
834,198	-0,55
834,628	-0,54
835,059	-0,57
835,49	-0,57
835,92	-0,54
836,351	-0,55
836,781	-0,55
837,212	-0,56
837,642	-0,56
838,072	-0,54
838,503	-0,55
838,933	-0,53
839,364	-0,53
839,794	-0,51
840,224	-0,5
840,654	-0,54
841,085	-0,55
841,515	-0,53
841,945	-0,52
842,375	-0,48
842,805	-0,47
843,235	-0,46
843,665	-0,47
844,095	-0,45
844,525	-0,47
844,955	-0,47
845,385	-0,46
845,815	-0,44
846,245	-0,46
846,675	-0,47
847,105	-0,49
847,534	-0,49
847,964	-0,47
848,394	-0,46
848,824	-0,49
849,253	-0,48
849,683	-0,48
850,112	-0,49
850,542	-0,51
850,972	-0,52
851,401	-0,5
851,831	-0,48
852,26	-0,5
852,69	-0,54
853,119	-0,53
853,548	-0,54
853,978	-0,54
854,407	-0,52
854,836	-0,52
855,266	-0,52
855,695	-0,52
856,124	-0,54
856,553	-0,54
856,983	-0,55
857,412	-0,54
857,841	-0,55
858,27	-0,56
858,699	-0,57
859,128	-0,6
859,557	-0,61
859,986	-0,62
860,415	-0,61
860,844	-0,58
861,273	-0,58
861,702	-0,59
862,13	-0,57
862,559	-0,59
862,988	-0,56
863,417	-0,55
863,845	-0,55
864,274	-0,56
864,703	-0,56
865,131	-0,55
865,56	-0,56
865,989	-0,59
866,417	-0,57
866,846	-0,58
867,274	-0,56
867,703	-0,59
868,131	-0,59
868,559	-0,59
868,988	-0,6
869,416	-0,61
869,844	-0,61
870,273	-0,64
870,701	-0,62
871,129	-0,65
871,557	-0,68
871,986	-0,68
872,414	-0,69
872,842	-0,66
873,27	-0,64
873,698	-0,61
874,126	-0,63
874,554	-0,63
874,982	-0,62
875,41	-0,65
875,838	-0,61
876,266	-0,58
876,694	-0,58
877,122	-0,56
877,549	-0,62
877,977	-0,6
878,405	-0,62
878,833	-0,6
879,26	-0,58
879,688	-0,59
880,116	-0,55
880,543	-0,53
880,971	-0,53
881,399	-0,57
881,826	-0,58
882,254	-0,55
882,681	-0,59
883,109	-0,55
883,536	-0,57
883,963	-0,58
884,391	-0,56
884,818	-0,55
885,245	-0,6
885,673	-0,62
886,1	-0,59
886,527	-0,58
886,954	-0,55
887,381	-0,57
887,809	-0,58
888,236	-0,59
888,663	-0,59
889,09	-0,63
889,517	-0,65
889,944	-0,64
890,371	-0,61
890,798	-0,62
891,225	-0,62
891,652	-0,65
892,078	-0,63
892,505	-0,65
892,932	-0,6
893,359	-0,62
893,786	-0,61
894,212	-0,58
894,639	-0,6
895,066	-0,63
895,492	-0,58
895,919	-0,58
896,346	-0,57
896,772	-0,58
897,199	-0,54
897,625	-0,58
898,052	-0,54
898,478	-0,53
898,904	-0,55
899,331	-0,54
899,757	-0,55
900,183	-0,56
900,61	-0,54
901,036	-0,55
901,462	-0,54
901,888	-0,54
902,315	-0,52
902,741	-0,58
903,167	-0,57
903,593	-0,6
904,019	-0,59
904,445	-0,56
904,871	-0,59
905,297	-0,61
905,723	-0,61
906,149	-0,6
906,575	-0,6
907,001	-0,61
907,427	-0,57
907,852	-0,56
908,278	-0,57
908,704	-0,54
909,13	-0,53
909,555	-0,52
909,981	-0,51
910,407	-0,51
910,832	-0,51
911,258	-0,51
911,684	-0,52
912,109	-0,53
912,535	-0,55
912,96	-0,5
913,386	-0,55
913,811	-0,55
914,236	-0,56
914,662	-0,54
915,087	-0,57
915,512	-0,57
915,938	-0,59
916,363	-0,58
916,788	-0,59
917,213	-0,57
917,639	-0,62
918,064	-0,59
918,489	-0,59
918,914	-0,59
919,339	-0,62
919,764	-0,6
920,189	-0,6
920,614	-0,62
921,039	-0,62
921,464	-0,57
921,889	-0,6
922,314	-0,61
922,738	-0,65
923,163	-0,66
923,588	-0,66
924,013	-0,64
924,437	-0,63
924,862	-0,64
925,287	-0,6
925,711	-0,61
926,136	-0,62
926,561	-0,59
926,985	-0,57
927,41	-0,54
927,834	-0,52
928,259	-0,5
928,683	-0,49
929,108	-0,47
929,532	-0,48
929,956	-0,47
930,381	-0,47
930,805	-0,47
931,229	-0,46
931,653	-0,44
932,078	-0,44
932,502	-0,45
932,926	-0,46
933,35	-0,45
933,774	-0,44
934,198	-0,42
934,622	-0,41
935,046	-0,42
935,47	-0,42
935,894	-0,42
936,318	-0,41
936,742	-0,41
937,166	-0,42
937,59	-0,41
938,014	-0,44
938,437	-0,44
938,861	-0,47
939,285	-0,48
939,709	-0,47
940,132	-0,48
940,556	-0,49
940,98	-0,48
941,403	-0,46
941,827	-0,47
942,25	-0,48
942,674	-0,48
943,097	-0,47
943,521	-0,46
943,944	-0,47
944,368	-0,46
944,791	-0,45
945,214	-0,48
945,638	-0,49
946,061	-0,52
946,484	-0,53
946,907	-0,51
947,331	-0,51
947,754	-0,56
948,177	-0,53
948,6	-0,53
949,023	-0,53
949,446	-0,53
949,869	-0,51
950,292	-0,51
950,715	-0,47
951,138	-0,46
951,561	-0,44
951,984	-0,43
952,407	-0,42
952,83	-0,41
953,252	-0,37
953,675	-0,38
954,098	-0,39
954,521	-0,36
954,943	-0,37
955,366	-0,38
955,789	-0,36
956,211	-0,38
956,634	-0,39
957,056	-0,37
957,479	-0,39
957,902	-0,4
958,324	-0,4
958,746	-0,38
959,169	-0,4
959,591	-0,39
960,014	-0,4
960,436	-0,4
960,858	-0,4
961,281	-0,39
961,703	-0,4
962,125	-0,39
962,547	-0,38
962,969	-0,39
963,391	-0,4
963,814	-0,41
964,236	-0,4
964,658	-0,37
965,08	-0,37
965,502	-0,36
965,924	-0,34
966,346	-0,34
966,768	-0,33
967,189	-0,34
967,611	-0,34
968,033	-0,33
968,455	-0,31
968,877	-0,32
969,298	-0,33
969,72	-0,34
970,142	-0,34
970,563	-0,35
970,985	-0,33
971,407	-0,32
971,828	-0,31
972,25	-0,3
972,671	-0,28
973,093	-0,28
973,514	-0,27
973,936	-0,25
974,357	-0,23
974,778	-0,23
975,2	-0,22
975,621	-0,22
976,042	-0,2
976,464	-0,2
976,885	-0,19
977,306	-0,19
977,727	-0,18
978,148	-0,17
978,57	-0,16
978,991	-0,14
979,412	-0,13
979,833	-0,13
980,254	-0,12
980,675	-0,13
981,096	-0,11
981,517	-0,09
981,937	-0,09
982,358	-0,07
982,779	-0,06
983,2	-0,06
983,621	-0,06
984,042	-0,04
984,462	-0,03
984,883	-0,02
985,304	-0,01
985,724	-0
986,145	0
986,565	0,02
986,986	0,02
987,407	0,03
987,827	0,04
988,248	0,05
988,668	0,06
989,088	0,07
989,509	0,08
989,929	0,09
990,35	0,09
990,77	0,1
991,19	0,11
991,61	0,12
992,031	0,12
992,451	0,13
992,871	0,14
993,291	0,15
993,711	0,16
994,131	0,16
994,551	0,17
994,971	0,17
995,391	0,18
995,811	0,19
996,231	0,19
996,651	0,19
997,071	0,2
997,491	0,21
997,911	0,21
998,331	0,21
998,75	0,22
999,17	0,22
999,59	0,23
1000,009	0,23
1000,429	0,23
1000,849	0,24
1001,268	0,24
1001,688	0,25
1002,107	0,25
1002,527	0,25
1002,946	0,25
1003,366	0,26
1003,785	0,26
1004,205	0,26
1004,624	0,26
1005,044	0,26
1005,463	0,26
1005,882	0,26
1006,301	0,26
1006,721	0,27
1007,14	0,27
1007,559	0,27
1007,978	0,27
1008,397	0,27
1008,816	0,27
1009,235	0,27
1009,655	0,27
1010,074	0,26
1010,492	0,26
1010,911	0,26
1011,33	0,26
1011,749	0,26
1012,168	0,26
1012,587	0,26
1013,006	0,26
1013,425	0,26
1013,843	0,26
1014,262	0,26
1014,681	0,26
1015,099	0,26
1015,518	0,26
1015,937	0,26
1016,355	0,26
1016,774	0,26
1017,192	0,26
1017,611	0,26
1018,029	0,26
1018,448	0,26
1018,866	0,26
1019,285	0,26
1019,703	0,26
1020,121	0,26
1020,54	0,26
1020,958	0,26
1021,376	0,26
1021,794	0,26
1022,213	0,26
1022,631	0,26
1023,049	0,26
1023,467	0,26
1023,885	0,26
1024,303	0,26
1024,721	0,26
1025,139	0,26
1025,557	0,26
1025,975	0,26
1026,393	0,25
1026,811	0,25
1027,229	0,25
1027,647	0,25
1028,065	0,25
1028,482	0,25
1028,9	0,25
1029,318	0,25
1029,735	0,25
1030,153	0,25
1030,571	0,25
1030,988	0,25
1031,406	0,25
1031,823	0,25
1032,241	0,25
1032,659	0,25
1033,076	0,25
1033,493	0,25
1033,911	0,25
1034,328	0,25
1034,746	0,25
1035,163	0,25
1035,58	0,25
1035,997	0,25
1036,415	0,25
1036,832	0,25
1037,249	0,25
1037,666	0,25
1038,083	0,25
1038,501	0,25
1038,918	0,25
1039,335	0,25
1039,752	0,25
1040,169	0,25
1040,586	0,25
1041,003	0,24
1041,419	0,24
1041,836	0,24
1042,253	0,24
1042,67	0,24
1043,087	0,24
1043,504	0,24
1043,92	0,24
1044,337	0,24
1044,754	0,24
1045,17	0,24
1045,587	0,24
1046,004	0,24
1046,42	0,24
1046,837	0,24
1047,253	0,24
1047,67	0,24
1048,086	0,24
1048,503	0,24
1048,919	0,24
1049,335	0,24
1049,752	0,24
1050,168	0,24
1050,584	0,24
1051,001	0,24
1051,417	0,24
1051,833	0,24
1052,249	0,24
1052,665	0,24
1053,081	0,24
1053,497	0,24
1053,914	0,24
1054,33	0,24
1054,746	0,24
1055,162	0,24
1055,578	0,24
1055,993	0,24
1056,409	0,24
1056,825	0,24
1057,241	0,24
1057,657	0,24
1058,073	0,24
1058,488	0,24
1058,904	0,24
1059,32	0,24
1059,736	0,24
1060,151	0,25
1060,567	0,25
1060,982	0,25
1061,398	0,25
1061,813	0,25
1062,229	0,25
1062,644	0,25
1063,06	0,24
1063,475	0,24
1063,891	0,24
1064,306	0,24
1064,721	0,24
1065,137	0,24
1065,552	0,24
1065,967	0,24
1066,382	0,24
1066,798	0,24
1067,213	0,24
1067,628	0,24
1068,043	0,24
1068,458	0,24
1068,873	0,24
1069,288	0,24
1069,703	0,24
1070,118	0,24
1070,533	0,24
1070,948	0,25
1071,363	0,25
1071,778	0,25
1072,193	0,25
1072,607	0,25
1073,022	0,25
1073,437	0,25
1073,852	0,25
1074,266	0,25
1074,681	0,25
1075,096	0,25
1075,51	0,25
1075,925	0,25
1076,339	0,25
1076,754	0,25
1077,168	0,25
1077,583	0,25
1077,997	0,25
1078,412	0,25
1078,826	0,25
1079,24	0,25
1079,655	0,24
1080,069	0,24
1080,483	0,24
1080,897	0,24
1081,312	0,24
1081,726	0,24
1082,14	0,24
1082,554	0,24
1082,968	0,24
1083,382	0,24
1083,796	0,24
1084,21	0,23
1084,624	0,24
1085,038	0,23
1085,452	0,23
1085,866	0,23
1086,28	0,23
1086,694	0,23
1087,108	0,23
1087,521	0,23
1087,935	0,23
1088,349	0,23
1088,763	0,23
1089,176	0,22
1089,59	0,22
1090,004	0,22
1090,417	0,22
1090,831	0,22
1091,244	0,21
1091,658	0,21
1092,071	0,21
1092,485	0,21
1092,898	0,21
1093,312	0,2
1093,725	0,2
1094,138	0,2
1094,552	0,2
1094,965	0,2
1095,378	0,2
1095,791	0,2
1096,205	0,2
1096,618	0,2
1097,031	0,2
1097,444	0,2
1097,857	0,19
1098,27	0,19
1098,683	0,19
1099,096	0,19
1099,509	0,19
1099,922	0,18
1100,335	0,18
1100,748	0,18
1101,161	0,17
1101,574	0,17
1101,986	0,16
1102,399	0,16
1102,812	0,16
1103,225	0,16
1103,637	0,16
1104,05	0,15
1104,463	0,15
1104,875	0,15
1105,288	0,14
1105,7	0,14
1106,113	0,14
1106,525	0,14
1106,938	0,13
1107,35	0,12
1107,763	0,13
1108,175	0,12
1108,588	0,11
1109	0,11
1109,412	0,11
1109,824	0,11
1110,237	0,12
1110,649	0,12
1111,061	0,11
