Data from 18C-808nm-8A_Absorbance__1336__01336.txt Node

Date: Mon Jul 17 17:12:03 CEST 2023
User: Laser008
Spectrometer: MAYP115816
Trigger mode: 0
Integration Time (sec): 2,500000E-1
Scans to average: 10
Electric dark correction enabled: true
Nonlinearity correction enabled: true
Boxcar width: 5
XAxis mode: Wavelengths
Number of Pixels in Spectrum: 2068
>>>>>Begin Spectral Data<<<<<
198,914	-0,74
199,384	-0,52
199,855	-0,39
200,325	-0,32
200,796	-0,29
201,266	-0,24
201,737	-0,23
202,207	-0,21
202,677	-0,2
203,147	-0,18
203,618	-0,15
204,088	-0,14
204,558	-0,12
205,028	-0,12
205,498	-0,12
205,968	-0,11
206,439	-0,12
206,909	-0,11
207,379	-0,12
207,849	-0,12
208,319	-0,13
208,789	-0,14
209,258	-0,14
209,728	-0,16
210,198	-0,16
210,668	-0,16
211,138	-0,16
211,608	-0,16
212,077	-0,16
212,547	-0,15
213,017	-0,16
213,486	-0,15
213,956	-0,16
214,426	-0,16
214,895	-0,15
215,365	-0,15
215,834	-0,15
216,304	-0,15
216,773	-0,15
217,243	-0,16
217,712	-0,18
218,181	-0,17
218,651	-0,17
219,12	-0,18
219,589	-0,18
220,058	-0,17
220,528	-0,18
220,997	-0,19
221,466	-0,2
221,935	-0,21
222,404	-0,21
222,873	-0,2
223,342	-0,2
223,812	-0,2
224,281	-0,19
224,749	-0,2
225,218	-0,22
225,687	-0,22
226,156	-0,2
226,625	-0,19
227,094	-0,19
227,563	-0,18
228,031	-0,2
228,5	-0,2
228,969	-0,2
229,438	-0,19
229,906	-0,18
230,375	-0,17
230,844	-0,16
231,312	-0,17
231,781	-0,17
232,249	-0,16
232,718	-0,17
233,186	-0,16
233,655	-0,16
234,123	-0,16
234,591	-0,16
235,06	-0,15
235,528	-0,16
235,996	-0,15
236,465	-0,16
236,933	-0,16
237,401	-0,16
237,869	-0,15
238,337	-0,15
238,805	-0,15
239,274	-0,14
239,742	-0,13
240,21	-0,13
240,678	-0,13
241,146	-0,12
241,614	-0,12
242,081	-0,12
242,549	-0,12
243,017	-0,12
243,485	-0,12
243,953	-0,13
244,421	-0,12
244,888	-0,13
245,356	-0,13
245,824	-0,13
246,291	-0,13
246,759	-0,14
247,227	-0,15
247,694	-0,14
248,162	-0,13
248,629	-0,11
249,097	-0,12
249,564	-0,12
250,032	-0,14
250,499	-0,14
250,967	-0,14
251,434	-0,15
251,901	-0,14
252,369	-0,15
252,836	-0,16
253,303	-0,17
253,77	-0,2
254,237	-0,18
254,705	-0,18
255,172	-0,17
255,639	-0,18
256,106	-0,19
256,573	-0,18
257,04	-0,18
257,507	-0,18
257,974	-0,19
258,441	-0,17
258,908	-0,17
259,375	-0,18
259,841	-0,19
260,308	-0,19
260,775	-0,19
261,242	-0,18
261,709	-0,19
262,175	-0,2
262,642	-0,19
263,109	-0,19
263,575	-0,2
264,042	-0,18
264,508	-0,19
264,975	-0,2
265,441	-0,2
265,908	-0,21
266,374	-0,2
266,841	-0,21
267,307	-0,21
267,773	-0,21
268,24	-0,21
268,706	-0,22
269,172	-0,23
269,639	-0,23
270,105	-0,21
270,571	-0,22
271,037	-0,22
271,503	-0,23
271,969	-0,23
272,435	-0,22
272,902	-0,24
273,368	-0,24
273,834	-0,24
274,3	-0,24
274,765	-0,24
275,231	-0,24
275,697	-0,23
276,163	-0,22
276,629	-0,22
277,095	-0,23
277,56	-0,22
278,026	-0,22
278,492	-0,21
278,958	-0,21
279,423	-0,22
279,889	-0,21
280,354	-0,22
280,82	-0,22
281,286	-0,24
281,751	-0,24
282,217	-0,24
282,682	-0,24
283,147	-0,25
283,613	-0,25
284,078	-0,25
284,544	-0,26
285,009	-0,26
285,474	-0,25
285,939	-0,26
286,405	-0,24
286,87	-0,24
287,335	-0,23
287,8	-0,23
288,265	-0,21
288,73	-0,23
289,195	-0,25
289,66	-0,24
290,125	-0,23
290,59	-0,24
291,055	-0,23
291,52	-0,23
291,985	-0,24
292,45	-0,26
292,915	-0,25
293,38	-0,26
293,844	-0,24
294,309	-0,22
294,774	-0,22
295,239	-0,24
295,703	-0,24
296,168	-0,24
296,632	-0,23
297,097	-0,21
297,562	-0,19
298,026	-0,2
298,491	-0,2
298,955	-0,2
299,419	-0,19
299,884	-0,19
300,348	-0,17
300,813	-0,17
301,277	-0,17
301,741	-0,16
302,205	-0,17
302,67	-0,16
303,134	-0,16
303,598	-0,15
304,062	-0,14
304,526	-0,13
304,99	-0,15
305,454	-0,16
305,919	-0,15
306,383	-0,15
306,847	-0,15
307,31	-0,16
307,774	-0,17
308,238	-0,17
308,702	-0,17
309,166	-0,19
309,63	-0,19
310,094	-0,16
310,557	-0,16
311,021	-0,16
311,485	-0,16
311,948	-0,16
312,412	-0,15
312,876	-0,14
313,339	-0,14
313,803	-0,15
314,266	-0,13
314,73	-0,13
315,193	-0,14
315,657	-0,13
316,12	-0,13
316,584	-0,12
317,047	-0,11
317,51	-0,1
317,973	-0,09
318,437	-0,09
318,9	-0,08
319,363	-0,08
319,826	-0,07
320,29	-0,08
320,753	-0,08
321,216	-0,08
321,679	-0,08
322,142	-0,08
322,605	-0,09
323,068	-0,09
323,531	-0,09
323,994	-0,08
324,457	-0,08
324,92	-0,08
325,382	-0,07
325,845	-0,07
326,308	-0,06
326,771	-0,06
327,233	-0,05
327,696	-0,05
328,159	-0,05
328,622	-0,03
329,084	-0,03
329,547	-0,02
330,009	-0,02
330,472	-0,01
330,934	0
331,397	0
331,859	0,01
332,322	0,01
332,784	0,01
333,246	0,02
333,709	0,01
334,171	0,02
334,633	0,02
335,096	0,02
335,558	0,02
336,02	0,02
336,482	0,02
336,944	0,03
337,406	0,04
337,868	0,04
338,331	0,04
338,793	0,05
339,255	0,05
339,717	0,05
340,178	0,05
340,64	0,06
341,102	0,07
341,564	0,07
342,026	0,09
342,488	0,09
342,949	0,11
343,411	0,13
343,873	0,15
344,335	0,17
344,796	0,2
345,258	0,24
345,719	0,27
346,181	0,3
346,643	0,34
347,104	0,36
347,566	0,38
348,027	0,4
348,488	0,42
348,95	0,43
349,411	0,45
349,873	0,46
350,334	0,47
350,795	0,49
351,256	0,49
351,718	0,5
352,179	0,5
352,64	0,5
353,101	0,5
353,562	0,51
354,023	0,51
354,484	0,51
354,945	0,51
355,406	0,51
355,867	0,51
356,328	0,51
356,789	0,51
357,25	0,52
357,711	0,52
358,172	0,52
358,633	0,52
359,093	0,52
359,554	0,52
360,015	0,52
360,476	0,52
360,936	0,52
361,397	0,52
361,858	0,52
362,318	0,52
362,779	0,53
363,239	0,53
363,7	0,53
364,16	0,53
364,621	0,53
365,081	0,53
365,541	0,53
366,002	0,53
366,462	0,53
366,922	0,53
367,383	0,53
367,843	0,52
368,303	0,52
368,763	0,52
369,223	0,52
369,684	0,52
370,144	0,52
370,604	0,52
371,064	0,53
371,524	0,52
371,984	0,52
372,444	0,52
372,904	0,52
373,363	0,52
373,823	0,52
374,283	0,52
374,743	0,52
375,203	0,52
375,663	0,52
376,122	0,52
376,582	0,52
377,042	0,52
377,501	0,52
377,961	0,52
378,42	0,52
378,88	0,52
379,34	0,52
379,799	0,52
380,259	0,52
380,718	0,52
381,177	0,52
381,637	0,52
382,096	0,52
382,555	0,52
383,015	0,52
383,474	0,52
383,933	0,52
384,393	0,52
384,852	0,51
385,311	0,51
385,77	0,51
386,229	0,51
386,688	0,51
387,147	0,51
387,606	0,51
388,065	0,51
388,524	0,51
388,983	0,51
389,442	0,51
389,901	0,51
390,36	0,51
390,819	0,51
391,277	0,51
391,736	0,51
392,195	0,51
392,654	0,51
393,112	0,51
393,571	0,51
394,03	0,51
394,488	0,51
394,947	0,51
395,405	0,51
395,864	0,51
396,322	0,51
396,781	0,51
397,239	0,51
397,698	0,51
398,156	0,51
398,614	0,51
399,073	0,51
399,531	0,51
399,989	0,51
400,447	0,51
400,905	0,51
401,364	0,51
401,822	0,51
402,28	0,5
402,738	0,5
403,196	0,5
403,654	0,5
404,112	0,5
404,57	0,5
405,028	0,5
405,486	0,5
405,944	0,5
406,402	0,5
406,859	0,5
407,317	0,5
407,775	0,5
408,233	0,5
408,691	0,5
409,148	0,5
409,606	0,5
410,064	0,5
410,521	0,5
410,979	0,5
411,436	0,5
411,894	0,5
412,351	0,5
412,809	0,5
413,266	0,5
413,724	0,5
414,181	0,5
414,638	0,5
415,096	0,5
415,553	0,5
416,01	0,5
416,467	0,5
416,925	0,5
417,382	0,5
417,839	0,5
418,296	0,5
418,753	0,5
419,21	0,5
419,667	0,5
420,124	0,5
420,581	0,5
421,038	0,5
421,495	0,5
421,952	0,49
422,409	0,49
422,866	0,49
423,322	0,5
423,779	0,5
424,236	0,5
424,693	0,5
425,149	0,5
425,606	0,5
426,063	0,5
426,519	0,5
426,976	0,5
427,433	0,5
427,889	0,5
428,346	0,5
428,802	0,5
429,258	0,49
429,715	0,49
430,171	0,49
430,628	0,49
431,084	0,49
431,54	0,49
431,997	0,49
432,453	0,49
432,909	0,49
433,365	0,49
433,821	0,49
434,277	0,49
434,734	0,49
435,19	0,49
435,646	0,49
436,102	0,49
436,558	0,49
437,014	0,49
437,47	0,49
437,925	0,49
438,381	0,49
438,837	0,49
439,293	0,49
439,749	0,49
440,205	0,49
440,66	0,49
441,116	0,49
441,572	0,49
442,027	0,49
442,483	0,49
442,939	0,49
443,394	0,49
443,85	0,49
444,305	0,49
444,761	0,49
445,216	0,49
445,672	0,49
446,127	0,49
446,582	0,49
447,038	0,49
447,493	0,49
447,948	0,49
448,403	0,49
448,859	0,49
449,314	0,49
449,769	0,49
450,224	0,49
450,679	0,49
451,134	0,49
451,589	0,49
452,044	0,49
452,499	0,49
452,954	0,49
453,409	0,49
453,864	0,49
454,319	0,49
454,774	0,49
455,229	0,49
455,684	0,49
456,138	0,49
456,593	0,49
457,048	0,49
457,503	0,49
457,957	0,49
458,412	0,49
458,866	0,5
459,321	0,5
459,776	0,5
460,23	0,5
460,685	0,5
461,139	0,5
461,593	0,5
462,048	0,5
462,502	0,5
462,957	0,5
463,411	0,5
463,865	0,5
464,319	0,5
464,774	0,5
465,228	0,5
465,682	0,5
466,136	0,5
466,59	0,5
467,044	0,5
467,499	0,51
467,953	0,51
468,407	0,51
468,861	0,51
469,315	0,51
469,768	0,51
470,222	0,51
470,676	0,51
471,13	0,51
471,584	0,51
472,038	0,51
472,491	0,51
472,945	0,51
473,399	0,51
473,852	0,51
474,306	0,51
474,76	0,51
475,213	0,51
475,667	0,51
476,12	0,52
476,574	0,52
477,027	0,52
477,481	0,52
477,934	0,52
478,388	0,52
478,841	0,52
479,294	0,52
479,748	0,52
480,201	0,53
480,654	0,53
481,107	0,53
481,561	0,53
482,014	0,53
482,467	0,53
482,92	0,53
483,373	0,53
483,826	0,54
484,279	0,54
484,732	0,54
485,185	0,54
485,638	0,54
486,091	0,54
486,544	0,54
486,997	0,54
487,449	0,55
487,902	0,55
488,355	0,55
488,808	0,55
489,26	0,55
489,713	0,55
490,166	0,56
490,618	0,56
491,071	0,56
491,523	0,56
491,976	0,56
492,429	0,57
492,881	0,57
493,333	0,57
493,786	0,57
494,238	0,58
494,691	0,58
495,143	0,58
495,595	0,58
496,048	0,59
496,5	0,59
496,952	0,59
497,404	0,59
497,856	0,59
498,309	0,6
498,761	0,6
499,213	0,6
499,665	0,61
500,117	0,61
500,569	0,61
501,021	0,61
501,473	0,62
501,925	0,62
502,377	0,62
502,828	0,63
503,28	0,63
503,732	0,63
504,184	0,63
504,636	0,64
505,087	0,64
505,539	0,64
505,991	0,65
506,442	0,65
506,894	0,65
507,345	0,65
507,797	0,66
508,249	0,66
508,7	0,66
509,151	0,67
509,603	0,67
510,054	0,67
510,506	0,67
510,957	0,68
511,408	0,68
511,86	0,68
512,311	0,69
512,762	0,69
513,213	0,69
513,665	0,69
514,116	0,69
514,567	0,7
515,018	0,7
515,469	0,7
515,92	0,71
516,371	0,71
516,822	0,71
517,273	0,71
517,724	0,72
518,175	0,72
518,626	0,72
519,076	0,72
519,527	0,72
519,978	0,72
520,429	0,72
520,88	0,73
521,33	0,73
521,781	0,73
522,232	0,73
522,682	0,73
523,133	0,73
523,583	0,73
524,034	0,74
524,484	0,74
524,935	0,74
525,385	0,74
525,836	0,74
526,286	0,74
526,736	0,74
527,187	0,74
527,637	0,74
528,087	0,74
528,538	0,74
528,988	0,74
529,438	0,74
529,888	0,74
530,338	0,74
530,788	0,74
531,238	0,73
531,688	0,73
532,139	0,73
532,589	0,73
533,038	0,73
533,488	0,73
533,938	0,73
534,388	0,73
534,838	0,73
535,288	0,73
535,738	0,72
536,187	0,72
536,637	0,72
537,087	0,72
537,537	0,71
537,986	0,71
538,436	0,71
538,885	0,7
539,335	0,7
539,785	0,7
540,234	0,69
540,684	0,69
541,133	0,69
541,582	0,69
542,032	0,68
542,481	0,68
542,931	0,68
543,38	0,67
543,829	0,67
544,278	0,67
544,728	0,66
545,177	0,66
545,626	0,66
546,075	0,65
546,524	0,65
546,973	0,65
547,422	0,65
547,871	0,64
548,32	0,64
548,769	0,64
549,218	0,64
549,667	0,64
550,116	0,64
550,565	0,63
551,014	0,63
551,463	0,63
551,911	0,63
552,36	0,62
552,809	0,62
553,258	0,62
553,706	0,61
554,155	0,61
554,603	0,61
555,052	0,61
555,501	0,6
555,949	0,6
556,398	0,6
556,846	0,59
557,294	0,59
557,743	0,59
558,191	0,58
558,64	0,58
559,088	0,58
559,536	0,57
559,985	0,57
560,433	0,57
560,881	0,57
561,329	0,56
561,777	0,56
562,225	0,56
562,674	0,56
563,122	0,55
563,57	0,55
564,018	0,55
564,466	0,54
564,914	0,54
565,362	0,54
565,809	0,54
566,257	0,53
566,705	0,53
567,153	0,53
567,601	0,53
568,048	0,52
568,496	0,52
568,944	0,52
569,392	0,52
569,839	0,51
570,287	0,51
570,734	0,51
571,182	0,51
571,63	0,5
572,077	0,5
572,525	0,5
572,972	0,5
573,419	0,49
573,867	0,49
574,314	0,49
574,761	0,49
575,209	0,48
575,656	0,48
576,103	0,48
576,551	0,48
576,998	0,48
577,445	0,48
577,892	0,47
578,339	0,47
578,786	0,47
579,233	0,47
579,68	0,47
580,127	0,47
580,574	0,46
581,021	0,46
581,468	0,46
581,915	0,46
582,362	0,46
582,809	0,45
583,255	0,45
583,702	0,45
584,149	0,45
584,596	0,45
585,042	0,45
585,489	0,44
585,936	0,44
586,382	0,44
586,829	0,44
587,275	0,44
587,722	0,44
588,168	0,44
588,615	0,44
589,061	0,43
589,508	0,43
589,954	0,43
590,4	0,43
590,847	0,43
591,293	0,43
591,739	0,43
592,185	0,43
592,632	0,43
593,078	0,42
593,524	0,42
593,97	0,42
594,416	0,42
594,862	0,42
595,308	0,42
595,754	0,42
596,2	0,42
596,646	0,42
597,092	0,41
597,538	0,41
597,984	0,41
598,43	0,41
598,876	0,41
599,321	0,41
599,767	0,41
600,213	0,41
600,659	0,41
601,104	0,41
601,55	0,41
601,995	0,41
602,441	0,4
602,887	0,4
603,332	0,4
603,778	0,4
604,223	0,4
604,668	0,4
605,114	0,4
605,559	0,4
606,005	0,4
606,45	0,4
606,895	0,4
607,341	0,4
607,786	0,4
608,231	0,4
608,676	0,39
609,121	0,39
609,566	0,38
610,012	0,38
610,457	0,38
610,902	0,38
611,347	0,37
611,792	0,37
612,237	0,37
612,682	0,37
613,127	0,37
613,571	0,37
614,016	0,37
614,461	0,37
614,906	0,38
615,351	0,38
615,795	0,38
616,24	0,38
616,685	0,38
617,129	0,38
617,574	0,38
618,019	0,38
618,463	0,38
618,908	0,38
619,352	0,38
619,797	0,38
620,241	0,38
620,686	0,38
621,13	0,38
621,574	0,38
622,019	0,37
622,463	0,37
622,907	0,37
623,352	0,37
623,796	0,37
624,24	0,37
624,684	0,37
625,128	0,37
625,572	0,37
626,016	0,37
626,461	0,37
626,905	0,37
627,349	0,37
627,793	0,37
628,236	0,37
628,68	0,37
629,124	0,37
629,568	0,37
630,012	0,37
630,456	0,37
630,9	0,37
631,343	0,37
631,787	0,37
632,231	0,37
632,674	0,36
633,118	0,36
633,562	0,36
634,005	0,36
634,449	0,36
634,892	0,36
635,336	0,36
635,779	0,36
636,223	0,36
636,666	0,36
637,109	0,36
637,553	0,36
637,996	0,36
638,439	0,36
638,883	0,36
639,326	0,36
639,769	0,36
640,212	0,36
640,655	0,36
641,099	0,36
641,542	0,36
641,985	0,36
642,428	0,36
642,871	0,36
643,314	0,36
643,757	0,36
644,2	0,36
644,643	0,36
645,085	0,36
645,528	0,36
645,971	0,36
646,414	0,35
646,857	0,35
647,299	0,35
647,742	0,35
648,185	0,35
648,627	0,35
649,07	0,35
649,513	0,35
649,955	0,35
650,398	0,35
650,84	0,35
651,283	0,35
651,725	0,35
652,168	0,35
652,61	0,35
653,052	0,35
653,495	0,35
653,937	0,27
654,379	0,22
654,821	0,22
655,264	0,23
655,706	0,23
656,148	0,23
656,59	0,23
657,032	0,23
657,474	0,23
657,916	0,23
658,358	0,22
658,8	0,27
659,242	0,35
659,684	0,35
660,126	0,35
660,568	0,35
661,01	0,35
661,452	0,35
661,894	0,35
662,335	0,35
662,777	0,35
663,219	0,35
663,661	0,35
664,102	0,35
664,544	0,34
664,985	0,34
665,427	0,34
665,869	0,34
666,31	0,34
666,752	0,34
667,193	0,34
667,634	0,34
668,076	0,34
668,517	0,34
668,959	0,34
669,4	0,34
669,841	0,34
670,282	0,34
670,724	0,34
671,165	0,34
671,606	0,34
672,047	0,34
672,488	0,34
672,929	0,34
673,37	0,34
673,811	0,34
674,252	0,34
674,693	0,34
675,134	0,34
675,575	0,34
676,016	0,34
676,457	0,34
676,898	0,34
677,339	0,34
677,78	0,34
678,22	0,34
678,661	0,34
679,102	0,34
679,542	0,34
679,983	0,34
680,424	0,34
680,864	0,34
681,305	0,34
681,745	0,34
682,186	0,34
682,626	0,34
683,067	0,34
683,507	0,34
683,948	0,34
684,388	0,34
684,828	0,34
685,269	0,34
685,709	0,33
686,149	0,33
686,589	0,33
687,029	0,33
687,47	0,33
687,91	0,33
688,35	0,33
688,79	0,33
689,23	0,33
689,67	0,33
690,11	0,33
690,55	0,33
690,99	0,33
691,43	0,33
691,87	0,33
692,31	0,33
692,749	0,33
693,189	0,33
693,629	0,32
694,069	0,32
694,508	0,32
694,948	0,32
695,388	0,32
695,827	0,33
696,267	0,33
696,706	0,33
697,146	0,33
697,586	0,33
698,025	0,33
698,464	0,33
698,904	0,33
699,343	0,33
699,783	0,33
700,222	0,33
700,661	0,33
701,101	0,33
701,54	0,33
701,979	0,33
702,418	0,33
702,857	0,33
703,297	0,33
703,736	0,33
704,175	0,33
704,614	0,33
705,053	0,33
705,492	0,33
705,931	0,32
706,37	0,32
706,809	0,32
707,248	0,32
707,687	0,32
708,125	0,32
708,564	0,32
709,003	0,32
709,442	0,32
709,88	0,32
710,319	0,32
710,758	0,32
711,196	0,32
711,635	0,32
712,074	0,32
712,512	0,32
712,951	0,32
713,389	0,32
713,828	0,32
714,266	0,32
714,705	0,32
715,143	0,31
715,581	0,31
716,02	0,31
716,458	0,31
716,896	0,31
717,334	0,31
717,773	0,31
718,211	0,31
718,649	0,31
719,087	0,31
719,525	0,31
719,963	0,31
720,401	0,31
720,839	0,31
721,277	0,31
721,715	0,31
722,153	0,31
722,591	0,31
723,029	0,31
723,467	0,31
723,905	0,31
724,342	0,31
724,78	0,31
725,218	0,31
725,656	0,31
726,093	0,31
726,531	0,31
726,969	0,31
727,406	0,31
727,844	0,31
728,281	0,31
728,719	0,31
729,156	0,31
729,594	0,31
730,031	0,31
730,469	0,31
730,906	0,31
731,343	0,31
731,781	0,31
732,218	0,31
732,655	0,31
733,092	0,31
733,53	0,31
733,967	0,31
734,404	0,31
734,841	0,31
735,278	0,31
735,715	0,31
736,152	0,31
736,589	0,31
737,026	0,31
737,463	0,31
737,9	0,3
738,337	0,3
738,774	0,3
739,211	0,3
739,647	0,3
740,084	0,3
740,521	0,3
740,958	0,3
741,394	0,3
741,831	0,3
742,268	0,3
742,704	0,3
743,141	0,3
743,577	0,3
744,014	0,29
744,45	0,29
744,887	0,29
745,323	0,29
745,76	0,29
746,196	0,29
746,632	0,29
747,069	0,29
747,505	0,29
747,941	0,29
748,378	0,29
748,814	0,29
749,25	0,29
749,686	0,29
750,122	0,29
750,558	0,29
750,994	0,3
751,43	0,3
751,866	0,3
752,302	0,3
752,738	0,3
753,174	0,3
753,61	0,3
754,046	0,3
754,482	0,3
754,918	0,3
755,354	0,3
755,789	0,3
756,225	0,3
756,661	0,3
757,096	0,3
757,532	0,3
757,968	0,3
758,403	0,3
758,839	0,29
759,274	0,29
759,71	0,29
760,145	0,29
760,581	0,28
761,016	0,28
761,452	0,27
761,887	0,27
762,322	0,27
762,758	0,26
763,193	0,26
763,628	0,25
764,063	0,25
764,499	0,24
764,934	0,24
765,369	0,23
765,804	0,23
766,239	0,22
766,674	0,22
767,109	0,21
767,544	0,21
767,979	0,2
768,414	0,19
768,849	0,19
769,284	0,18
769,719	0,17
770,154	0,16
770,588	0,15
771,023	0,14
771,458	0,13
771,893	0,12
772,327	0,11
772,762	0,1
773,197	0,1
773,631	0,09
774,066	0,09
774,5	0,08
774,935	0,07
775,369	0,07
775,804	0,06
776,238	0,05
776,673	0,05
777,107	0,04
777,541	0,03
777,976	0,02
778,41	0,01
778,844	-0
779,279	-0,01
779,713	-0,02
780,147	-0,03
780,581	-0,03
781,015	-0,04
781,449	-0,06
781,883	-0,06
782,317	-0,08
782,751	-0,08
783,185	-0,08
783,619	-0,09
784,053	-0,1
784,487	-0,1
784,921	-0,11
785,355	-0,11
785,789	-0,12
786,223	-0,13
786,656	-0,13
787,09	-0,14
787,524	-0,15
787,957	-0,16
788,391	-0,18
788,825	-0,2
789,258	-0,21
789,692	-0,22
790,125	-0,24
790,559	-0,25
790,992	-0,27
791,426	-0,29
791,859	-0,31
792,293	-0,34
792,726	-0,35
793,159	-0,37
793,593	-0,39
794,026	-0,41
794,459	-0,44
794,892	-0,47
795,326	-0,49
795,759	-0,53
796,192	-0,57
796,625	-0,62
797,058	-0,64
797,491	-0,68
797,924	-0,72
798,357	-0,77
798,79	-0,81
799,223	-0,85
799,656	-0,91
800,089	-0,96
800,522	-1
800,955	-1,04
801,387	-1,1
801,82	-1,15
802,253	-1,21
802,686	-1,29
803,118	-1,35
803,551	-1,4
803,984	-1,44
804,416	-1,48
804,849	-1,51
805,281	-1,6
805,714	-1,93
806,146	-2,41
806,579	-2,68
807,011	-2,85
807,444	-2,95
807,876	-3,05
808,308	-3,09
808,741	-3,12
809,173	-3,17
809,605	-3,19
810,037	-3,27
810,47	-3,19
810,902	-3
811,334	-2,86
811,766	-2,72
812,198	-2,5
812,63	-2,07
813,062	-1,82
813,494	-1,71
813,926	-1,62
814,358	-1,57
814,79	-1,49
815,222	-1,43
815,654	-1,38
816,086	-1,31
816,518	-1,26
816,949	-1,21
817,381	-1,16
817,813	-1,14
818,245	-1,1
818,676	-1,06
819,108	-1,03
819,54	-1,01
819,971	-0,99
820,403	-0,94
820,834	-0,93
821,266	-0,88
821,697	-0,86
822,129	-0,84
822,56	-0,82
822,991	-0,8
823,423	-0,77
823,854	-0,76
824,286	-0,74
824,717	-0,73
825,148	-0,71
825,579	-0,69
826,01	-0,68
826,442	-0,67
826,873	-0,65
827,304	-0,62
827,735	-0,61
828,166	-0,61
828,597	-0,61
829,028	-0,6
829,459	-0,6
829,89	-0,6
830,321	-0,56
830,752	-0,57
831,183	-0,55
831,613	-0,55
832,044	-0,55
832,475	-0,53
832,906	-0,55
833,336	-0,56
833,767	-0,56
834,198	-0,55
834,628	-0,53
835,059	-0,56
835,49	-0,57
835,92	-0,55
836,351	-0,55
836,781	-0,55
837,212	-0,56
837,642	-0,56
838,072	-0,55
838,503	-0,55
838,933	-0,53
839,364	-0,54
839,794	-0,51
840,224	-0,5
840,654	-0,54
841,085	-0,54
841,515	-0,51
841,945	-0,51
842,375	-0,47
842,805	-0,46
843,235	-0,44
843,665	-0,46
844,095	-0,44
844,525	-0,47
844,955	-0,47
845,385	-0,45
845,815	-0,44
846,245	-0,47
846,675	-0,48
847,105	-0,5
847,534	-0,51
847,964	-0,5
848,394	-0,48
848,824	-0,52
849,253	-0,51
849,683	-0,51
850,112	-0,52
850,542	-0,56
850,972	-0,56
851,401	-0,54
851,831	-0,51
852,26	-0,51
852,69	-0,54
853,119	-0,54
853,548	-0,53
853,978	-0,54
854,407	-0,52
854,836	-0,52
855,266	-0,51
855,695	-0,53
856,124	-0,53
856,553	-0,55
856,983	-0,57
857,412	-0,57
857,841	-0,59
858,27	-0,59
858,699	-0,6
859,128	-0,64
859,557	-0,64
859,986	-0,65
860,415	-0,62
860,844	-0,6
861,273	-0,6
861,702	-0,61
862,13	-0,58
862,559	-0,6
862,988	-0,57
863,417	-0,55
863,845	-0,54
864,274	-0,54
864,703	-0,54
865,131	-0,54
865,56	-0,56
865,989	-0,58
866,417	-0,55
866,846	-0,56
867,274	-0,56
867,703	-0,58
868,131	-0,59
868,559	-0,6
868,988	-0,62
869,416	-0,61
869,844	-0,62
870,273	-0,65
870,701	-0,63
871,129	-0,67
871,557	-0,7
871,986	-0,69
872,414	-0,7
872,842	-0,67
873,27	-0,65
873,698	-0,62
874,126	-0,66
874,554	-0,65
874,982	-0,64
875,41	-0,68
875,838	-0,63
876,266	-0,6
876,694	-0,61
877,122	-0,6
877,549	-0,66
877,977	-0,62
878,405	-0,65
878,833	-0,62
879,26	-0,61
879,688	-0,61
880,116	-0,58
880,543	-0,56
880,971	-0,56
881,399	-0,58
881,826	-0,59
882,254	-0,57
882,681	-0,61
883,109	-0,57
883,536	-0,58
883,963	-0,59
884,391	-0,58
884,818	-0,57
885,245	-0,6
885,673	-0,6
886,1	-0,57
886,527	-0,56
886,954	-0,53
887,381	-0,55
887,809	-0,56
888,236	-0,57
888,663	-0,59
889,09	-0,62
889,517	-0,64
889,944	-0,63
890,371	-0,63
890,798	-0,63
891,225	-0,63
891,652	-0,66
892,078	-0,63
892,505	-0,65
892,932	-0,62
893,359	-0,62
893,786	-0,61
894,212	-0,59
894,639	-0,61
895,066	-0,63
895,492	-0,57
895,919	-0,58
896,346	-0,57
896,772	-0,57
897,199	-0,54
897,625	-0,57
898,052	-0,53
898,478	-0,52
898,904	-0,53
899,331	-0,52
899,757	-0,54
900,183	-0,57
900,61	-0,56
901,036	-0,56
901,462	-0,55
901,888	-0,54
902,315	-0,53
902,741	-0,57
903,167	-0,56
903,593	-0,59
904,019	-0,58
904,445	-0,54
904,871	-0,57
905,297	-0,58
905,723	-0,58
906,149	-0,58
906,575	-0,59
907,001	-0,59
907,427	-0,56
907,852	-0,55
908,278	-0,55
908,704	-0,53
909,13	-0,52
909,555	-0,52
909,981	-0,51
910,407	-0,52
910,832	-0,51
911,258	-0,52
911,684	-0,52
912,109	-0,53
912,535	-0,56
912,96	-0,51
913,386	-0,55
913,811	-0,55
914,236	-0,57
914,662	-0,54
915,087	-0,56
915,512	-0,56
915,938	-0,58
916,363	-0,57
916,788	-0,59
917,213	-0,56
917,639	-0,62
918,064	-0,59
918,489	-0,58
918,914	-0,59
919,339	-0,61
919,764	-0,58
920,189	-0,59
920,614	-0,6
921,039	-0,61
921,464	-0,56
921,889	-0,59
922,314	-0,6
922,738	-0,63
923,163	-0,65
923,588	-0,64
924,013	-0,64
924,437	-0,64
924,862	-0,65
925,287	-0,61
925,711	-0,61
926,136	-0,62
926,561	-0,6
926,985	-0,58
927,41	-0,55
927,834	-0,53
928,259	-0,51
928,683	-0,49
929,108	-0,47
929,532	-0,48
929,956	-0,48
930,381	-0,48
930,805	-0,48
931,229	-0,47
931,653	-0,46
932,078	-0,46
932,502	-0,47
932,926	-0,48
933,35	-0,47
933,774	-0,47
934,198	-0,45
934,622	-0,44
935,046	-0,45
935,47	-0,45
935,894	-0,44
936,318	-0,45
936,742	-0,45
937,166	-0,45
937,59	-0,44
938,014	-0,47
938,437	-0,48
938,861	-0,5
939,285	-0,51
939,709	-0,5
940,132	-0,5
940,556	-0,51
940,98	-0,51
941,403	-0,49
941,827	-0,5
942,25	-0,51
942,674	-0,49
943,097	-0,48
943,521	-0,48
943,944	-0,5
944,368	-0,48
944,791	-0,47
945,214	-0,49
945,638	-0,49
946,061	-0,53
946,484	-0,53
946,907	-0,52
947,331	-0,52
947,754	-0,57
948,177	-0,54
948,6	-0,54
949,023	-0,53
949,446	-0,52
949,869	-0,51
950,292	-0,52
950,715	-0,48
951,138	-0,47
951,561	-0,45
951,984	-0,46
952,407	-0,44
952,83	-0,43
953,252	-0,39
953,675	-0,39
954,098	-0,41
954,521	-0,39
954,943	-0,38
955,366	-0,38
955,789	-0,36
956,211	-0,38
956,634	-0,38
957,056	-0,36
957,479	-0,37
957,902	-0,39
958,324	-0,39
958,746	-0,38
959,169	-0,38
959,591	-0,38
960,014	-0,39
960,436	-0,39
960,858	-0,39
961,281	-0,39
961,703	-0,4
962,125	-0,4
962,547	-0,37
962,969	-0,37
963,391	-0,38
963,814	-0,39
964,236	-0,38
964,658	-0,35
965,08	-0,36
965,502	-0,35
965,924	-0,32
966,346	-0,32
966,768	-0,31
967,189	-0,34
967,611	-0,33
968,033	-0,33
968,455	-0,31
968,877	-0,31
969,298	-0,33
969,72	-0,34
970,142	-0,34
970,563	-0,35
970,985	-0,34
971,407	-0,32
971,828	-0,3
972,25	-0,3
972,671	-0,29
973,093	-0,29
973,514	-0,28
973,936	-0,26
974,357	-0,25
974,778	-0,25
975,2	-0,24
975,621	-0,23
976,042	-0,21
976,464	-0,21
976,885	-0,2
977,306	-0,2
977,727	-0,2
978,148	-0,19
978,57	-0,18
978,991	-0,16
979,412	-0,15
979,833	-0,14
980,254	-0,14
980,675	-0,14
981,096	-0,13
981,517	-0,12
981,937	-0,11
982,358	-0,1
982,779	-0,08
983,2	-0,08
983,621	-0,08
984,042	-0,06
984,462	-0,05
984,883	-0,04
985,304	-0,03
985,724	-0,02
986,145	-0,01
986,565	0
986,986	0,01
987,407	0,02
987,827	0,03
988,248	0,04
988,668	0,05
989,088	0,06
989,509	0,07
989,929	0,09
990,35	0,09
990,77	0,11
991,19	0,11
991,61	0,12
992,031	0,13
992,451	0,14
992,871	0,15
993,291	0,15
993,711	0,16
994,131	0,17
994,551	0,17
994,971	0,18
995,391	0,18
995,811	0,19
996,231	0,19
996,651	0,19
997,071	0,2
997,491	0,2
997,911	0,21
998,331	0,21
998,75	0,22
999,17	0,22
999,59	0,22
1000,009	0,23
1000,429	0,23
1000,849	0,23
1001,268	0,24
1001,688	0,24
1002,107	0,24
1002,527	0,25
1002,946	0,25
1003,366	0,25
1003,785	0,25
1004,205	0,25
1004,624	0,26
1005,044	0,26
1005,463	0,26
1005,882	0,26
1006,301	0,26
1006,721	0,26
1007,14	0,26
1007,559	0,26
1007,978	0,26
1008,397	0,27
1008,816	0,26
1009,235	0,26
1009,655	0,26
1010,074	0,26
1010,492	0,26
1010,911	0,26
1011,33	0,26
1011,749	0,26
1012,168	0,26
1012,587	0,26
1013,006	0,26
1013,425	0,25
1013,843	0,25
1014,262	0,25
1014,681	0,25
1015,099	0,25
1015,518	0,25
1015,937	0,25
1016,355	0,25
1016,774	0,25
1017,192	0,25
1017,611	0,25
1018,029	0,25
1018,448	0,26
1018,866	0,26
1019,285	0,26
1019,703	0,26
1020,121	0,26
1020,54	0,26
1020,958	0,26
1021,376	0,26
1021,794	0,26
1022,213	0,26
1022,631	0,26
1023,049	0,26
1023,467	0,26
1023,885	0,26
1024,303	0,26
1024,721	0,26
1025,139	0,26
1025,557	0,25
1025,975	0,26
1026,393	0,25
1026,811	0,25
1027,229	0,25
1027,647	0,25
1028,065	0,25
1028,482	0,25
1028,9	0,25
1029,318	0,25
1029,735	0,25
1030,153	0,25
1030,571	0,25
1030,988	0,25
1031,406	0,25
1031,823	0,25
1032,241	0,25
1032,659	0,25
1033,076	0,25
1033,493	0,25
1033,911	0,25
1034,328	0,25
1034,746	0,25
1035,163	0,25
1035,58	0,25
1035,997	0,25
1036,415	0,25
1036,832	0,25
1037,249	0,25
1037,666	0,25
1038,083	0,25
1038,501	0,25
1038,918	0,25
1039,335	0,24
1039,752	0,24
1040,169	0,25
1040,586	0,24
1041,003	0,24
1041,419	0,24
1041,836	0,24
1042,253	0,24
1042,67	0,24
1043,087	0,24
1043,504	0,24
1043,92	0,24
1044,337	0,24
1044,754	0,24
1045,17	0,24
1045,587	0,24
1046,004	0,24
1046,42	0,24
1046,837	0,24
1047,253	0,24
1047,67	0,23
1048,086	0,23
1048,503	0,23
1048,919	0,23
1049,335	0,23
1049,752	0,23
1050,168	0,23
1050,584	0,23
1051,001	0,23
1051,417	0,24
1051,833	0,24
1052,249	0,24
1052,665	0,24
1053,081	0,24
1053,497	0,24
1053,914	0,24
1054,33	0,24
1054,746	0,24
1055,162	0,24
1055,578	0,24
1055,993	0,24
1056,409	0,24
1056,825	0,24
1057,241	0,24
1057,657	0,25
1058,073	0,25
1058,488	0,25
1058,904	0,25
1059,32	0,25
1059,736	0,25
1060,151	0,25
1060,567	0,25
1060,982	0,25
1061,398	0,25
1061,813	0,25
1062,229	0,25
1062,644	0,24
1063,06	0,24
1063,475	0,24
1063,891	0,24
1064,306	0,24
1064,721	0,24
1065,137	0,24
1065,552	0,24
1065,967	0,24
1066,382	0,24
1066,798	0,24
1067,213	0,24
1067,628	0,24
1068,043	0,24
1068,458	0,24
1068,873	0,24
1069,288	0,24
1069,703	0,24
1070,118	0,25
1070,533	0,25
1070,948	0,25
1071,363	0,25
1071,778	0,25
1072,193	0,25
1072,607	0,25
1073,022	0,25
1073,437	0,25
1073,852	0,25
1074,266	0,25
1074,681	0,25
1075,096	0,25
1075,51	0,25
1075,925	0,25
1076,339	0,25
1076,754	0,25
1077,168	0,25
1077,583	0,25
1077,997	0,25
1078,412	0,25
1078,826	0,25
1079,24	0,24
1079,655	0,24
1080,069	0,24
1080,483	0,24
1080,897	0,24
1081,312	0,24
1081,726	0,24
1082,14	0,24
1082,554	0,24
1082,968	0,24
1083,382	0,24
1083,796	0,24
1084,21	0,24
1084,624	0,23
1085,038	0,23
1085,452	0,23
1085,866	0,23
1086,28	0,23
1086,694	0,23
1087,108	0,23
1087,521	0,23
1087,935	0,22
1088,349	0,22
1088,763	0,22
1089,176	0,22
1089,59	0,22
1090,004	0,22
1090,417	0,22
1090,831	0,21
1091,244	0,21
1091,658	0,21
1092,071	0,21
1092,485	0,21
1092,898	0,21
1093,312	0,2
1093,725	0,2
1094,138	0,2
1094,552	0,2
1094,965	0,2
1095,378	0,2
1095,791	0,2
1096,205	0,2
1096,618	0,2
1097,031	0,19
1097,444	0,19
1097,857	0,19
1098,27	0,19
1098,683	0,19
1099,096	0,18
1099,509	0,18
1099,922	0,18
1100,335	0,17
1100,748	0,17
1101,161	0,16
1101,574	0,16
1101,986	0,16
1102,399	0,16
1102,812	0,15
1103,225	0,15
1103,637	0,14
1104,05	0,14
1104,463	0,14
1104,875	0,14
1105,288	0,14
1105,7	0,14
1106,113	0,13
1106,525	0,13
1106,938	0,13
1107,35	0,12
1107,763	0,12
1108,175	0,12
1108,588	0,12
1109	0,11
1109,412	0,1
1109,824	0,11
1110,237	0,1
1110,649	0,1
1111,061	0,09
