Data from 18C-808nm-8A_Absorbance__1154__01154.txt Node

Date: Mon Jul 17 17:04:28 CEST 2023
User: Laser008
Spectrometer: MAYP115816
Trigger mode: 0
Integration Time (sec): 2,500000E-1
Scans to average: 10
Electric dark correction enabled: true
Nonlinearity correction enabled: true
Boxcar width: 5
XAxis mode: Wavelengths
Number of Pixels in Spectrum: 2068
>>>>>Begin Spectral Data<<<<<
198,914	-0,7
199,384	-0,48
199,855	-0,37
200,325	-0,31
200,796	-0,27
201,266	-0,23
201,737	-0,21
202,207	-0,2
202,677	-0,19
203,147	-0,18
203,618	-0,15
204,088	-0,14
204,558	-0,13
205,028	-0,12
205,498	-0,12
205,968	-0,12
206,439	-0,15
206,909	-0,14
207,379	-0,14
207,849	-0,14
208,319	-0,15
208,789	-0,15
209,258	-0,14
209,728	-0,15
210,198	-0,15
210,668	-0,15
211,138	-0,14
211,608	-0,13
212,077	-0,13
212,547	-0,12
213,017	-0,13
213,486	-0,12
213,956	-0,14
214,426	-0,14
214,895	-0,14
215,365	-0,15
215,834	-0,15
216,304	-0,16
216,773	-0,16
217,243	-0,18
217,712	-0,19
218,181	-0,19
218,651	-0,18
219,12	-0,18
219,589	-0,18
220,058	-0,17
220,528	-0,18
220,997	-0,19
221,466	-0,2
221,935	-0,22
222,404	-0,21
222,873	-0,2
223,342	-0,2
223,812	-0,2
224,281	-0,2
224,749	-0,2
225,218	-0,21
225,687	-0,21
226,156	-0,19
226,625	-0,17
227,094	-0,16
227,563	-0,16
228,031	-0,17
228,5	-0,18
228,969	-0,19
229,438	-0,18
229,906	-0,17
230,375	-0,16
230,844	-0,17
231,312	-0,17
231,781	-0,18
232,249	-0,16
232,718	-0,18
233,186	-0,16
233,655	-0,18
234,123	-0,17
234,591	-0,17
235,06	-0,18
235,528	-0,18
235,996	-0,16
236,465	-0,16
236,933	-0,16
237,401	-0,16
237,869	-0,15
238,337	-0,14
238,805	-0,12
239,274	-0,12
239,742	-0,12
240,21	-0,11
240,678	-0,11
241,146	-0,11
241,614	-0,12
242,081	-0,11
242,549	-0,12
243,017	-0,12
243,485	-0,12
243,953	-0,12
244,421	-0,12
244,888	-0,12
245,356	-0,12
245,824	-0,13
246,291	-0,13
246,759	-0,14
247,227	-0,14
247,694	-0,12
248,162	-0,12
248,629	-0,11
249,097	-0,12
249,564	-0,13
250,032	-0,14
250,499	-0,14
250,967	-0,14
251,434	-0,15
251,901	-0,14
252,369	-0,15
252,836	-0,17
253,303	-0,18
253,77	-0,2
254,237	-0,2
254,705	-0,19
255,172	-0,18
255,639	-0,18
256,106	-0,19
256,573	-0,19
257,04	-0,19
257,507	-0,19
257,974	-0,19
258,441	-0,16
258,908	-0,16
259,375	-0,18
259,841	-0,19
260,308	-0,19
260,775	-0,19
261,242	-0,18
261,709	-0,18
262,175	-0,19
262,642	-0,18
263,109	-0,17
263,575	-0,19
264,042	-0,18
264,508	-0,18
264,975	-0,19
265,441	-0,2
265,908	-0,2
266,374	-0,19
266,841	-0,2
267,307	-0,2
267,773	-0,2
268,24	-0,2
268,706	-0,2
269,172	-0,21
269,639	-0,21
270,105	-0,19
270,571	-0,2
271,037	-0,21
271,503	-0,22
271,969	-0,22
272,435	-0,22
272,902	-0,23
273,368	-0,25
273,834	-0,24
274,3	-0,25
274,765	-0,25
275,231	-0,25
275,697	-0,24
276,163	-0,23
276,629	-0,22
277,095	-0,23
277,56	-0,23
278,026	-0,24
278,492	-0,22
278,958	-0,22
279,423	-0,22
279,889	-0,22
280,354	-0,22
280,82	-0,23
281,286	-0,25
281,751	-0,25
282,217	-0,23
282,682	-0,23
283,147	-0,23
283,613	-0,24
284,078	-0,23
284,544	-0,25
285,009	-0,25
285,474	-0,24
285,939	-0,25
286,405	-0,24
286,87	-0,23
287,335	-0,23
287,8	-0,23
288,265	-0,22
288,73	-0,24
289,195	-0,25
289,66	-0,24
290,125	-0,23
290,59	-0,23
291,055	-0,23
291,52	-0,23
291,985	-0,23
292,45	-0,25
292,915	-0,25
293,38	-0,25
293,844	-0,23
294,309	-0,22
294,774	-0,21
295,239	-0,23
295,703	-0,23
296,168	-0,23
296,632	-0,22
297,097	-0,2
297,562	-0,19
298,026	-0,19
298,491	-0,19
298,955	-0,19
299,419	-0,18
299,884	-0,18
300,348	-0,17
300,813	-0,16
301,277	-0,17
301,741	-0,18
302,205	-0,17
302,67	-0,17
303,134	-0,17
303,598	-0,17
304,062	-0,16
304,526	-0,16
304,99	-0,17
305,454	-0,17
305,919	-0,17
306,383	-0,15
306,847	-0,15
307,31	-0,16
307,774	-0,17
308,238	-0,17
308,702	-0,17
309,166	-0,18
309,63	-0,18
310,094	-0,15
310,557	-0,16
311,021	-0,15
311,485	-0,15
311,948	-0,14
312,412	-0,14
312,876	-0,13
313,339	-0,14
313,803	-0,14
314,266	-0,13
314,73	-0,14
315,193	-0,14
315,657	-0,13
316,12	-0,13
316,584	-0,12
317,047	-0,12
317,51	-0,11
317,973	-0,11
318,437	-0,1
318,9	-0,09
319,363	-0,08
319,826	-0,08
320,29	-0,08
320,753	-0,08
321,216	-0,08
321,679	-0,08
322,142	-0,08
322,605	-0,09
323,068	-0,09
323,531	-0,09
323,994	-0,09
324,457	-0,09
324,92	-0,07
325,382	-0,07
325,845	-0,07
326,308	-0,06
326,771	-0,06
327,233	-0,06
327,696	-0,05
328,159	-0,05
328,622	-0,04
329,084	-0,04
329,547	-0,04
330,009	-0,04
330,472	-0,04
330,934	-0,03
331,397	-0,02
331,859	-0,01
332,322	-0,01
332,784	0
333,246	0,01
333,709	0,01
334,171	0,02
334,633	0,02
335,096	0,02
335,558	0,03
336,02	0,02
336,482	0,02
336,944	0,03
337,406	0,03
337,868	0,03
338,331	0,03
338,793	0,04
339,255	0,04
339,717	0,05
340,178	0,05
340,64	0,06
341,102	0,06
341,564	0,07
342,026	0,08
342,488	0,09
342,949	0,1
343,411	0,12
343,873	0,14
344,335	0,16
344,796	0,18
345,258	0,22
345,719	0,24
346,181	0,27
346,643	0,29
347,104	0,32
347,566	0,34
348,027	0,35
348,488	0,36
348,95	0,38
349,411	0,39
349,873	0,4
350,334	0,41
350,795	0,42
351,256	0,43
351,718	0,43
352,179	0,44
352,64	0,44
353,101	0,44
353,562	0,44
354,023	0,44
354,484	0,45
354,945	0,45
355,406	0,45
355,867	0,45
356,328	0,45
356,789	0,45
357,25	0,45
357,711	0,45
358,172	0,45
358,633	0,45
359,093	0,45
359,554	0,46
360,015	0,46
360,476	0,46
360,936	0,46
361,397	0,46
361,858	0,46
362,318	0,46
362,779	0,46
363,239	0,46
363,7	0,46
364,16	0,46
364,621	0,46
365,081	0,46
365,541	0,46
366,002	0,46
366,462	0,46
366,922	0,46
367,383	0,46
367,843	0,46
368,303	0,46
368,763	0,46
369,223	0,46
369,684	0,46
370,144	0,46
370,604	0,46
371,064	0,46
371,524	0,46
371,984	0,46
372,444	0,46
372,904	0,46
373,363	0,46
373,823	0,46
374,283	0,46
374,743	0,46
375,203	0,46
375,663	0,46
376,122	0,46
376,582	0,46
377,042	0,46
377,501	0,46
377,961	0,46
378,42	0,46
378,88	0,46
379,34	0,45
379,799	0,45
380,259	0,45
380,718	0,45
381,177	0,45
381,637	0,45
382,096	0,45
382,555	0,45
383,015	0,45
383,474	0,45
383,933	0,45
384,393	0,45
384,852	0,45
385,311	0,45
385,77	0,45
386,229	0,45
386,688	0,45
387,147	0,45
387,606	0,45
388,065	0,45
388,524	0,45
388,983	0,45
389,442	0,45
389,901	0,45
390,36	0,45
390,819	0,45
391,277	0,45
391,736	0,45
392,195	0,45
392,654	0,45
393,112	0,45
393,571	0,45
394,03	0,45
394,488	0,45
394,947	0,44
395,405	0,44
395,864	0,44
396,322	0,44
396,781	0,44
397,239	0,44
397,698	0,44
398,156	0,44
398,614	0,44
399,073	0,44
399,531	0,44
399,989	0,44
400,447	0,44
400,905	0,44
401,364	0,44
401,822	0,44
402,28	0,44
402,738	0,44
403,196	0,44
403,654	0,44
404,112	0,44
404,57	0,44
405,028	0,44
405,486	0,44
405,944	0,44
406,402	0,44
406,859	0,44
407,317	0,44
407,775	0,44
408,233	0,44
408,691	0,44
409,148	0,44
409,606	0,44
410,064	0,44
410,521	0,44
410,979	0,44
411,436	0,44
411,894	0,44
412,351	0,44
412,809	0,44
413,266	0,44
413,724	0,44
414,181	0,44
414,638	0,44
415,096	0,44
415,553	0,44
416,01	0,43
416,467	0,43
416,925	0,43
417,382	0,44
417,839	0,43
418,296	0,43
418,753	0,43
419,21	0,43
419,667	0,43
420,124	0,43
420,581	0,43
421,038	0,43
421,495	0,43
421,952	0,43
422,409	0,43
422,866	0,43
423,322	0,43
423,779	0,43
424,236	0,43
424,693	0,43
425,149	0,43
425,606	0,43
426,063	0,43
426,519	0,43
426,976	0,43
427,433	0,43
427,889	0,43
428,346	0,43
428,802	0,43
429,258	0,43
429,715	0,43
430,171	0,43
430,628	0,43
431,084	0,43
431,54	0,43
431,997	0,43
432,453	0,43
432,909	0,43
433,365	0,43
433,821	0,43
434,277	0,43
434,734	0,43
435,19	0,43
435,646	0,43
436,102	0,43
436,558	0,43
437,014	0,43
437,47	0,43
437,925	0,43
438,381	0,43
438,837	0,43
439,293	0,43
439,749	0,43
440,205	0,43
440,66	0,43
441,116	0,43
441,572	0,43
442,027	0,43
442,483	0,43
442,939	0,43
443,394	0,43
443,85	0,43
444,305	0,43
444,761	0,43
445,216	0,43
445,672	0,43
446,127	0,43
446,582	0,43
447,038	0,43
447,493	0,43
447,948	0,43
448,403	0,43
448,859	0,43
449,314	0,43
449,769	0,43
450,224	0,43
450,679	0,43
451,134	0,43
451,589	0,43
452,044	0,43
452,499	0,43
452,954	0,43
453,409	0,43
453,864	0,43
454,319	0,43
454,774	0,43
455,229	0,43
455,684	0,43
456,138	0,43
456,593	0,43
457,048	0,43
457,503	0,43
457,957	0,43
458,412	0,43
458,866	0,43
459,321	0,43
459,776	0,43
460,23	0,43
460,685	0,43
461,139	0,43
461,593	0,43
462,048	0,43
462,502	0,43
462,957	0,44
463,411	0,44
463,865	0,44
464,319	0,44
464,774	0,44
465,228	0,44
465,682	0,44
466,136	0,44
466,59	0,44
467,044	0,44
467,499	0,44
467,953	0,44
468,407	0,44
468,861	0,44
469,315	0,44
469,768	0,44
470,222	0,44
470,676	0,44
471,13	0,44
471,584	0,44
472,038	0,44
472,491	0,44
472,945	0,44
473,399	0,44
473,852	0,45
474,306	0,45
474,76	0,45
475,213	0,45
475,667	0,45
476,12	0,45
476,574	0,45
477,027	0,45
477,481	0,45
477,934	0,45
478,388	0,45
478,841	0,45
479,294	0,45
479,748	0,45
480,201	0,46
480,654	0,46
481,107	0,46
481,561	0,46
482,014	0,46
482,467	0,46
482,92	0,46
483,373	0,46
483,826	0,46
484,279	0,46
484,732	0,47
485,185	0,47
485,638	0,47
486,091	0,47
486,544	0,47
486,997	0,47
487,449	0,47
487,902	0,47
488,355	0,47
488,808	0,48
489,26	0,48
489,713	0,48
490,166	0,48
490,618	0,48
491,071	0,48
491,523	0,49
491,976	0,49
492,429	0,49
492,881	0,49
493,333	0,49
493,786	0,49
494,238	0,5
494,691	0,5
495,143	0,5
495,595	0,5
496,048	0,5
496,5	0,51
496,952	0,51
497,404	0,51
497,856	0,51
498,309	0,51
498,761	0,52
499,213	0,52
499,665	0,52
500,117	0,52
500,569	0,53
501,021	0,53
501,473	0,53
501,925	0,53
502,377	0,54
502,828	0,54
503,28	0,54
503,732	0,54
504,184	0,55
504,636	0,55
505,087	0,55
505,539	0,55
505,991	0,56
506,442	0,56
506,894	0,56
507,345	0,56
507,797	0,57
508,249	0,57
508,7	0,57
509,151	0,57
509,603	0,58
510,054	0,58
510,506	0,58
510,957	0,58
511,408	0,58
511,86	0,59
512,311	0,59
512,762	0,59
513,213	0,59
513,665	0,59
514,116	0,6
514,567	0,6
515,018	0,6
515,469	0,6
515,92	0,6
516,371	0,61
516,822	0,61
517,273	0,61
517,724	0,61
518,175	0,61
518,626	0,62
519,076	0,62
519,527	0,62
519,978	0,62
520,429	0,62
520,88	0,62
521,33	0,63
521,781	0,63
522,232	0,63
522,682	0,63
523,133	0,63
523,583	0,63
524,034	0,63
524,484	0,63
524,935	0,63
525,385	0,64
525,836	0,64
526,286	0,64
526,736	0,64
527,187	0,64
527,637	0,64
528,087	0,64
528,538	0,64
528,988	0,64
529,438	0,64
529,888	0,63
530,338	0,63
530,788	0,63
531,238	0,63
531,688	0,63
532,139	0,63
532,589	0,63
533,038	0,63
533,488	0,63
533,938	0,63
534,388	0,63
534,838	0,63
535,288	0,63
535,738	0,63
536,187	0,62
536,637	0,62
537,087	0,62
537,537	0,62
537,986	0,62
538,436	0,61
538,885	0,61
539,335	0,61
539,785	0,61
540,234	0,6
540,684	0,6
541,133	0,6
541,582	0,6
542,032	0,59
542,481	0,59
542,931	0,59
543,38	0,58
543,829	0,58
544,278	0,58
544,728	0,58
545,177	0,57
545,626	0,57
546,075	0,57
546,524	0,57
546,973	0,57
547,422	0,56
547,871	0,56
548,32	0,56
548,769	0,56
549,218	0,56
549,667	0,56
550,116	0,56
550,565	0,56
551,014	0,55
551,463	0,55
551,911	0,55
552,36	0,55
552,809	0,55
553,258	0,54
553,706	0,54
554,155	0,54
554,603	0,54
555,052	0,54
555,501	0,53
555,949	0,53
556,398	0,53
556,846	0,53
557,294	0,52
557,743	0,52
558,191	0,52
558,64	0,52
559,088	0,51
559,536	0,51
559,985	0,51
560,433	0,51
560,881	0,5
561,329	0,5
561,777	0,5
562,225	0,5
562,674	0,5
563,122	0,49
563,57	0,49
564,018	0,49
564,466	0,49
564,914	0,49
565,362	0,48
565,809	0,48
566,257	0,48
566,705	0,48
567,153	0,48
567,601	0,47
568,048	0,47
568,496	0,47
568,944	0,47
569,392	0,47
569,839	0,46
570,287	0,46
570,734	0,46
571,182	0,46
571,63	0,46
572,077	0,45
572,525	0,45
572,972	0,45
573,419	0,45
573,867	0,45
574,314	0,44
574,761	0,44
575,209	0,44
575,656	0,44
576,103	0,44
576,551	0,44
576,998	0,44
577,445	0,44
577,892	0,43
578,339	0,43
578,786	0,43
579,233	0,43
579,68	0,43
580,127	0,43
580,574	0,43
581,021	0,43
581,468	0,42
581,915	0,42
582,362	0,42
582,809	0,42
583,255	0,42
583,702	0,42
584,149	0,42
584,596	0,41
585,042	0,41
585,489	0,41
585,936	0,41
586,382	0,41
586,829	0,41
587,275	0,41
587,722	0,41
588,168	0,41
588,615	0,4
589,061	0,4
589,508	0,4
589,954	0,4
590,4	0,4
590,847	0,4
591,293	0,4
591,739	0,4
592,185	0,4
592,632	0,4
593,078	0,4
593,524	0,4
593,97	0,4
594,416	0,39
594,862	0,39
595,308	0,39
595,754	0,39
596,2	0,39
596,646	0,39
597,092	0,39
597,538	0,39
597,984	0,39
598,43	0,39
598,876	0,39
599,321	0,39
599,767	0,38
600,213	0,38
600,659	0,38
601,104	0,38
601,55	0,38
601,995	0,38
602,441	0,38
602,887	0,38
603,332	0,38
603,778	0,38
604,223	0,38
604,668	0,38
605,114	0,38
605,559	0,38
606,005	0,38
606,45	0,38
606,895	0,38
607,341	0,38
607,786	0,37
608,231	0,37
608,676	0,37
609,121	0,37
609,566	0,36
610,012	0,36
610,457	0,36
610,902	0,35
611,347	0,35
611,792	0,35
612,237	0,35
612,682	0,35
613,127	0,35
613,571	0,35
614,016	0,35
614,461	0,36
614,906	0,36
615,351	0,36
615,795	0,36
616,24	0,36
616,685	0,36
617,129	0,36
617,574	0,36
618,019	0,36
618,463	0,36
618,908	0,36
619,352	0,36
619,797	0,36
620,241	0,36
620,686	0,36
621,13	0,36
621,574	0,36
622,019	0,36
622,463	0,36
622,907	0,35
623,352	0,35
623,796	0,35
624,24	0,35
624,684	0,35
625,128	0,35
625,572	0,35
626,016	0,35
626,461	0,35
626,905	0,35
627,349	0,35
627,793	0,35
628,236	0,35
628,68	0,35
629,124	0,35
629,568	0,35
630,012	0,35
630,456	0,35
630,9	0,35
631,343	0,35
631,787	0,35
632,231	0,35
632,674	0,35
633,118	0,35
633,562	0,35
634,005	0,35
634,449	0,35
634,892	0,35
635,336	0,35
635,779	0,35
636,223	0,35
636,666	0,35
637,109	0,35
637,553	0,35
637,996	0,35
638,439	0,35
638,883	0,35
639,326	0,35
639,769	0,34
640,212	0,34
640,655	0,34
641,099	0,34
641,542	0,34
641,985	0,34
642,428	0,34
642,871	0,34
643,314	0,34
643,757	0,34
644,2	0,34
644,643	0,34
645,085	0,34
645,528	0,34
645,971	0,34
646,414	0,34
646,857	0,34
647,299	0,34
647,742	0,34
648,185	0,34
648,627	0,34
649,07	0,34
649,513	0,34
649,955	0,34
650,398	0,34
650,84	0,34
651,283	0,34
651,725	0,34
652,168	0,34
652,61	0,34
653,052	0,34
653,495	0,33
653,937	0,26
654,379	0,21
654,821	0,21
655,264	0,21
655,706	0,21
656,148	0,21
656,59	0,22
657,032	0,22
657,474	0,22
657,916	0,22
658,358	0,21
658,8	0,26
659,242	0,34
659,684	0,34
660,126	0,34
660,568	0,34
661,01	0,34
661,452	0,34
661,894	0,34
662,335	0,34
662,777	0,33
663,219	0,33
663,661	0,33
664,102	0,33
664,544	0,33
664,985	0,33
665,427	0,33
665,869	0,33
666,31	0,33
666,752	0,33
667,193	0,33
667,634	0,33
668,076	0,33
668,517	0,33
668,959	0,33
669,4	0,33
669,841	0,33
670,282	0,33
670,724	0,33
671,165	0,33
671,606	0,33
672,047	0,33
672,488	0,33
672,929	0,33
673,37	0,33
673,811	0,33
674,252	0,33
674,693	0,33
675,134	0,33
675,575	0,33
676,016	0,33
676,457	0,33
676,898	0,33
677,339	0,33
677,78	0,33
678,22	0,33
678,661	0,33
679,102	0,33
679,542	0,33
679,983	0,33
680,424	0,33
680,864	0,33
681,305	0,33
681,745	0,33
682,186	0,33
682,626	0,33
683,067	0,33
683,507	0,33
683,948	0,33
684,388	0,33
684,828	0,33
685,269	0,33
685,709	0,32
686,149	0,32
686,589	0,32
687,029	0,32
687,47	0,32
687,91	0,32
688,35	0,32
688,79	0,32
689,23	0,32
689,67	0,32
690,11	0,32
690,55	0,32
690,99	0,32
691,43	0,32
691,87	0,32
692,31	0,32
692,749	0,32
693,189	0,32
693,629	0,31
694,069	0,31
694,508	0,31
694,948	0,31
695,388	0,31
695,827	0,32
696,267	0,32
696,706	0,32
697,146	0,32
697,586	0,32
698,025	0,32
698,464	0,32
698,904	0,32
699,343	0,32
699,783	0,32
700,222	0,32
700,661	0,32
701,101	0,32
701,54	0,32
701,979	0,32
702,418	0,32
702,857	0,32
703,297	0,32
703,736	0,32
704,175	0,32
704,614	0,32
705,053	0,32
705,492	0,32
705,931	0,31
706,37	0,31
706,809	0,31
707,248	0,31
707,687	0,31
708,125	0,31
708,564	0,31
709,003	0,31
709,442	0,31
709,88	0,31
710,319	0,31
710,758	0,31
711,196	0,31
711,635	0,31
712,074	0,31
712,512	0,31
712,951	0,31
713,389	0,31
713,828	0,31
714,266	0,31
714,705	0,31
715,143	0,3
715,581	0,3
716,02	0,3
716,458	0,3
716,896	0,3
717,334	0,3
717,773	0,3
718,211	0,3
718,649	0,3
719,087	0,3
719,525	0,3
719,963	0,3
720,401	0,3
720,839	0,3
721,277	0,3
721,715	0,3
722,153	0,3
722,591	0,3
723,029	0,3
723,467	0,3
723,905	0,3
724,342	0,3
724,78	0,3
725,218	0,3
725,656	0,3
726,093	0,3
726,531	0,3
726,969	0,3
727,406	0,3
727,844	0,3
728,281	0,3
728,719	0,3
729,156	0,3
729,594	0,3
730,031	0,3
730,469	0,3
730,906	0,3
731,343	0,3
731,781	0,3
732,218	0,3
732,655	0,3
733,092	0,3
733,53	0,3
733,967	0,3
734,404	0,3
734,841	0,3
735,278	0,3
735,715	0,3
736,152	0,3
736,589	0,3
737,026	0,3
737,463	0,29
737,9	0,29
738,337	0,29
738,774	0,29
739,211	0,29
739,647	0,29
740,084	0,29
740,521	0,29
740,958	0,29
741,394	0,29
741,831	0,29
742,268	0,29
742,704	0,29
743,141	0,28
743,577	0,28
744,014	0,28
744,45	0,28
744,887	0,28
745,323	0,28
745,76	0,28
746,196	0,28
746,632	0,28
747,069	0,28
747,505	0,28
747,941	0,28
748,378	0,28
748,814	0,28
749,25	0,28
749,686	0,28
750,122	0,28
750,558	0,28
750,994	0,28
751,43	0,29
751,866	0,29
752,302	0,29
752,738	0,29
753,174	0,29
753,61	0,29
754,046	0,29
754,482	0,29
754,918	0,29
755,354	0,29
755,789	0,29
756,225	0,29
756,661	0,29
757,096	0,29
757,532	0,29
757,968	0,29
758,403	0,28
758,839	0,28
759,274	0,28
759,71	0,28
760,145	0,27
760,581	0,27
761,016	0,27
761,452	0,26
761,887	0,26
762,322	0,26
762,758	0,25
763,193	0,25
763,628	0,25
764,063	0,24
764,499	0,24
764,934	0,23
765,369	0,22
765,804	0,22
766,239	0,21
766,674	0,21
767,109	0,2
767,544	0,2
767,979	0,19
768,414	0,18
768,849	0,17
769,284	0,17
769,719	0,16
770,154	0,16
770,588	0,15
771,023	0,14
771,458	0,13
771,893	0,12
772,327	0,11
772,762	0,11
773,197	0,1
773,631	0,09
774,066	0,08
774,5	0,08
774,935	0,07
775,369	0,06
775,804	0,05
776,238	0,04
776,673	0,03
777,107	0,02
777,541	0,02
777,976	0,01
778,41	0
778,844	-0
779,279	-0,01
779,713	-0,02
780,147	-0,02
780,581	-0,03
781,015	-0,04
781,449	-0,05
781,883	-0,06
782,317	-0,07
782,751	-0,09
783,185	-0,09
783,619	-0,1
784,053	-0,1
784,487	-0,11
784,921	-0,12
785,355	-0,13
785,789	-0,13
786,223	-0,14
786,656	-0,15
787,09	-0,16
787,524	-0,16
787,957	-0,18
788,391	-0,19
788,825	-0,21
789,258	-0,22
789,692	-0,24
790,125	-0,26
790,559	-0,27
790,992	-0,29
791,426	-0,32
791,859	-0,33
792,293	-0,36
792,726	-0,37
793,159	-0,39
793,593	-0,41
794,026	-0,43
794,459	-0,46
794,892	-0,49
795,326	-0,51
795,759	-0,55
796,192	-0,59
796,625	-0,64
797,058	-0,66
797,491	-0,7
797,924	-0,74
798,357	-0,79
798,79	-0,83
799,223	-0,88
799,656	-0,93
800,089	-0,98
800,522	-1,03
800,955	-1,07
801,387	-1,13
801,82	-1,18
802,253	-1,24
802,686	-1,32
803,118	-1,38
803,551	-1,43
803,984	-1,47
804,416	-1,51
804,849	-1,54
805,281	-1,64
805,714	-1,99
806,146	-2,45
806,579	-2,71
807,011	-2,87
807,444	-2,96
807,876	-3,05
808,308	-3,09
808,741	-3,11
809,173	-3,17
809,605	-3,19
810,037	-3,26
810,47	-3,18
810,902	-2,99
811,334	-2,84
811,766	-2,68
812,198	-2,44
812,63	-2,03
813,062	-1,82
813,494	-1,72
813,926	-1,63
814,358	-1,58
814,79	-1,5
815,222	-1,44
815,654	-1,39
816,086	-1,32
816,518	-1,27
816,949	-1,22
817,381	-1,17
817,813	-1,16
818,245	-1,12
818,676	-1,08
819,108	-1,04
819,54	-1,03
819,971	-1,01
820,403	-0,95
820,834	-0,94
821,266	-0,89
821,697	-0,87
822,129	-0,85
822,56	-0,82
822,991	-0,79
823,423	-0,76
823,854	-0,75
824,286	-0,72
824,717	-0,71
825,148	-0,69
825,579	-0,68
826,01	-0,66
826,442	-0,66
826,873	-0,64
827,304	-0,6
827,735	-0,59
828,166	-0,6
828,597	-0,59
829,028	-0,58
829,459	-0,59
829,89	-0,59
830,321	-0,55
830,752	-0,57
831,183	-0,55
831,613	-0,55
832,044	-0,56
832,475	-0,55
832,906	-0,57
833,336	-0,57
833,767	-0,57
834,198	-0,57
834,628	-0,55
835,059	-0,58
835,49	-0,58
835,92	-0,56
836,351	-0,56
836,781	-0,56
837,212	-0,57
837,642	-0,56
838,072	-0,55
838,503	-0,56
838,933	-0,53
839,364	-0,54
839,794	-0,52
840,224	-0,5
840,654	-0,55
841,085	-0,56
841,515	-0,53
841,945	-0,53
842,375	-0,49
842,805	-0,48
843,235	-0,46
843,665	-0,48
844,095	-0,47
844,525	-0,49
844,955	-0,5
845,385	-0,47
845,815	-0,45
846,245	-0,47
846,675	-0,48
847,105	-0,5
847,534	-0,49
847,964	-0,48
848,394	-0,46
848,824	-0,49
849,253	-0,48
849,683	-0,49
850,112	-0,51
850,542	-0,55
850,972	-0,55
851,401	-0,53
851,831	-0,5
852,26	-0,52
852,69	-0,55
853,119	-0,54
853,548	-0,55
853,978	-0,54
854,407	-0,52
854,836	-0,51
855,266	-0,5
855,695	-0,51
856,124	-0,53
856,553	-0,54
856,983	-0,55
857,412	-0,55
857,841	-0,56
858,27	-0,57
858,699	-0,57
859,128	-0,6
859,557	-0,61
859,986	-0,63
860,415	-0,6
860,844	-0,57
861,273	-0,57
861,702	-0,58
862,13	-0,55
862,559	-0,56
862,988	-0,54
863,417	-0,53
863,845	-0,53
864,274	-0,55
864,703	-0,54
865,131	-0,54
865,56	-0,56
865,989	-0,58
866,417	-0,55
866,846	-0,57
867,274	-0,56
867,703	-0,58
868,131	-0,6
868,559	-0,59
868,988	-0,59
869,416	-0,59
869,844	-0,61
870,273	-0,62
870,701	-0,61
871,129	-0,65
871,557	-0,67
871,986	-0,67
872,414	-0,68
872,842	-0,64
873,27	-0,63
873,698	-0,61
874,126	-0,65
874,554	-0,61
874,982	-0,61
875,41	-0,64
875,838	-0,59
876,266	-0,56
876,694	-0,56
877,122	-0,54
877,549	-0,61
877,977	-0,57
878,405	-0,6
878,833	-0,57
879,26	-0,56
879,688	-0,56
880,116	-0,55
880,543	-0,53
880,971	-0,52
881,399	-0,55
881,826	-0,56
882,254	-0,54
882,681	-0,58
883,109	-0,54
883,536	-0,55
883,963	-0,57
884,391	-0,56
884,818	-0,54
885,245	-0,59
885,673	-0,6
886,1	-0,57
886,527	-0,56
886,954	-0,52
887,381	-0,54
887,809	-0,55
888,236	-0,57
888,663	-0,57
889,09	-0,61
889,517	-0,63
889,944	-0,62
890,371	-0,6
890,798	-0,61
891,225	-0,62
891,652	-0,65
892,078	-0,62
892,505	-0,65
892,932	-0,6
893,359	-0,61
893,786	-0,61
894,212	-0,58
894,639	-0,6
895,066	-0,62
895,492	-0,57
895,919	-0,57
896,346	-0,57
896,772	-0,58
897,199	-0,55
897,625	-0,58
898,052	-0,54
898,478	-0,52
898,904	-0,53
899,331	-0,53
899,757	-0,54
900,183	-0,56
900,61	-0,54
901,036	-0,54
901,462	-0,53
901,888	-0,53
902,315	-0,51
902,741	-0,56
903,167	-0,55
903,593	-0,58
904,019	-0,56
904,445	-0,53
904,871	-0,56
905,297	-0,59
905,723	-0,58
906,149	-0,57
906,575	-0,57
907,001	-0,57
907,427	-0,54
907,852	-0,54
908,278	-0,55
908,704	-0,54
909,13	-0,54
909,555	-0,53
909,981	-0,52
910,407	-0,51
910,832	-0,51
911,258	-0,52
911,684	-0,52
912,109	-0,52
912,535	-0,54
912,96	-0,49
913,386	-0,52
913,811	-0,51
914,236	-0,52
914,662	-0,51
915,087	-0,55
915,512	-0,55
915,938	-0,57
916,363	-0,56
916,788	-0,58
917,213	-0,57
917,639	-0,62
918,064	-0,59
918,489	-0,6
918,914	-0,61
919,339	-0,62
919,764	-0,59
920,189	-0,59
920,614	-0,61
921,039	-0,62
921,464	-0,57
921,889	-0,59
922,314	-0,59
922,738	-0,63
923,163	-0,65
923,588	-0,65
924,013	-0,64
924,437	-0,63
924,862	-0,64
925,287	-0,6
925,711	-0,6
926,136	-0,62
926,561	-0,6
926,985	-0,6
927,41	-0,57
927,834	-0,54
928,259	-0,51
928,683	-0,49
929,108	-0,46
929,532	-0,48
929,956	-0,47
930,381	-0,47
930,805	-0,47
931,229	-0,46
931,653	-0,44
932,078	-0,44
932,502	-0,45
932,926	-0,47
933,35	-0,47
933,774	-0,47
934,198	-0,45
934,622	-0,45
935,046	-0,45
935,47	-0,46
935,894	-0,46
936,318	-0,46
936,742	-0,46
937,166	-0,46
937,59	-0,45
938,014	-0,47
938,437	-0,48
938,861	-0,5
939,285	-0,5
939,709	-0,5
940,132	-0,5
940,556	-0,51
940,98	-0,49
941,403	-0,47
941,827	-0,47
942,25	-0,49
942,674	-0,48
943,097	-0,47
943,521	-0,47
943,944	-0,48
944,368	-0,46
944,791	-0,45
945,214	-0,47
945,638	-0,48
946,061	-0,53
946,484	-0,53
946,907	-0,52
947,331	-0,52
947,754	-0,56
948,177	-0,53
948,6	-0,54
949,023	-0,54
949,446	-0,53
949,869	-0,51
950,292	-0,51
950,715	-0,47
951,138	-0,45
951,561	-0,43
951,984	-0,43
952,407	-0,42
952,83	-0,4
953,252	-0,35
953,675	-0,35
954,098	-0,36
954,521	-0,35
954,943	-0,34
955,366	-0,35
955,789	-0,34
956,211	-0,35
956,634	-0,35
957,056	-0,33
957,479	-0,34
957,902	-0,37
958,324	-0,36
958,746	-0,35
959,169	-0,36
959,591	-0,37
960,014	-0,38
960,436	-0,39
960,858	-0,38
961,281	-0,38
961,703	-0,4
962,125	-0,4
962,547	-0,38
962,969	-0,39
963,391	-0,4
963,814	-0,42
964,236	-0,41
964,658	-0,38
965,08	-0,38
965,502	-0,38
965,924	-0,35
966,346	-0,35
966,768	-0,34
967,189	-0,36
967,611	-0,36
968,033	-0,34
968,455	-0,32
968,877	-0,32
969,298	-0,34
969,72	-0,34
970,142	-0,32
970,563	-0,33
970,985	-0,32
971,407	-0,31
971,828	-0,3
972,25	-0,29
972,671	-0,27
973,093	-0,27
973,514	-0,26
973,936	-0,24
974,357	-0,23
974,778	-0,23
975,2	-0,23
975,621	-0,23
976,042	-0,21
976,464	-0,19
976,885	-0,19
977,306	-0,19
977,727	-0,18
978,148	-0,18
978,57	-0,17
978,991	-0,15
979,412	-0,15
979,833	-0,14
980,254	-0,13
980,675	-0,13
981,096	-0,13
981,517	-0,11
981,937	-0,11
982,358	-0,09
982,779	-0,08
983,2	-0,08
983,621	-0,08
984,042	-0,06
984,462	-0,05
984,883	-0,04
985,304	-0,03
985,724	-0,02
986,145	-0,01
986,565	0,01
986,986	0,01
987,407	0,02
987,827	0,03
988,248	0,05
988,668	0,06
989,088	0,07
989,509	0,07
989,929	0,08
990,35	0,09
990,77	0,1
991,19	0,11
991,61	0,12
992,031	0,12
992,451	0,13
992,871	0,14
993,291	0,14
993,711	0,15
994,131	0,15
994,551	0,16
994,971	0,16
995,391	0,17
995,811	0,17
996,231	0,17
996,651	0,18
997,071	0,18
997,491	0,19
997,911	0,19
998,331	0,2
998,75	0,2
999,17	0,2
999,59	0,21
1000,009	0,21
1000,429	0,21
1000,849	0,22
1001,268	0,22
1001,688	0,22
1002,107	0,22
1002,527	0,23
1002,946	0,23
1003,366	0,23
1003,785	0,23
1004,205	0,23
1004,624	0,24
1005,044	0,24
1005,463	0,24
1005,882	0,24
1006,301	0,24
1006,721	0,24
1007,14	0,24
1007,559	0,24
1007,978	0,24
1008,397	0,24
1008,816	0,24
1009,235	0,24
1009,655	0,24
1010,074	0,24
1010,492	0,24
1010,911	0,24
1011,33	0,24
1011,749	0,24
1012,168	0,24
1012,587	0,24
1013,006	0,23
1013,425	0,23
1013,843	0,23
1014,262	0,23
1014,681	0,23
1015,099	0,23
1015,518	0,23
1015,937	0,23
1016,355	0,23
1016,774	0,23
1017,192	0,23
1017,611	0,23
1018,029	0,23
1018,448	0,24
1018,866	0,24
1019,285	0,24
1019,703	0,24
1020,121	0,24
1020,54	0,24
1020,958	0,24
1021,376	0,24
1021,794	0,24
1022,213	0,24
1022,631	0,24
1023,049	0,24
1023,467	0,24
1023,885	0,24
1024,303	0,24
1024,721	0,23
1025,139	0,23
1025,557	0,23
1025,975	0,23
1026,393	0,23
1026,811	0,23
1027,229	0,23
1027,647	0,23
1028,065	0,23
1028,482	0,23
1028,9	0,23
1029,318	0,23
1029,735	0,23
1030,153	0,23
1030,571	0,23
1030,988	0,23
1031,406	0,23
1031,823	0,23
1032,241	0,23
1032,659	0,23
1033,076	0,23
1033,493	0,23
1033,911	0,23
1034,328	0,23
1034,746	0,23
1035,163	0,23
1035,58	0,23
1035,997	0,23
1036,415	0,23
1036,832	0,23
1037,249	0,23
1037,666	0,23
1038,083	0,23
1038,501	0,23
1038,918	0,23
1039,335	0,23
1039,752	0,23
1040,169	0,23
1040,586	0,22
1041,003	0,22
1041,419	0,22
1041,836	0,22
1042,253	0,22
1042,67	0,22
1043,087	0,22
1043,504	0,22
1043,92	0,22
1044,337	0,22
1044,754	0,22
1045,17	0,22
1045,587	0,22
1046,004	0,22
1046,42	0,21
1046,837	0,21
1047,253	0,21
1047,67	0,21
1048,086	0,21
1048,503	0,21
1048,919	0,21
1049,335	0,21
1049,752	0,21
1050,168	0,21
1050,584	0,21
1051,001	0,21
1051,417	0,21
1051,833	0,21
1052,249	0,21
1052,665	0,22
1053,081	0,22
1053,497	0,22
1053,914	0,22
1054,33	0,22
1054,746	0,22
1055,162	0,22
1055,578	0,22
1055,993	0,22
1056,409	0,22
1056,825	0,22
1057,241	0,22
1057,657	0,22
1058,073	0,22
1058,488	0,22
1058,904	0,22
1059,32	0,22
1059,736	0,22
1060,151	0,22
1060,567	0,22
1060,982	0,22
1061,398	0,22
1061,813	0,22
1062,229	0,22
1062,644	0,22
1063,06	0,22
1063,475	0,22
1063,891	0,22
1064,306	0,22
1064,721	0,22
1065,137	0,22
1065,552	0,22
1065,967	0,22
1066,382	0,22
1066,798	0,22
1067,213	0,22
1067,628	0,22
1068,043	0,22
1068,458	0,22
1068,873	0,22
1069,288	0,22
1069,703	0,22
1070,118	0,22
1070,533	0,22
1070,948	0,22
1071,363	0,22
1071,778	0,22
1072,193	0,23
1072,607	0,23
1073,022	0,23
1073,437	0,23
1073,852	0,23
1074,266	0,23
1074,681	0,23
1075,096	0,23
1075,51	0,23
1075,925	0,23
1076,339	0,23
1076,754	0,23
1077,168	0,23
1077,583	0,23
1077,997	0,23
1078,412	0,22
1078,826	0,22
1079,24	0,22
1079,655	0,22
1080,069	0,22
1080,483	0,22
1080,897	0,22
1081,312	0,22
1081,726	0,22
1082,14	0,22
1082,554	0,22
1082,968	0,22
1083,382	0,22
1083,796	0,22
1084,21	0,21
1084,624	0,21
1085,038	0,21
1085,452	0,21
1085,866	0,21
1086,28	0,21
1086,694	0,21
1087,108	0,21
1087,521	0,21
1087,935	0,2
1088,349	0,2
1088,763	0,2
1089,176	0,2
1089,59	0,2
1090,004	0,2
1090,417	0,19
1090,831	0,19
1091,244	0,19
1091,658	0,19
1092,071	0,19
1092,485	0,19
1092,898	0,19
1093,312	0,19
1093,725	0,19
1094,138	0,18
1094,552	0,18
1094,965	0,18
1095,378	0,18
1095,791	0,18
1096,205	0,18
1096,618	0,18
1097,031	0,17
1097,444	0,17
1097,857	0,17
1098,27	0,17
1098,683	0,17
1099,096	0,17
1099,509	0,16
1099,922	0,16
1100,335	0,16
1100,748	0,16
1101,161	0,15
1101,574	0,15
1101,986	0,15
1102,399	0,15
1102,812	0,14
1103,225	0,14
1103,637	0,14
1104,05	0,13
1104,463	0,13
1104,875	0,13
1105,288	0,13
1105,7	0,13
1106,113	0,12
1106,525	0,12
1106,938	0,11
1107,35	0,1
1107,763	0,1
1108,175	0,1
1108,588	0,09
1109	0,09
1109,412	0,08
1109,824	0,08
1110,237	0,08
1110,649	0,08
1111,061	0,07
