Data from 18C-808nm-8A_Absorbance__1356__01356.txt Node

Date: Mon Jul 17 17:12:53 CEST 2023
User: Laser008
Spectrometer: MAYP115816
Trigger mode: 0
Integration Time (sec): 2,500000E-1
Scans to average: 10
Electric dark correction enabled: true
Nonlinearity correction enabled: true
Boxcar width: 5
XAxis mode: Wavelengths
Number of Pixels in Spectrum: 2068
>>>>>Begin Spectral Data<<<<<
198,914	-0,72
199,384	-0,48
199,855	-0,37
200,325	-0,29
200,796	-0,26
201,266	-0,22
201,737	-0,2
202,207	-0,19
202,677	-0,18
203,147	-0,16
203,618	-0,12
204,088	-0,1
204,558	-0,1
205,028	-0,09
205,498	-0,09
205,968	-0,1
206,439	-0,11
206,909	-0,1
207,379	-0,11
207,849	-0,11
208,319	-0,12
208,789	-0,12
209,258	-0,12
209,728	-0,14
210,198	-0,13
210,668	-0,14
211,138	-0,13
211,608	-0,12
212,077	-0,13
212,547	-0,12
213,017	-0,12
213,486	-0,13
213,956	-0,14
214,426	-0,14
214,895	-0,13
215,365	-0,13
215,834	-0,13
216,304	-0,14
216,773	-0,15
217,243	-0,16
217,712	-0,18
218,181	-0,18
218,651	-0,17
219,12	-0,17
219,589	-0,17
220,058	-0,17
220,528	-0,18
220,997	-0,19
221,466	-0,2
221,935	-0,2
222,404	-0,2
222,873	-0,18
223,342	-0,18
223,812	-0,18
224,281	-0,18
224,749	-0,19
225,218	-0,21
225,687	-0,21
226,156	-0,21
226,625	-0,19
227,094	-0,19
227,563	-0,19
228,031	-0,2
228,5	-0,2
228,969	-0,21
229,438	-0,21
229,906	-0,19
230,375	-0,18
230,844	-0,17
231,312	-0,18
231,781	-0,19
232,249	-0,18
232,718	-0,18
233,186	-0,16
233,655	-0,17
234,123	-0,16
234,591	-0,17
235,06	-0,17
235,528	-0,17
235,996	-0,17
236,465	-0,17
236,933	-0,16
237,401	-0,16
237,869	-0,15
238,337	-0,15
238,805	-0,14
239,274	-0,14
239,742	-0,14
240,21	-0,13
240,678	-0,12
241,146	-0,11
241,614	-0,11
242,081	-0,11
242,549	-0,11
243,017	-0,12
243,485	-0,12
243,953	-0,12
244,421	-0,11
244,888	-0,11
245,356	-0,12
245,824	-0,12
246,291	-0,13
246,759	-0,14
247,227	-0,14
247,694	-0,13
248,162	-0,12
248,629	-0,12
249,097	-0,13
249,564	-0,13
250,032	-0,14
250,499	-0,14
250,967	-0,14
251,434	-0,15
251,901	-0,13
252,369	-0,14
252,836	-0,15
253,303	-0,17
253,77	-0,18
254,237	-0,17
254,705	-0,17
255,172	-0,16
255,639	-0,16
256,106	-0,18
256,573	-0,18
257,04	-0,18
257,507	-0,18
257,974	-0,18
258,441	-0,15
258,908	-0,16
259,375	-0,18
259,841	-0,18
260,308	-0,18
260,775	-0,18
261,242	-0,18
261,709	-0,18
262,175	-0,19
262,642	-0,19
263,109	-0,19
263,575	-0,21
264,042	-0,2
264,508	-0,19
264,975	-0,2
265,441	-0,22
265,908	-0,22
266,374	-0,2
266,841	-0,21
267,307	-0,21
267,773	-0,2
268,24	-0,2
268,706	-0,2
269,172	-0,2
269,639	-0,22
270,105	-0,2
270,571	-0,2
271,037	-0,2
271,503	-0,22
271,969	-0,21
272,435	-0,21
272,902	-0,22
273,368	-0,24
273,834	-0,24
274,3	-0,24
274,765	-0,24
275,231	-0,24
275,697	-0,23
276,163	-0,23
276,629	-0,22
277,095	-0,23
277,56	-0,22
278,026	-0,22
278,492	-0,2
278,958	-0,2
279,423	-0,2
279,889	-0,19
280,354	-0,2
280,82	-0,2
281,286	-0,22
281,751	-0,22
282,217	-0,21
282,682	-0,22
283,147	-0,22
283,613	-0,23
284,078	-0,22
284,544	-0,23
285,009	-0,24
285,474	-0,23
285,939	-0,24
286,405	-0,23
286,87	-0,23
287,335	-0,23
287,8	-0,22
288,265	-0,21
288,73	-0,22
289,195	-0,24
289,66	-0,23
290,125	-0,22
290,59	-0,22
291,055	-0,21
291,52	-0,22
291,985	-0,22
292,45	-0,24
292,915	-0,23
293,38	-0,23
293,844	-0,22
294,309	-0,21
294,774	-0,2
295,239	-0,21
295,703	-0,22
296,168	-0,21
296,632	-0,2
297,097	-0,18
297,562	-0,17
298,026	-0,17
298,491	-0,18
298,955	-0,18
299,419	-0,17
299,884	-0,17
300,348	-0,16
300,813	-0,15
301,277	-0,16
301,741	-0,17
302,205	-0,17
302,67	-0,16
303,134	-0,15
303,598	-0,15
304,062	-0,14
304,526	-0,14
304,99	-0,16
305,454	-0,15
305,919	-0,16
306,383	-0,15
306,847	-0,14
307,31	-0,15
307,774	-0,16
308,238	-0,16
308,702	-0,16
309,166	-0,18
309,63	-0,18
310,094	-0,15
310,557	-0,15
311,021	-0,15
311,485	-0,16
311,948	-0,15
312,412	-0,14
312,876	-0,13
313,339	-0,14
313,803	-0,14
314,266	-0,14
314,73	-0,13
315,193	-0,13
315,657	-0,12
316,12	-0,12
316,584	-0,11
317,047	-0,11
317,51	-0,1
317,973	-0,1
318,437	-0,09
318,9	-0,07
319,363	-0,07
319,826	-0,06
320,29	-0,06
320,753	-0,07
321,216	-0,06
321,679	-0,07
322,142	-0,06
322,605	-0,08
323,068	-0,07
323,531	-0,09
323,994	-0,08
324,457	-0,08
324,92	-0,07
325,382	-0,06
325,845	-0,06
326,308	-0,05
326,771	-0,05
327,233	-0,04
327,696	-0,03
328,159	-0,03
328,622	-0,01
329,084	-0,01
329,547	-0,01
330,009	-0,01
330,472	-0
330,934	0
331,397	0
331,859	0,01
332,322	0,01
332,784	0,02
333,246	0,02
333,709	0,02
334,171	0,03
334,633	0,03
335,096	0,02
335,558	0,02
336,02	0,01
336,482	0,02
336,944	0,02
337,406	0,03
337,868	0,03
338,331	0,02
338,793	0,04
339,255	0,04
339,717	0,04
340,178	0,05
340,64	0,06
341,102	0,07
341,564	0,08
342,026	0,1
342,488	0,11
342,949	0,12
343,411	0,15
343,873	0,17
344,335	0,19
344,796	0,22
345,258	0,25
345,719	0,27
346,181	0,31
346,643	0,33
347,104	0,35
347,566	0,38
348,027	0,39
348,488	0,41
348,95	0,42
349,411	0,43
349,873	0,44
350,334	0,46
350,795	0,47
351,256	0,47
351,718	0,48
352,179	0,48
352,64	0,48
353,101	0,48
353,562	0,49
354,023	0,49
354,484	0,49
354,945	0,49
355,406	0,49
355,867	0,49
356,328	0,49
356,789	0,49
357,25	0,49
357,711	0,5
358,172	0,5
358,633	0,5
359,093	0,5
359,554	0,5
360,015	0,5
360,476	0,5
360,936	0,5
361,397	0,5
361,858	0,5
362,318	0,5
362,779	0,51
363,239	0,51
363,7	0,51
364,16	0,51
364,621	0,51
365,081	0,51
365,541	0,51
366,002	0,5
366,462	0,5
366,922	0,5
367,383	0,5
367,843	0,5
368,303	0,5
368,763	0,5
369,223	0,5
369,684	0,5
370,144	0,5
370,604	0,5
371,064	0,5
371,524	0,5
371,984	0,5
372,444	0,5
372,904	0,5
373,363	0,5
373,823	0,5
374,283	0,5
374,743	0,5
375,203	0,5
375,663	0,5
376,122	0,5
376,582	0,5
377,042	0,5
377,501	0,5
377,961	0,5
378,42	0,5
378,88	0,5
379,34	0,5
379,799	0,5
380,259	0,5
380,718	0,5
381,177	0,5
381,637	0,5
382,096	0,5
382,555	0,49
383,015	0,49
383,474	0,49
383,933	0,49
384,393	0,49
384,852	0,49
385,311	0,49
385,77	0,49
386,229	0,49
386,688	0,49
387,147	0,49
387,606	0,49
388,065	0,49
388,524	0,49
388,983	0,49
389,442	0,49
389,901	0,49
390,36	0,49
390,819	0,49
391,277	0,49
391,736	0,49
392,195	0,49
392,654	0,49
393,112	0,49
393,571	0,49
394,03	0,49
394,488	0,49
394,947	0,49
395,405	0,49
395,864	0,49
396,322	0,49
396,781	0,49
397,239	0,49
397,698	0,49
398,156	0,49
398,614	0,49
399,073	0,48
399,531	0,48
399,989	0,48
400,447	0,48
400,905	0,48
401,364	0,48
401,822	0,48
402,28	0,48
402,738	0,48
403,196	0,48
403,654	0,48
404,112	0,48
404,57	0,48
405,028	0,48
405,486	0,48
405,944	0,48
406,402	0,48
406,859	0,48
407,317	0,48
407,775	0,48
408,233	0,48
408,691	0,48
409,148	0,48
409,606	0,48
410,064	0,48
410,521	0,48
410,979	0,48
411,436	0,48
411,894	0,48
412,351	0,48
412,809	0,48
413,266	0,48
413,724	0,48
414,181	0,48
414,638	0,47
415,096	0,47
415,553	0,47
416,01	0,47
416,467	0,47
416,925	0,47
417,382	0,47
417,839	0,47
418,296	0,47
418,753	0,47
419,21	0,47
419,667	0,47
420,124	0,47
420,581	0,47
421,038	0,47
421,495	0,47
421,952	0,47
422,409	0,47
422,866	0,47
423,322	0,47
423,779	0,47
424,236	0,47
424,693	0,47
425,149	0,47
425,606	0,47
426,063	0,47
426,519	0,47
426,976	0,47
427,433	0,47
427,889	0,47
428,346	0,47
428,802	0,47
429,258	0,47
429,715	0,47
430,171	0,47
430,628	0,47
431,084	0,47
431,54	0,47
431,997	0,47
432,453	0,47
432,909	0,47
433,365	0,47
433,821	0,47
434,277	0,47
434,734	0,47
435,19	0,47
435,646	0,47
436,102	0,47
436,558	0,47
437,014	0,47
437,47	0,47
437,925	0,47
438,381	0,47
438,837	0,47
439,293	0,47
439,749	0,47
440,205	0,47
440,66	0,47
441,116	0,47
441,572	0,47
442,027	0,47
442,483	0,47
442,939	0,47
443,394	0,47
443,85	0,47
444,305	0,47
444,761	0,47
445,216	0,47
445,672	0,47
446,127	0,47
446,582	0,47
447,038	0,47
447,493	0,47
447,948	0,47
448,403	0,47
448,859	0,47
449,314	0,47
449,769	0,47
450,224	0,47
450,679	0,47
451,134	0,47
451,589	0,47
452,044	0,47
452,499	0,47
452,954	0,47
453,409	0,47
453,864	0,47
454,319	0,47
454,774	0,47
455,229	0,47
455,684	0,47
456,138	0,47
456,593	0,47
457,048	0,47
457,503	0,47
457,957	0,47
458,412	0,47
458,866	0,47
459,321	0,47
459,776	0,47
460,23	0,47
460,685	0,47
461,139	0,47
461,593	0,47
462,048	0,47
462,502	0,47
462,957	0,48
463,411	0,48
463,865	0,48
464,319	0,48
464,774	0,48
465,228	0,48
465,682	0,48
466,136	0,48
466,59	0,48
467,044	0,48
467,499	0,48
467,953	0,48
468,407	0,48
468,861	0,48
469,315	0,48
469,768	0,48
470,222	0,48
470,676	0,48
471,13	0,48
471,584	0,49
472,038	0,49
472,491	0,49
472,945	0,49
473,399	0,49
473,852	0,49
474,306	0,49
474,76	0,49
475,213	0,49
475,667	0,49
476,12	0,49
476,574	0,49
477,027	0,49
477,481	0,49
477,934	0,5
478,388	0,5
478,841	0,5
479,294	0,5
479,748	0,5
480,201	0,5
480,654	0,5
481,107	0,5
481,561	0,51
482,014	0,51
482,467	0,51
482,92	0,51
483,373	0,51
483,826	0,51
484,279	0,51
484,732	0,51
485,185	0,52
485,638	0,52
486,091	0,52
486,544	0,52
486,997	0,52
487,449	0,52
487,902	0,52
488,355	0,53
488,808	0,53
489,26	0,53
489,713	0,53
490,166	0,53
490,618	0,53
491,071	0,54
491,523	0,54
491,976	0,54
492,429	0,54
492,881	0,55
493,333	0,55
493,786	0,55
494,238	0,55
494,691	0,55
495,143	0,56
495,595	0,56
496,048	0,56
496,5	0,56
496,952	0,57
497,404	0,57
497,856	0,57
498,309	0,57
498,761	0,58
499,213	0,58
499,665	0,58
500,117	0,59
500,569	0,59
501,021	0,59
501,473	0,59
501,925	0,6
502,377	0,6
502,828	0,6
503,28	0,61
503,732	0,61
504,184	0,61
504,636	0,62
505,087	0,62
505,539	0,62
505,991	0,62
506,442	0,63
506,894	0,63
507,345	0,63
507,797	0,63
508,249	0,64
508,7	0,64
509,151	0,64
509,603	0,65
510,054	0,65
510,506	0,65
510,957	0,66
511,408	0,66
511,86	0,66
512,311	0,66
512,762	0,67
513,213	0,67
513,665	0,67
514,116	0,67
514,567	0,68
515,018	0,68
515,469	0,68
515,92	0,68
516,371	0,69
516,822	0,69
517,273	0,69
517,724	0,69
518,175	0,69
518,626	0,7
519,076	0,7
519,527	0,7
519,978	0,7
520,429	0,7
520,88	0,7
521,33	0,71
521,781	0,71
522,232	0,71
522,682	0,71
523,133	0,71
523,583	0,71
524,034	0,71
524,484	0,72
524,935	0,72
525,385	0,72
525,836	0,72
526,286	0,72
526,736	0,72
527,187	0,72
527,637	0,72
528,087	0,72
528,538	0,72
528,988	0,72
529,438	0,72
529,888	0,71
530,338	0,71
530,788	0,71
531,238	0,71
531,688	0,71
532,139	0,71
532,589	0,71
533,038	0,71
533,488	0,71
533,938	0,71
534,388	0,71
534,838	0,7
535,288	0,7
535,738	0,7
536,187	0,7
536,637	0,7
537,087	0,69
537,537	0,69
537,986	0,69
538,436	0,69
538,885	0,68
539,335	0,68
539,785	0,68
540,234	0,67
540,684	0,67
541,133	0,67
541,582	0,67
542,032	0,66
542,481	0,66
542,931	0,66
543,38	0,65
543,829	0,65
544,278	0,65
544,728	0,64
545,177	0,64
545,626	0,64
546,075	0,63
546,524	0,63
546,973	0,63
547,422	0,62
547,871	0,62
548,32	0,62
548,769	0,62
549,218	0,62
549,667	0,61
550,116	0,61
550,565	0,61
551,014	0,61
551,463	0,6
551,911	0,6
552,36	0,6
552,809	0,6
553,258	0,59
553,706	0,59
554,155	0,59
554,603	0,58
555,052	0,58
555,501	0,58
555,949	0,57
556,398	0,57
556,846	0,57
557,294	0,57
557,743	0,56
558,191	0,56
558,64	0,56
559,088	0,55
559,536	0,55
559,985	0,55
560,433	0,54
560,881	0,54
561,329	0,54
561,777	0,53
562,225	0,53
562,674	0,53
563,122	0,53
563,57	0,52
564,018	0,52
564,466	0,52
564,914	0,52
565,362	0,51
565,809	0,51
566,257	0,51
566,705	0,5
567,153	0,5
567,601	0,5
568,048	0,5
568,496	0,49
568,944	0,49
569,392	0,49
569,839	0,49
570,287	0,48
570,734	0,48
571,182	0,48
571,63	0,48
572,077	0,47
572,525	0,47
572,972	0,47
573,419	0,47
573,867	0,46
574,314	0,46
574,761	0,46
575,209	0,46
575,656	0,45
576,103	0,45
576,551	0,45
576,998	0,45
577,445	0,45
577,892	0,45
578,339	0,45
578,786	0,44
579,233	0,44
579,68	0,44
580,127	0,44
580,574	0,44
581,021	0,43
581,468	0,43
581,915	0,43
582,362	0,43
582,809	0,43
583,255	0,43
583,702	0,42
584,149	0,42
584,596	0,42
585,042	0,42
585,489	0,42
585,936	0,41
586,382	0,41
586,829	0,41
587,275	0,41
587,722	0,41
588,168	0,41
588,615	0,41
589,061	0,41
589,508	0,41
589,954	0,4
590,4	0,4
590,847	0,4
591,293	0,4
591,739	0,4
592,185	0,4
592,632	0,4
593,078	0,4
593,524	0,4
593,97	0,39
594,416	0,39
594,862	0,39
595,308	0,39
595,754	0,39
596,2	0,39
596,646	0,39
597,092	0,39
597,538	0,38
597,984	0,38
598,43	0,38
598,876	0,38
599,321	0,38
599,767	0,38
600,213	0,38
600,659	0,38
601,104	0,38
601,55	0,38
601,995	0,38
602,441	0,37
602,887	0,37
603,332	0,37
603,778	0,37
604,223	0,37
604,668	0,37
605,114	0,37
605,559	0,37
606,005	0,37
606,45	0,37
606,895	0,37
607,341	0,37
607,786	0,37
608,231	0,37
608,676	0,36
609,121	0,36
609,566	0,36
610,012	0,35
610,457	0,35
610,902	0,35
611,347	0,35
611,792	0,34
612,237	0,34
612,682	0,34
613,127	0,34
613,571	0,34
614,016	0,34
614,461	0,35
614,906	0,35
615,351	0,35
615,795	0,35
616,24	0,35
616,685	0,35
617,129	0,35
617,574	0,35
618,019	0,35
618,463	0,35
618,908	0,35
619,352	0,35
619,797	0,35
620,241	0,35
620,686	0,35
621,13	0,35
621,574	0,35
622,019	0,34
622,463	0,34
622,907	0,34
623,352	0,34
623,796	0,34
624,24	0,34
624,684	0,34
625,128	0,34
625,572	0,34
626,016	0,34
626,461	0,34
626,905	0,34
627,349	0,34
627,793	0,34
628,236	0,34
628,68	0,34
629,124	0,34
629,568	0,34
630,012	0,34
630,456	0,34
630,9	0,34
631,343	0,34
631,787	0,34
632,231	0,33
632,674	0,33
633,118	0,33
633,562	0,33
634,005	0,33
634,449	0,33
634,892	0,33
635,336	0,33
635,779	0,33
636,223	0,33
636,666	0,33
637,109	0,33
637,553	0,33
637,996	0,33
638,439	0,33
638,883	0,33
639,326	0,33
639,769	0,33
640,212	0,33
640,655	0,33
641,099	0,33
641,542	0,33
641,985	0,33
642,428	0,33
642,871	0,33
643,314	0,33
643,757	0,33
644,2	0,33
644,643	0,33
645,085	0,33
645,528	0,33
645,971	0,32
646,414	0,32
646,857	0,32
647,299	0,32
647,742	0,32
648,185	0,32
648,627	0,32
649,07	0,32
649,513	0,32
649,955	0,32
650,398	0,32
650,84	0,32
651,283	0,32
651,725	0,32
652,168	0,32
652,61	0,32
653,052	0,32
653,495	0,32
653,937	0,25
654,379	0,2
654,821	0,2
655,264	0,2
655,706	0,2
656,148	0,2
656,59	0,2
657,032	0,2
657,474	0,2
657,916	0,2
658,358	0,2
658,8	0,25
659,242	0,32
659,684	0,32
660,126	0,32
660,568	0,32
661,01	0,32
661,452	0,32
661,894	0,32
662,335	0,32
662,777	0,32
663,219	0,31
663,661	0,31
664,102	0,31
664,544	0,31
664,985	0,31
665,427	0,31
665,869	0,31
666,31	0,31
666,752	0,31
667,193	0,31
667,634	0,31
668,076	0,31
668,517	0,31
668,959	0,31
669,4	0,31
669,841	0,31
670,282	0,31
670,724	0,31
671,165	0,31
671,606	0,31
672,047	0,31
672,488	0,31
672,929	0,31
673,37	0,31
673,811	0,31
674,252	0,31
674,693	0,31
675,134	0,31
675,575	0,31
676,016	0,31
676,457	0,31
676,898	0,31
677,339	0,31
677,78	0,31
678,22	0,31
678,661	0,31
679,102	0,31
679,542	0,31
679,983	0,31
680,424	0,31
680,864	0,31
681,305	0,31
681,745	0,31
682,186	0,31
682,626	0,31
683,067	0,31
683,507	0,31
683,948	0,31
684,388	0,31
684,828	0,31
685,269	0,3
685,709	0,3
686,149	0,3
686,589	0,3
687,029	0,3
687,47	0,3
687,91	0,3
688,35	0,3
688,79	0,3
689,23	0,3
689,67	0,3
690,11	0,3
690,55	0,3
690,99	0,3
691,43	0,3
691,87	0,3
692,31	0,3
692,749	0,29
693,189	0,29
693,629	0,29
694,069	0,29
694,508	0,29
694,948	0,29
695,388	0,29
695,827	0,29
696,267	0,29
696,706	0,3
697,146	0,3
697,586	0,3
698,025	0,3
698,464	0,3
698,904	0,3
699,343	0,3
699,783	0,3
700,222	0,3
700,661	0,3
701,101	0,3
701,54	0,3
701,979	0,3
702,418	0,3
702,857	0,3
703,297	0,3
703,736	0,3
704,175	0,3
704,614	0,3
705,053	0,3
705,492	0,29
705,931	0,29
706,37	0,29
706,809	0,29
707,248	0,29
707,687	0,29
708,125	0,29
708,564	0,29
709,003	0,29
709,442	0,29
709,88	0,29
710,319	0,29
710,758	0,29
711,196	0,29
711,635	0,29
712,074	0,29
712,512	0,29
712,951	0,29
713,389	0,29
713,828	0,29
714,266	0,29
714,705	0,28
715,143	0,28
715,581	0,28
716,02	0,28
716,458	0,28
716,896	0,28
717,334	0,28
717,773	0,28
718,211	0,28
718,649	0,28
719,087	0,28
719,525	0,28
719,963	0,28
720,401	0,28
720,839	0,28
721,277	0,28
721,715	0,28
722,153	0,28
722,591	0,28
723,029	0,28
723,467	0,28
723,905	0,28
724,342	0,28
724,78	0,28
725,218	0,28
725,656	0,28
726,093	0,28
726,531	0,28
726,969	0,28
727,406	0,28
727,844	0,28
728,281	0,28
728,719	0,28
729,156	0,28
729,594	0,28
730,031	0,28
730,469	0,28
730,906	0,28
731,343	0,28
731,781	0,28
732,218	0,28
732,655	0,28
733,092	0,28
733,53	0,28
733,967	0,28
734,404	0,28
734,841	0,28
735,278	0,28
735,715	0,28
736,152	0,28
736,589	0,28
737,026	0,27
737,463	0,27
737,9	0,27
738,337	0,27
738,774	0,27
739,211	0,27
739,647	0,27
740,084	0,27
740,521	0,27
740,958	0,27
741,394	0,27
741,831	0,27
742,268	0,27
742,704	0,27
743,141	0,27
743,577	0,26
744,014	0,26
744,45	0,26
744,887	0,26
745,323	0,26
745,76	0,26
746,196	0,26
746,632	0,26
747,069	0,26
747,505	0,26
747,941	0,26
748,378	0,26
748,814	0,26
749,25	0,26
749,686	0,26
750,122	0,26
750,558	0,26
750,994	0,27
751,43	0,27
751,866	0,27
752,302	0,27
752,738	0,27
753,174	0,27
753,61	0,27
754,046	0,27
754,482	0,27
754,918	0,27
755,354	0,28
755,789	0,28
756,225	0,28
756,661	0,27
757,096	0,27
757,532	0,27
757,968	0,27
758,403	0,27
758,839	0,27
759,274	0,27
759,71	0,26
760,145	0,26
760,581	0,25
761,016	0,25
761,452	0,25
761,887	0,25
762,322	0,24
762,758	0,24
763,193	0,24
763,628	0,23
764,063	0,23
764,499	0,22
764,934	0,22
765,369	0,22
765,804	0,21
766,239	0,21
766,674	0,2
767,109	0,19
767,544	0,19
767,979	0,18
768,414	0,17
768,849	0,17
769,284	0,16
769,719	0,16
770,154	0,15
770,588	0,15
771,023	0,14
771,458	0,13
771,893	0,12
772,327	0,11
772,762	0,1
773,197	0,1
773,631	0,09
774,066	0,08
774,5	0,07
774,935	0,06
775,369	0,06
775,804	0,05
776,238	0,04
776,673	0,03
777,107	0,02
777,541	0,02
777,976	0,01
778,41	0,01
778,844	-0
779,279	-0,01
779,713	-0,02
780,147	-0,02
780,581	-0,03
781,015	-0,04
781,449	-0,04
781,883	-0,05
782,317	-0,07
782,751	-0,07
783,185	-0,08
783,619	-0,09
784,053	-0,1
784,487	-0,11
784,921	-0,11
785,355	-0,12
785,789	-0,13
786,223	-0,14
786,656	-0,15
787,09	-0,15
787,524	-0,16
787,957	-0,18
788,391	-0,19
788,825	-0,21
789,258	-0,22
789,692	-0,23
790,125	-0,24
790,559	-0,26
790,992	-0,27
791,426	-0,3
791,859	-0,3
792,293	-0,33
792,726	-0,35
793,159	-0,36
793,593	-0,38
794,026	-0,4
794,459	-0,43
794,892	-0,45
795,326	-0,48
795,759	-0,52
796,192	-0,56
796,625	-0,6
797,058	-0,63
797,491	-0,67
797,924	-0,71
798,357	-0,76
798,79	-0,8
799,223	-0,84
799,656	-0,9
800,089	-0,95
800,522	-0,99
800,955	-1,03
801,387	-1,09
801,82	-1,14
802,253	-1,2
802,686	-1,28
803,118	-1,34
803,551	-1,39
803,984	-1,43
804,416	-1,47
804,849	-1,5
805,281	-1,61
805,714	-1,95
806,146	-2,42
806,579	-2,69
807,011	-2,86
807,444	-2,95
807,876	-3,05
808,308	-3,09
808,741	-3,12
809,173	-3,17
809,605	-3,19
810,037	-3,27
810,47	-3,19
810,902	-3
811,334	-2,86
811,766	-2,71
812,198	-2,49
812,63	-2,06
813,062	-1,81
813,494	-1,7
813,926	-1,61
814,358	-1,56
814,79	-1,47
815,222	-1,41
815,654	-1,36
816,086	-1,3
816,518	-1,24
816,949	-1,19
817,381	-1,15
817,813	-1,13
818,245	-1,09
818,676	-1,05
819,108	-1,02
819,54	-1
819,971	-0,98
820,403	-0,93
820,834	-0,91
821,266	-0,87
821,697	-0,85
822,129	-0,83
822,56	-0,81
822,991	-0,79
823,423	-0,76
823,854	-0,75
824,286	-0,72
824,717	-0,71
825,148	-0,69
825,579	-0,68
826,01	-0,67
826,442	-0,66
826,873	-0,64
827,304	-0,6
827,735	-0,6
828,166	-0,6
828,597	-0,6
829,028	-0,59
829,459	-0,59
829,89	-0,59
830,321	-0,55
830,752	-0,55
831,183	-0,54
831,613	-0,54
832,044	-0,54
832,475	-0,52
832,906	-0,54
833,336	-0,54
833,767	-0,56
834,198	-0,55
834,628	-0,53
835,059	-0,56
835,49	-0,57
835,92	-0,53
836,351	-0,54
836,781	-0,53
837,212	-0,55
837,642	-0,56
838,072	-0,54
838,503	-0,54
838,933	-0,52
839,364	-0,53
839,794	-0,51
840,224	-0,5
840,654	-0,55
841,085	-0,56
841,515	-0,53
841,945	-0,53
842,375	-0,48
842,805	-0,47
843,235	-0,45
843,665	-0,46
844,095	-0,45
844,525	-0,46
844,955	-0,46
845,385	-0,44
845,815	-0,42
846,245	-0,44
846,675	-0,46
847,105	-0,48
847,534	-0,48
847,964	-0,47
848,394	-0,46
848,824	-0,49
849,253	-0,49
849,683	-0,49
850,112	-0,5
850,542	-0,53
850,972	-0,54
851,401	-0,52
851,831	-0,5
852,26	-0,5
852,69	-0,54
853,119	-0,53
853,548	-0,52
853,978	-0,53
854,407	-0,51
854,836	-0,51
855,266	-0,5
855,695	-0,52
856,124	-0,53
856,553	-0,54
856,983	-0,56
857,412	-0,55
857,841	-0,57
858,27	-0,57
858,699	-0,57
859,128	-0,6
859,557	-0,61
859,986	-0,62
860,415	-0,59
860,844	-0,56
861,273	-0,56
861,702	-0,57
862,13	-0,54
862,559	-0,56
862,988	-0,53
863,417	-0,52
863,845	-0,52
864,274	-0,53
864,703	-0,52
865,131	-0,53
865,56	-0,53
865,989	-0,56
866,417	-0,54
866,846	-0,55
867,274	-0,55
867,703	-0,58
868,131	-0,58
868,559	-0,57
868,988	-0,6
869,416	-0,59
869,844	-0,6
870,273	-0,63
870,701	-0,61
871,129	-0,64
871,557	-0,66
871,986	-0,65
872,414	-0,66
872,842	-0,63
873,27	-0,62
873,698	-0,59
874,126	-0,63
874,554	-0,62
874,982	-0,62
875,41	-0,65
875,838	-0,59
876,266	-0,57
876,694	-0,58
877,122	-0,57
877,549	-0,63
877,977	-0,6
878,405	-0,62
878,833	-0,59
879,26	-0,58
879,688	-0,57
880,116	-0,55
880,543	-0,54
880,971	-0,54
881,399	-0,57
881,826	-0,57
882,254	-0,55
882,681	-0,58
883,109	-0,54
883,536	-0,55
883,963	-0,56
884,391	-0,54
884,818	-0,53
885,245	-0,57
885,673	-0,58
886,1	-0,55
886,527	-0,54
886,954	-0,52
887,381	-0,54
887,809	-0,55
888,236	-0,57
888,663	-0,58
889,09	-0,62
889,517	-0,65
889,944	-0,63
890,371	-0,62
890,798	-0,63
891,225	-0,63
891,652	-0,65
892,078	-0,62
892,505	-0,64
892,932	-0,6
893,359	-0,6
893,786	-0,61
894,212	-0,57
894,639	-0,59
895,066	-0,62
895,492	-0,56
895,919	-0,57
896,346	-0,57
896,772	-0,57
897,199	-0,53
897,625	-0,55
898,052	-0,52
898,478	-0,5
898,904	-0,52
899,331	-0,52
899,757	-0,54
900,183	-0,56
900,61	-0,54
901,036	-0,54
901,462	-0,54
901,888	-0,54
902,315	-0,53
902,741	-0,58
903,167	-0,56
903,593	-0,58
904,019	-0,56
904,445	-0,53
904,871	-0,56
905,297	-0,58
905,723	-0,58
906,149	-0,57
906,575	-0,57
907,001	-0,58
907,427	-0,55
907,852	-0,54
908,278	-0,55
908,704	-0,52
909,13	-0,52
909,555	-0,51
909,981	-0,5
910,407	-0,51
910,832	-0,51
911,258	-0,51
911,684	-0,51
912,109	-0,51
912,535	-0,53
912,96	-0,49
913,386	-0,53
913,811	-0,52
914,236	-0,54
914,662	-0,5
915,087	-0,53
915,512	-0,53
915,938	-0,54
916,363	-0,54
916,788	-0,55
917,213	-0,54
917,639	-0,59
918,064	-0,56
918,489	-0,57
918,914	-0,57
919,339	-0,59
919,764	-0,57
920,189	-0,57
920,614	-0,6
921,039	-0,61
921,464	-0,57
921,889	-0,6
922,314	-0,61
922,738	-0,64
923,163	-0,66
923,588	-0,66
924,013	-0,65
924,437	-0,64
924,862	-0,65
925,287	-0,61
925,711	-0,61
926,136	-0,62
926,561	-0,6
926,985	-0,58
927,41	-0,54
927,834	-0,52
928,259	-0,49
928,683	-0,48
929,108	-0,45
929,532	-0,47
929,956	-0,46
930,381	-0,45
930,805	-0,45
931,229	-0,44
931,653	-0,44
932,078	-0,44
932,502	-0,45
932,926	-0,46
933,35	-0,46
933,774	-0,45
934,198	-0,43
934,622	-0,43
935,046	-0,44
935,47	-0,44
935,894	-0,44
936,318	-0,43
936,742	-0,44
937,166	-0,44
937,59	-0,44
938,014	-0,46
938,437	-0,47
938,861	-0,49
939,285	-0,5
939,709	-0,48
940,132	-0,48
940,556	-0,49
940,98	-0,48
941,403	-0,46
941,827	-0,47
942,25	-0,48
942,674	-0,46
943,097	-0,45
943,521	-0,45
943,944	-0,46
944,368	-0,46
944,791	-0,45
945,214	-0,47
945,638	-0,48
946,061	-0,52
946,484	-0,52
946,907	-0,51
947,331	-0,52
947,754	-0,56
948,177	-0,53
948,6	-0,53
949,023	-0,52
949,446	-0,53
949,869	-0,51
950,292	-0,51
950,715	-0,48
951,138	-0,46
951,561	-0,44
951,984	-0,45
952,407	-0,44
952,83	-0,44
953,252	-0,4
953,675	-0,4
954,098	-0,4
954,521	-0,38
954,943	-0,38
955,366	-0,38
955,789	-0,36
956,211	-0,37
956,634	-0,38
957,056	-0,36
957,479	-0,36
957,902	-0,38
958,324	-0,38
958,746	-0,36
959,169	-0,38
959,591	-0,37
960,014	-0,38
960,436	-0,39
960,858	-0,38
961,281	-0,38
961,703	-0,38
962,125	-0,38
962,547	-0,36
962,969	-0,37
963,391	-0,38
963,814	-0,39
964,236	-0,38
964,658	-0,35
965,08	-0,35
965,502	-0,34
965,924	-0,32
966,346	-0,32
966,768	-0,31
967,189	-0,33
967,611	-0,33
968,033	-0,32
968,455	-0,3
968,877	-0,32
969,298	-0,33
969,72	-0,34
970,142	-0,33
970,563	-0,33
970,985	-0,32
971,407	-0,32
971,828	-0,3
972,25	-0,29
972,671	-0,27
973,093	-0,27
973,514	-0,26
973,936	-0,24
974,357	-0,23
974,778	-0,23
975,2	-0,23
975,621	-0,23
976,042	-0,21
976,464	-0,21
976,885	-0,2
977,306	-0,2
977,727	-0,2
978,148	-0,19
978,57	-0,17
978,991	-0,16
979,412	-0,14
979,833	-0,14
980,254	-0,13
980,675	-0,13
981,096	-0,12
981,517	-0,12
981,937	-0,11
982,358	-0,09
982,779	-0,08
983,2	-0,09
983,621	-0,09
984,042	-0,07
984,462	-0,06
984,883	-0,05
985,304	-0,03
985,724	-0,02
986,145	-0,01
986,565	0,01
986,986	0,01
987,407	0,01
987,827	0,03
988,248	0,04
988,668	0,05
989,088	0,06
989,509	0,06
989,929	0,07
990,35	0,08
990,77	0,09
991,19	0,1
991,61	0,11
992,031	0,11
992,451	0,12
992,871	0,13
993,291	0,13
993,711	0,14
994,131	0,14
994,551	0,15
994,971	0,15
995,391	0,16
995,811	0,17
996,231	0,17
996,651	0,17
997,071	0,18
997,491	0,18
997,911	0,19
998,331	0,19
998,75	0,2
999,17	0,2
999,59	0,2
1000,009	0,2
1000,429	0,21
1000,849	0,21
1001,268	0,21
1001,688	0,22
1002,107	0,22
1002,527	0,22
1002,946	0,22
1003,366	0,22
1003,785	0,23
1004,205	0,23
1004,624	0,23
1005,044	0,23
1005,463	0,23
1005,882	0,23
1006,301	0,23
1006,721	0,23
1007,14	0,23
1007,559	0,23
1007,978	0,23
1008,397	0,23
1008,816	0,23
1009,235	0,23
1009,655	0,23
1010,074	0,23
1010,492	0,23
1010,911	0,23
1011,33	0,23
1011,749	0,23
1012,168	0,23
1012,587	0,22
1013,006	0,22
1013,425	0,22
1013,843	0,22
1014,262	0,22
1014,681	0,22
1015,099	0,22
1015,518	0,22
1015,937	0,22
1016,355	0,22
1016,774	0,22
1017,192	0,22
1017,611	0,22
1018,029	0,22
1018,448	0,22
1018,866	0,22
1019,285	0,23
1019,703	0,23
1020,121	0,23
1020,54	0,23
1020,958	0,23
1021,376	0,23
1021,794	0,23
1022,213	0,23
1022,631	0,23
1023,049	0,23
1023,467	0,23
1023,885	0,23
1024,303	0,23
1024,721	0,23
1025,139	0,23
1025,557	0,22
1025,975	0,22
1026,393	0,22
1026,811	0,22
1027,229	0,22
1027,647	0,22
1028,065	0,22
1028,482	0,22
1028,9	0,22
1029,318	0,22
1029,735	0,22
1030,153	0,22
1030,571	0,22
1030,988	0,22
1031,406	0,22
1031,823	0,22
1032,241	0,22
1032,659	0,22
1033,076	0,22
1033,493	0,22
1033,911	0,22
1034,328	0,22
1034,746	0,22
1035,163	0,22
1035,58	0,22
1035,997	0,22
1036,415	0,22
1036,832	0,22
1037,249	0,22
1037,666	0,22
1038,083	0,22
1038,501	0,22
1038,918	0,22
1039,335	0,22
1039,752	0,22
1040,169	0,22
1040,586	0,22
1041,003	0,22
1041,419	0,22
1041,836	0,21
1042,253	0,22
1042,67	0,21
1043,087	0,21
1043,504	0,21
1043,92	0,21
1044,337	0,21
1044,754	0,21
1045,17	0,21
1045,587	0,21
1046,004	0,21
1046,42	0,21
1046,837	0,21
1047,253	0,21
1047,67	0,21
1048,086	0,2
1048,503	0,21
1048,919	0,21
1049,335	0,21
1049,752	0,21
1050,168	0,21
1050,584	0,21
1051,001	0,21
1051,417	0,21
1051,833	0,21
1052,249	0,21
1052,665	0,21
1053,081	0,21
1053,497	0,21
1053,914	0,21
1054,33	0,21
1054,746	0,21
1055,162	0,21
1055,578	0,21
1055,993	0,21
1056,409	0,21
1056,825	0,21
1057,241	0,21
1057,657	0,21
1058,073	0,21
1058,488	0,21
1058,904	0,21
1059,32	0,21
1059,736	0,21
1060,151	0,21
1060,567	0,21
1060,982	0,22
1061,398	0,22
1061,813	0,22
1062,229	0,21
1062,644	0,21
1063,06	0,21
1063,475	0,21
1063,891	0,21
1064,306	0,21
1064,721	0,21
1065,137	0,21
1065,552	0,21
1065,967	0,21
1066,382	0,21
1066,798	0,21
1067,213	0,21
1067,628	0,21
1068,043	0,21
1068,458	0,21
1068,873	0,21
1069,288	0,21
1069,703	0,21
1070,118	0,21
1070,533	0,21
1070,948	0,22
1071,363	0,22
1071,778	0,22
1072,193	0,22
1072,607	0,22
1073,022	0,22
1073,437	0,22
1073,852	0,22
1074,266	0,22
1074,681	0,22
1075,096	0,22
1075,51	0,22
1075,925	0,22
1076,339	0,22
1076,754	0,22
1077,168	0,22
1077,583	0,22
1077,997	0,22
1078,412	0,22
1078,826	0,21
1079,24	0,21
1079,655	0,21
1080,069	0,21
1080,483	0,21
1080,897	0,21
1081,312	0,21
1081,726	0,21
1082,14	0,21
1082,554	0,21
1082,968	0,21
1083,382	0,21
1083,796	0,21
1084,21	0,21
1084,624	0,21
1085,038	0,2
1085,452	0,2
1085,866	0,2
1086,28	0,2
1086,694	0,2
1087,108	0,2
1087,521	0,2
1087,935	0,2
1088,349	0,2
1088,763	0,2
1089,176	0,19
1089,59	0,19
1090,004	0,19
1090,417	0,19
1090,831	0,19
1091,244	0,19
1091,658	0,18
1092,071	0,18
1092,485	0,18
1092,898	0,18
1093,312	0,18
1093,725	0,17
1094,138	0,17
1094,552	0,17
1094,965	0,17
1095,378	0,17
1095,791	0,17
1096,205	0,17
1096,618	0,17
1097,031	0,17
1097,444	0,17
1097,857	0,16
1098,27	0,16
1098,683	0,16
1099,096	0,16
1099,509	0,16
1099,922	0,16
1100,335	0,15
1100,748	0,15
1101,161	0,15
1101,574	0,14
1101,986	0,14
1102,399	0,14
1102,812	0,14
1103,225	0,13
1103,637	0,13
1104,05	0,13
1104,463	0,13
1104,875	0,12
1105,288	0,12
1105,7	0,12
1106,113	0,12
1106,525	0,12
1106,938	0,11
1107,35	0,11
1107,763	0,11
1108,175	0,11
1108,588	0,1
1109	0,1
1109,412	0,09
1109,824	0,09
1110,237	0,1
1110,649	0,1
1111,061	0,09
