Data from 18C-808nm-8A_Absorbance__1332__01332.txt Node

Date: Mon Jul 17 17:11:53 CEST 2023
User: Laser008
Spectrometer: MAYP115816
Trigger mode: 0
Integration Time (sec): 2,500000E-1
Scans to average: 10
Electric dark correction enabled: true
Nonlinearity correction enabled: true
Boxcar width: 5
XAxis mode: Wavelengths
Number of Pixels in Spectrum: 2068
>>>>>Begin Spectral Data<<<<<
198,914	-0,76
199,384	-0,52
199,855	-0,38
200,325	-0,31
200,796	-0,28
201,266	-0,24
201,737	-0,23
202,207	-0,21
202,677	-0,2
203,147	-0,19
203,618	-0,15
204,088	-0,14
204,558	-0,13
205,028	-0,13
205,498	-0,14
205,968	-0,14
206,439	-0,14
206,909	-0,14
207,379	-0,15
207,849	-0,14
208,319	-0,15
208,789	-0,16
209,258	-0,15
209,728	-0,16
210,198	-0,15
210,668	-0,15
211,138	-0,14
211,608	-0,14
212,077	-0,13
212,547	-0,13
213,017	-0,14
213,486	-0,14
213,956	-0,14
214,426	-0,15
214,895	-0,14
215,365	-0,15
215,834	-0,16
216,304	-0,17
216,773	-0,18
217,243	-0,19
217,712	-0,21
218,181	-0,2
218,651	-0,2
219,12	-0,2
219,589	-0,2
220,058	-0,19
220,528	-0,2
220,997	-0,21
221,466	-0,21
221,935	-0,21
222,404	-0,21
222,873	-0,2
223,342	-0,2
223,812	-0,2
224,281	-0,21
224,749	-0,21
225,218	-0,23
225,687	-0,23
226,156	-0,22
226,625	-0,2
227,094	-0,2
227,563	-0,2
228,031	-0,21
228,5	-0,21
228,969	-0,22
229,438	-0,21
229,906	-0,2
230,375	-0,18
230,844	-0,18
231,312	-0,18
231,781	-0,19
232,249	-0,18
232,718	-0,18
233,186	-0,16
233,655	-0,17
234,123	-0,16
234,591	-0,16
235,06	-0,16
235,528	-0,17
235,996	-0,17
236,465	-0,17
236,933	-0,16
237,401	-0,16
237,869	-0,15
238,337	-0,16
238,805	-0,15
239,274	-0,15
239,742	-0,14
240,21	-0,15
240,678	-0,14
241,146	-0,13
241,614	-0,13
242,081	-0,14
242,549	-0,13
243,017	-0,14
243,485	-0,14
243,953	-0,14
244,421	-0,14
244,888	-0,14
245,356	-0,15
245,824	-0,14
246,291	-0,15
246,759	-0,16
247,227	-0,16
247,694	-0,15
248,162	-0,15
248,629	-0,14
249,097	-0,15
249,564	-0,16
250,032	-0,16
250,499	-0,15
250,967	-0,16
251,434	-0,16
251,901	-0,15
252,369	-0,15
252,836	-0,17
253,303	-0,19
253,77	-0,2
254,237	-0,19
254,705	-0,19
255,172	-0,18
255,639	-0,18
256,106	-0,2
256,573	-0,2
257,04	-0,2
257,507	-0,2
257,974	-0,2
258,441	-0,18
258,908	-0,18
259,375	-0,19
259,841	-0,2
260,308	-0,21
260,775	-0,21
261,242	-0,2
261,709	-0,2
262,175	-0,21
262,642	-0,2
263,109	-0,2
263,575	-0,21
264,042	-0,2
264,508	-0,2
264,975	-0,22
265,441	-0,22
265,908	-0,23
266,374	-0,22
266,841	-0,23
267,307	-0,22
267,773	-0,22
268,24	-0,22
268,706	-0,22
269,172	-0,23
269,639	-0,24
270,105	-0,21
270,571	-0,21
271,037	-0,21
271,503	-0,23
271,969	-0,22
272,435	-0,23
272,902	-0,24
273,368	-0,25
273,834	-0,25
274,3	-0,26
274,765	-0,25
275,231	-0,26
275,697	-0,25
276,163	-0,24
276,629	-0,23
277,095	-0,24
277,56	-0,23
278,026	-0,23
278,492	-0,22
278,958	-0,22
279,423	-0,21
279,889	-0,21
280,354	-0,22
280,82	-0,22
281,286	-0,23
281,751	-0,23
282,217	-0,22
282,682	-0,22
283,147	-0,23
283,613	-0,23
284,078	-0,24
284,544	-0,25
285,009	-0,26
285,474	-0,25
285,939	-0,26
286,405	-0,25
286,87	-0,26
287,335	-0,26
287,8	-0,25
288,265	-0,23
288,73	-0,24
289,195	-0,26
289,66	-0,26
290,125	-0,24
290,59	-0,24
291,055	-0,24
291,52	-0,24
291,985	-0,24
292,45	-0,25
292,915	-0,25
293,38	-0,25
293,844	-0,24
294,309	-0,22
294,774	-0,21
295,239	-0,22
295,703	-0,22
296,168	-0,21
296,632	-0,2
297,097	-0,18
297,562	-0,17
298,026	-0,17
298,491	-0,18
298,955	-0,17
299,419	-0,17
299,884	-0,17
300,348	-0,16
300,813	-0,15
301,277	-0,16
301,741	-0,17
302,205	-0,17
302,67	-0,16
303,134	-0,16
303,598	-0,16
304,062	-0,16
304,526	-0,16
304,99	-0,17
305,454	-0,17
305,919	-0,17
306,383	-0,16
306,847	-0,16
307,31	-0,17
307,774	-0,18
308,238	-0,17
308,702	-0,17
309,166	-0,19
309,63	-0,18
310,094	-0,15
310,557	-0,15
311,021	-0,15
311,485	-0,15
311,948	-0,15
312,412	-0,14
312,876	-0,13
313,339	-0,14
313,803	-0,14
314,266	-0,13
314,73	-0,14
315,193	-0,14
315,657	-0,13
316,12	-0,14
316,584	-0,13
317,047	-0,13
317,51	-0,12
317,973	-0,12
318,437	-0,11
318,9	-0,1
319,363	-0,09
319,826	-0,09
320,29	-0,09
320,753	-0,09
321,216	-0,09
321,679	-0,09
322,142	-0,08
322,605	-0,1
323,068	-0,09
323,531	-0,09
323,994	-0,09
324,457	-0,09
324,92	-0,08
325,382	-0,08
325,845	-0,08
326,308	-0,07
326,771	-0,06
327,233	-0,06
327,696	-0,05
328,159	-0,05
328,622	-0,05
329,084	-0,05
329,547	-0,04
330,009	-0,04
330,472	-0,02
330,934	-0,01
331,397	-0,01
331,859	0
332,322	0,01
332,784	0,01
333,246	0,02
333,709	0,03
334,171	0,03
334,633	0,03
335,096	0,03
335,558	0,03
336,02	0,02
336,482	0,03
336,944	0,02
337,406	0,03
337,868	0,03
338,331	0,04
338,793	0,04
339,255	0,04
339,717	0,04
340,178	0,05
340,64	0,06
341,102	0,06
341,564	0,06
342,026	0,08
342,488	0,08
342,949	0,1
343,411	0,12
343,873	0,14
344,335	0,16
344,796	0,19
345,258	0,22
345,719	0,26
346,181	0,3
346,643	0,33
347,104	0,35
347,566	0,37
348,027	0,39
348,488	0,4
348,95	0,42
349,411	0,43
349,873	0,45
350,334	0,46
350,795	0,47
351,256	0,48
351,718	0,49
352,179	0,49
352,64	0,49
353,101	0,49
353,562	0,5
354,023	0,5
354,484	0,5
354,945	0,5
355,406	0,5
355,867	0,5
356,328	0,5
356,789	0,5
357,25	0,51
357,711	0,51
358,172	0,51
358,633	0,51
359,093	0,51
359,554	0,51
360,015	0,51
360,476	0,51
360,936	0,51
361,397	0,51
361,858	0,52
362,318	0,52
362,779	0,52
363,239	0,52
363,7	0,52
364,16	0,52
364,621	0,52
365,081	0,52
365,541	0,52
366,002	0,52
366,462	0,52
366,922	0,52
367,383	0,51
367,843	0,51
368,303	0,51
368,763	0,51
369,223	0,51
369,684	0,52
370,144	0,52
370,604	0,52
371,064	0,52
371,524	0,52
371,984	0,52
372,444	0,51
372,904	0,51
373,363	0,51
373,823	0,51
374,283	0,51
374,743	0,51
375,203	0,51
375,663	0,51
376,122	0,51
376,582	0,51
377,042	0,51
377,501	0,51
377,961	0,51
378,42	0,51
378,88	0,51
379,34	0,51
379,799	0,51
380,259	0,51
380,718	0,51
381,177	0,51
381,637	0,51
382,096	0,51
382,555	0,51
383,015	0,51
383,474	0,51
383,933	0,51
384,393	0,51
384,852	0,51
385,311	0,5
385,77	0,5
386,229	0,5
386,688	0,5
387,147	0,5
387,606	0,5
388,065	0,5
388,524	0,5
388,983	0,5
389,442	0,5
389,901	0,5
390,36	0,5
390,819	0,5
391,277	0,5
391,736	0,5
392,195	0,5
392,654	0,5
393,112	0,5
393,571	0,5
394,03	0,5
394,488	0,5
394,947	0,5
395,405	0,5
395,864	0,5
396,322	0,5
396,781	0,5
397,239	0,5
397,698	0,5
398,156	0,5
398,614	0,5
399,073	0,5
399,531	0,5
399,989	0,5
400,447	0,5
400,905	0,5
401,364	0,5
401,822	0,5
402,28	0,49
402,738	0,49
403,196	0,49
403,654	0,49
404,112	0,49
404,57	0,49
405,028	0,49
405,486	0,49
405,944	0,49
406,402	0,49
406,859	0,49
407,317	0,49
407,775	0,49
408,233	0,49
408,691	0,49
409,148	0,49
409,606	0,49
410,064	0,49
410,521	0,49
410,979	0,49
411,436	0,49
411,894	0,49
412,351	0,49
412,809	0,49
413,266	0,49
413,724	0,49
414,181	0,49
414,638	0,49
415,096	0,49
415,553	0,49
416,01	0,49
416,467	0,49
416,925	0,49
417,382	0,49
417,839	0,49
418,296	0,49
418,753	0,49
419,21	0,49
419,667	0,49
420,124	0,49
420,581	0,49
421,038	0,48
421,495	0,48
421,952	0,48
422,409	0,48
422,866	0,48
423,322	0,49
423,779	0,49
424,236	0,49
424,693	0,49
425,149	0,49
425,606	0,49
426,063	0,49
426,519	0,49
426,976	0,49
427,433	0,49
427,889	0,49
428,346	0,49
428,802	0,48
429,258	0,48
429,715	0,48
430,171	0,48
430,628	0,48
431,084	0,48
431,54	0,48
431,997	0,48
432,453	0,48
432,909	0,48
433,365	0,48
433,821	0,48
434,277	0,48
434,734	0,48
435,19	0,48
435,646	0,48
436,102	0,48
436,558	0,48
437,014	0,48
437,47	0,48
437,925	0,48
438,381	0,48
438,837	0,48
439,293	0,48
439,749	0,48
440,205	0,48
440,66	0,48
441,116	0,48
441,572	0,48
442,027	0,48
442,483	0,48
442,939	0,48
443,394	0,48
443,85	0,48
444,305	0,48
444,761	0,48
445,216	0,48
445,672	0,48
446,127	0,48
446,582	0,48
447,038	0,48
447,493	0,48
447,948	0,48
448,403	0,48
448,859	0,48
449,314	0,48
449,769	0,48
450,224	0,48
450,679	0,48
451,134	0,48
451,589	0,48
452,044	0,48
452,499	0,48
452,954	0,48
453,409	0,48
453,864	0,48
454,319	0,48
454,774	0,48
455,229	0,48
455,684	0,48
456,138	0,48
456,593	0,48
457,048	0,48
457,503	0,48
457,957	0,48
458,412	0,48
458,866	0,48
459,321	0,49
459,776	0,49
460,23	0,49
460,685	0,49
461,139	0,49
461,593	0,49
462,048	0,49
462,502	0,49
462,957	0,49
463,411	0,49
463,865	0,49
464,319	0,49
464,774	0,49
465,228	0,49
465,682	0,49
466,136	0,49
466,59	0,49
467,044	0,49
467,499	0,49
467,953	0,49
468,407	0,5
468,861	0,5
469,315	0,5
469,768	0,5
470,222	0,5
470,676	0,5
471,13	0,5
471,584	0,5
472,038	0,5
472,491	0,5
472,945	0,5
473,399	0,5
473,852	0,5
474,306	0,5
474,76	0,5
475,213	0,5
475,667	0,5
476,12	0,5
476,574	0,5
477,027	0,51
477,481	0,51
477,934	0,51
478,388	0,51
478,841	0,51
479,294	0,51
479,748	0,51
480,201	0,51
480,654	0,52
481,107	0,52
481,561	0,52
482,014	0,52
482,467	0,52
482,92	0,52
483,373	0,52
483,826	0,52
484,279	0,52
484,732	0,53
485,185	0,53
485,638	0,53
486,091	0,53
486,544	0,53
486,997	0,53
487,449	0,53
487,902	0,54
488,355	0,54
488,808	0,54
489,26	0,54
489,713	0,54
490,166	0,54
490,618	0,55
491,071	0,55
491,523	0,55
491,976	0,55
492,429	0,56
492,881	0,56
493,333	0,56
493,786	0,56
494,238	0,56
494,691	0,57
495,143	0,57
495,595	0,57
496,048	0,57
496,5	0,58
496,952	0,58
497,404	0,58
497,856	0,58
498,309	0,59
498,761	0,59
499,213	0,59
499,665	0,59
500,117	0,6
500,569	0,6
501,021	0,6
501,473	0,61
501,925	0,61
502,377	0,61
502,828	0,61
503,28	0,62
503,732	0,62
504,184	0,62
504,636	0,63
505,087	0,63
505,539	0,63
505,991	0,63
506,442	0,64
506,894	0,64
507,345	0,64
507,797	0,64
508,249	0,65
508,7	0,65
509,151	0,65
509,603	0,66
510,054	0,66
510,506	0,66
510,957	0,67
511,408	0,67
511,86	0,67
512,311	0,67
512,762	0,68
513,213	0,68
513,665	0,68
514,116	0,68
514,567	0,69
515,018	0,69
515,469	0,69
515,92	0,69
516,371	0,7
516,822	0,7
517,273	0,7
517,724	0,7
518,175	0,7
518,626	0,71
519,076	0,71
519,527	0,71
519,978	0,71
520,429	0,71
520,88	0,71
521,33	0,72
521,781	0,72
522,232	0,72
522,682	0,72
523,133	0,72
523,583	0,72
524,034	0,72
524,484	0,72
524,935	0,73
525,385	0,73
525,836	0,73
526,286	0,73
526,736	0,73
527,187	0,73
527,637	0,73
528,087	0,73
528,538	0,73
528,988	0,73
529,438	0,73
529,888	0,73
530,338	0,72
530,788	0,72
531,238	0,72
531,688	0,72
532,139	0,72
532,589	0,72
533,038	0,72
533,488	0,72
533,938	0,72
534,388	0,72
534,838	0,71
535,288	0,71
535,738	0,71
536,187	0,71
536,637	0,71
537,087	0,7
537,537	0,7
537,986	0,7
538,436	0,7
538,885	0,69
539,335	0,69
539,785	0,69
540,234	0,68
540,684	0,68
541,133	0,68
541,582	0,68
542,032	0,67
542,481	0,67
542,931	0,67
543,38	0,66
543,829	0,66
544,278	0,66
544,728	0,65
545,177	0,65
545,626	0,65
546,075	0,64
546,524	0,64
546,973	0,64
547,422	0,64
547,871	0,63
548,32	0,63
548,769	0,63
549,218	0,63
549,667	0,63
550,116	0,62
550,565	0,62
551,014	0,62
551,463	0,62
551,911	0,61
552,36	0,61
552,809	0,61
553,258	0,6
553,706	0,6
554,155	0,6
554,603	0,6
555,052	0,59
555,501	0,59
555,949	0,59
556,398	0,59
556,846	0,58
557,294	0,58
557,743	0,58
558,191	0,57
558,64	0,57
559,088	0,57
559,536	0,56
559,985	0,56
560,433	0,56
560,881	0,55
561,329	0,55
561,777	0,55
562,225	0,55
562,674	0,54
563,122	0,54
563,57	0,54
564,018	0,54
564,466	0,53
564,914	0,53
565,362	0,53
565,809	0,52
566,257	0,52
566,705	0,52
567,153	0,52
567,601	0,51
568,048	0,51
568,496	0,51
568,944	0,51
569,392	0,5
569,839	0,5
570,287	0,5
570,734	0,5
571,182	0,49
571,63	0,49
572,077	0,49
572,525	0,49
572,972	0,49
573,419	0,48
573,867	0,48
574,314	0,48
574,761	0,48
575,209	0,47
575,656	0,47
576,103	0,47
576,551	0,47
576,998	0,47
577,445	0,47
577,892	0,46
578,339	0,46
578,786	0,46
579,233	0,46
579,68	0,46
580,127	0,45
580,574	0,45
581,021	0,45
581,468	0,45
581,915	0,45
582,362	0,45
582,809	0,44
583,255	0,44
583,702	0,44
584,149	0,44
584,596	0,44
585,042	0,44
585,489	0,43
585,936	0,43
586,382	0,43
586,829	0,43
587,275	0,43
587,722	0,43
588,168	0,43
588,615	0,42
589,061	0,42
589,508	0,42
589,954	0,42
590,4	0,42
590,847	0,42
591,293	0,42
591,739	0,42
592,185	0,42
592,632	0,41
593,078	0,41
593,524	0,41
593,97	0,41
594,416	0,41
594,862	0,41
595,308	0,41
595,754	0,41
596,2	0,41
596,646	0,41
597,092	0,4
597,538	0,4
597,984	0,4
598,43	0,4
598,876	0,4
599,321	0,4
599,767	0,4
600,213	0,4
600,659	0,4
601,104	0,4
601,55	0,39
601,995	0,39
602,441	0,39
602,887	0,39
603,332	0,39
603,778	0,39
604,223	0,39
604,668	0,39
605,114	0,39
605,559	0,39
606,005	0,39
606,45	0,39
606,895	0,39
607,341	0,39
607,786	0,39
608,231	0,38
608,676	0,38
609,121	0,38
609,566	0,37
610,012	0,37
610,457	0,37
610,902	0,37
611,347	0,36
611,792	0,36
612,237	0,36
612,682	0,36
613,127	0,36
613,571	0,36
614,016	0,36
614,461	0,36
614,906	0,36
615,351	0,37
615,795	0,37
616,24	0,37
616,685	0,37
617,129	0,37
617,574	0,37
618,019	0,37
618,463	0,37
618,908	0,37
619,352	0,37
619,797	0,37
620,241	0,37
620,686	0,37
621,13	0,36
621,574	0,36
622,019	0,36
622,463	0,36
622,907	0,36
623,352	0,36
623,796	0,36
624,24	0,36
624,684	0,36
625,128	0,36
625,572	0,36
626,016	0,36
626,461	0,36
626,905	0,36
627,349	0,36
627,793	0,36
628,236	0,36
628,68	0,36
629,124	0,36
629,568	0,36
630,012	0,35
630,456	0,35
630,9	0,35
631,343	0,35
631,787	0,35
632,231	0,35
632,674	0,35
633,118	0,35
633,562	0,35
634,005	0,35
634,449	0,35
634,892	0,35
635,336	0,35
635,779	0,35
636,223	0,35
636,666	0,35
637,109	0,35
637,553	0,35
637,996	0,35
638,439	0,35
638,883	0,35
639,326	0,35
639,769	0,35
640,212	0,35
640,655	0,35
641,099	0,35
641,542	0,35
641,985	0,35
642,428	0,35
642,871	0,35
643,314	0,35
643,757	0,35
644,2	0,35
644,643	0,35
645,085	0,35
645,528	0,34
645,971	0,34
646,414	0,34
646,857	0,34
647,299	0,34
647,742	0,34
648,185	0,34
648,627	0,34
649,07	0,34
649,513	0,34
649,955	0,34
650,398	0,34
650,84	0,34
651,283	0,34
651,725	0,34
652,168	0,34
652,61	0,34
653,052	0,34
653,495	0,34
653,937	0,26
654,379	0,21
654,821	0,22
655,264	0,22
655,706	0,22
656,148	0,22
656,59	0,22
657,032	0,22
657,474	0,22
657,916	0,22
658,358	0,21
658,8	0,26
659,242	0,34
659,684	0,34
660,126	0,34
660,568	0,34
661,01	0,34
661,452	0,34
661,894	0,34
662,335	0,34
662,777	0,34
663,219	0,33
663,661	0,33
664,102	0,33
664,544	0,33
664,985	0,33
665,427	0,33
665,869	0,33
666,31	0,33
666,752	0,33
667,193	0,33
667,634	0,33
668,076	0,33
668,517	0,33
668,959	0,33
669,4	0,33
669,841	0,33
670,282	0,33
670,724	0,33
671,165	0,33
671,606	0,33
672,047	0,33
672,488	0,33
672,929	0,33
673,37	0,33
673,811	0,33
674,252	0,33
674,693	0,33
675,134	0,33
675,575	0,33
676,016	0,33
676,457	0,33
676,898	0,33
677,339	0,33
677,78	0,33
678,22	0,33
678,661	0,33
679,102	0,33
679,542	0,33
679,983	0,33
680,424	0,33
680,864	0,33
681,305	0,33
681,745	0,33
682,186	0,33
682,626	0,33
683,067	0,33
683,507	0,33
683,948	0,33
684,388	0,33
684,828	0,32
685,269	0,32
685,709	0,32
686,149	0,32
686,589	0,32
687,029	0,32
687,47	0,32
687,91	0,32
688,35	0,32
688,79	0,32
689,23	0,32
689,67	0,32
690,11	0,32
690,55	0,32
690,99	0,32
691,43	0,32
691,87	0,32
692,31	0,32
692,749	0,31
693,189	0,31
693,629	0,31
694,069	0,31
694,508	0,31
694,948	0,31
695,388	0,31
695,827	0,31
696,267	0,31
696,706	0,32
697,146	0,32
697,586	0,32
698,025	0,32
698,464	0,32
698,904	0,32
699,343	0,32
699,783	0,32
700,222	0,32
700,661	0,32
701,101	0,32
701,54	0,32
701,979	0,32
702,418	0,32
702,857	0,32
703,297	0,32
703,736	0,32
704,175	0,32
704,614	0,32
705,053	0,31
705,492	0,31
705,931	0,31
706,37	0,31
706,809	0,31
707,248	0,31
707,687	0,31
708,125	0,31
708,564	0,31
709,003	0,31
709,442	0,31
709,88	0,31
710,319	0,31
710,758	0,31
711,196	0,31
711,635	0,31
712,074	0,31
712,512	0,31
712,951	0,31
713,389	0,31
713,828	0,31
714,266	0,3
714,705	0,3
715,143	0,3
715,581	0,3
716,02	0,3
716,458	0,3
716,896	0,3
717,334	0,3
717,773	0,3
718,211	0,3
718,649	0,3
719,087	0,3
719,525	0,3
719,963	0,3
720,401	0,3
720,839	0,3
721,277	0,3
721,715	0,3
722,153	0,3
722,591	0,3
723,029	0,3
723,467	0,3
723,905	0,3
724,342	0,3
724,78	0,3
725,218	0,3
725,656	0,3
726,093	0,3
726,531	0,3
726,969	0,3
727,406	0,3
727,844	0,3
728,281	0,3
728,719	0,3
729,156	0,3
729,594	0,3
730,031	0,3
730,469	0,3
730,906	0,3
731,343	0,3
731,781	0,3
732,218	0,3
732,655	0,3
733,092	0,3
733,53	0,3
733,967	0,3
734,404	0,3
734,841	0,3
735,278	0,3
735,715	0,3
736,152	0,3
736,589	0,3
737,026	0,29
737,463	0,29
737,9	0,29
738,337	0,29
738,774	0,29
739,211	0,29
739,647	0,29
740,084	0,29
740,521	0,29
740,958	0,29
741,394	0,29
741,831	0,29
742,268	0,29
742,704	0,29
743,141	0,28
743,577	0,28
744,014	0,28
744,45	0,28
744,887	0,28
745,323	0,28
745,76	0,28
746,196	0,28
746,632	0,28
747,069	0,28
747,505	0,28
747,941	0,28
748,378	0,28
748,814	0,28
749,25	0,28
749,686	0,28
750,122	0,28
750,558	0,28
750,994	0,29
751,43	0,29
751,866	0,29
752,302	0,29
752,738	0,29
753,174	0,29
753,61	0,29
754,046	0,29
754,482	0,29
754,918	0,29
755,354	0,29
755,789	0,29
756,225	0,29
756,661	0,29
757,096	0,29
757,532	0,29
757,968	0,29
758,403	0,29
758,839	0,28
759,274	0,28
759,71	0,28
760,145	0,27
760,581	0,27
761,016	0,27
761,452	0,26
761,887	0,26
762,322	0,26
762,758	0,25
763,193	0,25
763,628	0,25
764,063	0,24
764,499	0,24
764,934	0,23
765,369	0,23
765,804	0,22
766,239	0,22
766,674	0,21
767,109	0,21
767,544	0,2
767,979	0,19
768,414	0,19
768,849	0,18
769,284	0,17
769,719	0,16
770,154	0,16
770,588	0,15
771,023	0,15
771,458	0,13
771,893	0,12
772,327	0,11
772,762	0,1
773,197	0,1
773,631	0,09
774,066	0,09
774,5	0,08
774,935	0,07
775,369	0,06
775,804	0,04
776,238	0,04
776,673	0,03
777,107	0,02
777,541	0,01
777,976	0
778,41	-0,01
778,844	-0,02
779,279	-0,02
779,713	-0,03
780,147	-0,04
780,581	-0,05
781,015	-0,06
781,449	-0,07
781,883	-0,08
782,317	-0,08
782,751	-0,09
783,185	-0,09
783,619	-0,1
784,053	-0,11
784,487	-0,12
784,921	-0,12
785,355	-0,12
785,789	-0,13
786,223	-0,14
786,656	-0,14
787,09	-0,16
787,524	-0,17
787,957	-0,18
788,391	-0,2
788,825	-0,21
789,258	-0,22
789,692	-0,23
790,125	-0,25
790,559	-0,27
790,992	-0,28
791,426	-0,31
791,859	-0,32
792,293	-0,35
792,726	-0,36
793,159	-0,37
793,593	-0,39
794,026	-0,42
794,459	-0,45
794,892	-0,47
795,326	-0,5
795,759	-0,53
796,192	-0,58
796,625	-0,62
797,058	-0,65
797,491	-0,69
797,924	-0,73
798,357	-0,77
798,79	-0,82
799,223	-0,86
799,656	-0,91
800,089	-0,96
800,522	-1
800,955	-1,04
801,387	-1,1
801,82	-1,15
802,253	-1,22
802,686	-1,29
803,118	-1,35
803,551	-1,4
803,984	-1,44
804,416	-1,48
804,849	-1,51
805,281	-1,62
805,714	-1,95
806,146	-2,41
806,579	-2,69
807,011	-2,85
807,444	-2,95
807,876	-3,05
808,308	-3,09
808,741	-3,12
809,173	-3,17
809,605	-3,19
810,037	-3,27
810,47	-3,19
810,902	-3
811,334	-2,85
811,766	-2,71
812,198	-2,48
812,63	-2,06
813,062	-1,82
813,494	-1,71
813,926	-1,62
814,358	-1,57
814,79	-1,49
815,222	-1,43
815,654	-1,38
816,086	-1,31
816,518	-1,26
816,949	-1,21
817,381	-1,16
817,813	-1,14
818,245	-1,1
818,676	-1,06
819,108	-1,03
819,54	-1,01
819,971	-0,99
820,403	-0,94
820,834	-0,92
821,266	-0,88
821,697	-0,85
822,129	-0,84
822,56	-0,81
822,991	-0,79
823,423	-0,76
823,854	-0,75
824,286	-0,73
824,717	-0,72
825,148	-0,7
825,579	-0,69
826,01	-0,68
826,442	-0,67
826,873	-0,65
827,304	-0,61
827,735	-0,61
828,166	-0,61
828,597	-0,61
829,028	-0,6
829,459	-0,61
829,89	-0,62
830,321	-0,57
830,752	-0,59
831,183	-0,58
831,613	-0,57
832,044	-0,57
832,475	-0,55
832,906	-0,56
833,336	-0,56
833,767	-0,57
834,198	-0,56
834,628	-0,53
835,059	-0,56
835,49	-0,57
835,92	-0,54
836,351	-0,55
836,781	-0,55
837,212	-0,57
837,642	-0,57
838,072	-0,56
838,503	-0,57
838,933	-0,54
839,364	-0,55
839,794	-0,53
840,224	-0,52
840,654	-0,57
841,085	-0,57
841,515	-0,55
841,945	-0,55
842,375	-0,5
842,805	-0,49
843,235	-0,47
843,665	-0,49
844,095	-0,47
844,525	-0,49
844,955	-0,49
845,385	-0,47
845,815	-0,45
846,245	-0,48
846,675	-0,49
847,105	-0,51
847,534	-0,52
847,964	-0,5
848,394	-0,49
848,824	-0,52
849,253	-0,51
849,683	-0,5
850,112	-0,52
850,542	-0,55
850,972	-0,55
851,401	-0,53
851,831	-0,5
852,26	-0,5
852,69	-0,54
853,119	-0,53
853,548	-0,53
853,978	-0,55
854,407	-0,54
854,836	-0,54
855,266	-0,52
855,695	-0,54
856,124	-0,55
856,553	-0,56
856,983	-0,58
857,412	-0,56
857,841	-0,58
858,27	-0,58
858,699	-0,58
859,128	-0,61
859,557	-0,62
859,986	-0,63
860,415	-0,61
860,844	-0,59
861,273	-0,59
861,702	-0,59
862,13	-0,58
862,559	-0,6
862,988	-0,57
863,417	-0,56
863,845	-0,56
864,274	-0,56
864,703	-0,56
865,131	-0,56
865,56	-0,58
865,989	-0,61
866,417	-0,58
866,846	-0,59
867,274	-0,58
867,703	-0,59
868,131	-0,61
868,559	-0,6
868,988	-0,63
869,416	-0,61
869,844	-0,61
870,273	-0,63
870,701	-0,62
871,129	-0,64
871,557	-0,67
871,986	-0,66
872,414	-0,67
872,842	-0,64
873,27	-0,63
873,698	-0,59
874,126	-0,64
874,554	-0,62
874,982	-0,62
875,41	-0,65
875,838	-0,6
876,266	-0,58
876,694	-0,59
877,122	-0,58
877,549	-0,64
877,977	-0,61
878,405	-0,63
878,833	-0,6
879,26	-0,59
879,688	-0,59
880,116	-0,57
880,543	-0,55
880,971	-0,54
881,399	-0,57
881,826	-0,58
882,254	-0,56
882,681	-0,59
883,109	-0,54
883,536	-0,55
883,963	-0,57
884,391	-0,55
884,818	-0,54
885,245	-0,58
885,673	-0,6
886,1	-0,57
886,527	-0,57
886,954	-0,53
887,381	-0,56
887,809	-0,57
888,236	-0,59
888,663	-0,58
889,09	-0,63
889,517	-0,65
889,944	-0,64
890,371	-0,63
890,798	-0,64
891,225	-0,63
891,652	-0,66
892,078	-0,64
892,505	-0,67
892,932	-0,62
893,359	-0,64
893,786	-0,63
894,212	-0,59
894,639	-0,61
895,066	-0,63
895,492	-0,57
895,919	-0,59
896,346	-0,58
896,772	-0,58
897,199	-0,55
897,625	-0,58
898,052	-0,54
898,478	-0,52
898,904	-0,54
899,331	-0,53
899,757	-0,54
900,183	-0,56
900,61	-0,54
901,036	-0,55
901,462	-0,55
901,888	-0,55
902,315	-0,53
902,741	-0,59
903,167	-0,58
903,593	-0,61
904,019	-0,59
904,445	-0,56
904,871	-0,6
905,297	-0,61
905,723	-0,6
906,149	-0,59
906,575	-0,6
907,001	-0,6
907,427	-0,58
907,852	-0,56
908,278	-0,57
908,704	-0,55
909,13	-0,55
909,555	-0,54
909,981	-0,53
910,407	-0,54
910,832	-0,54
911,258	-0,54
911,684	-0,54
912,109	-0,53
912,535	-0,55
912,96	-0,51
913,386	-0,54
913,811	-0,54
914,236	-0,56
914,662	-0,54
915,087	-0,57
915,512	-0,57
915,938	-0,59
916,363	-0,59
916,788	-0,6
917,213	-0,58
917,639	-0,63
918,064	-0,61
918,489	-0,61
918,914	-0,6
919,339	-0,62
919,764	-0,59
920,189	-0,59
920,614	-0,61
921,039	-0,61
921,464	-0,56
921,889	-0,59
922,314	-0,61
922,738	-0,64
923,163	-0,65
923,588	-0,66
924,013	-0,65
924,437	-0,66
924,862	-0,67
925,287	-0,63
925,711	-0,64
926,136	-0,66
926,561	-0,64
926,985	-0,64
927,41	-0,61
927,834	-0,58
928,259	-0,55
928,683	-0,54
929,108	-0,5
929,532	-0,51
929,956	-0,5
930,381	-0,49
930,805	-0,49
931,229	-0,49
931,653	-0,47
932,078	-0,46
932,502	-0,48
932,926	-0,49
933,35	-0,48
933,774	-0,48
934,198	-0,46
934,622	-0,45
935,046	-0,46
935,47	-0,46
935,894	-0,46
936,318	-0,45
936,742	-0,44
937,166	-0,45
937,59	-0,45
938,014	-0,47
938,437	-0,49
938,861	-0,5
939,285	-0,51
939,709	-0,5
940,132	-0,5
940,556	-0,51
940,98	-0,51
941,403	-0,5
941,827	-0,5
942,25	-0,52
942,674	-0,5
943,097	-0,49
943,521	-0,49
943,944	-0,5
944,368	-0,5
944,791	-0,48
945,214	-0,5
945,638	-0,51
946,061	-0,54
946,484	-0,55
946,907	-0,53
947,331	-0,53
947,754	-0,57
948,177	-0,55
948,6	-0,54
949,023	-0,54
949,446	-0,53
949,869	-0,52
950,292	-0,52
950,715	-0,49
951,138	-0,47
951,561	-0,45
951,984	-0,45
952,407	-0,43
952,83	-0,41
953,252	-0,37
953,675	-0,36
954,098	-0,38
954,521	-0,36
954,943	-0,36
955,366	-0,36
955,789	-0,34
956,211	-0,36
956,634	-0,37
957,056	-0,35
957,479	-0,37
957,902	-0,39
958,324	-0,39
958,746	-0,38
959,169	-0,39
959,591	-0,39
960,014	-0,4
960,436	-0,4
960,858	-0,39
961,281	-0,39
961,703	-0,4
962,125	-0,4
962,547	-0,38
962,969	-0,39
963,391	-0,39
963,814	-0,4
964,236	-0,39
964,658	-0,36
965,08	-0,38
965,502	-0,37
965,924	-0,35
966,346	-0,35
966,768	-0,34
967,189	-0,36
967,611	-0,36
968,033	-0,35
968,455	-0,34
968,877	-0,34
969,298	-0,35
969,72	-0,36
970,142	-0,35
970,563	-0,35
970,985	-0,34
971,407	-0,34
971,828	-0,31
972,25	-0,3
972,671	-0,3
973,093	-0,3
973,514	-0,29
973,936	-0,27
974,357	-0,26
974,778	-0,26
975,2	-0,26
975,621	-0,25
976,042	-0,24
976,464	-0,23
976,885	-0,22
977,306	-0,21
977,727	-0,21
978,148	-0,2
978,57	-0,19
978,991	-0,17
979,412	-0,16
979,833	-0,15
980,254	-0,15
980,675	-0,15
981,096	-0,14
981,517	-0,13
981,937	-0,12
982,358	-0,1
982,779	-0,09
983,2	-0,09
983,621	-0,09
984,042	-0,08
984,462	-0,07
984,883	-0,06
985,304	-0,04
985,724	-0,03
986,145	-0,03
986,565	-0,01
986,986	-0
987,407	0,01
987,827	0,02
988,248	0,04
988,668	0,05
989,088	0,06
989,509	0,07
989,929	0,08
990,35	0,09
990,77	0,1
991,19	0,11
991,61	0,12
992,031	0,12
992,451	0,13
992,871	0,14
993,291	0,14
993,711	0,14
994,131	0,15
994,551	0,16
994,971	0,16
995,391	0,17
995,811	0,17
996,231	0,17
996,651	0,18
997,071	0,18
997,491	0,19
997,911	0,19
998,331	0,2
998,75	0,2
999,17	0,21
999,59	0,21
1000,009	0,21
1000,429	0,22
1000,849	0,22
1001,268	0,23
1001,688	0,23
1002,107	0,23
1002,527	0,24
1002,946	0,24
1003,366	0,24
1003,785	0,24
1004,205	0,24
1004,624	0,25
1005,044	0,25
1005,463	0,25
1005,882	0,25
1006,301	0,25
1006,721	0,25
1007,14	0,25
1007,559	0,25
1007,978	0,25
1008,397	0,25
1008,816	0,25
1009,235	0,25
1009,655	0,25
1010,074	0,25
1010,492	0,25
1010,911	0,25
1011,33	0,25
1011,749	0,25
1012,168	0,25
1012,587	0,24
1013,006	0,24
1013,425	0,24
1013,843	0,24
1014,262	0,24
1014,681	0,24
1015,099	0,24
1015,518	0,24
1015,937	0,24
1016,355	0,24
1016,774	0,24
1017,192	0,24
1017,611	0,24
1018,029	0,24
1018,448	0,24
1018,866	0,24
1019,285	0,24
1019,703	0,24
1020,121	0,25
1020,54	0,25
1020,958	0,25
1021,376	0,25
1021,794	0,25
1022,213	0,25
1022,631	0,25
1023,049	0,25
1023,467	0,25
1023,885	0,25
1024,303	0,24
1024,721	0,24
1025,139	0,24
1025,557	0,24
1025,975	0,24
1026,393	0,24
1026,811	0,24
1027,229	0,24
1027,647	0,24
1028,065	0,24
1028,482	0,24
1028,9	0,24
1029,318	0,24
1029,735	0,24
1030,153	0,24
1030,571	0,24
1030,988	0,24
1031,406	0,24
1031,823	0,24
1032,241	0,24
1032,659	0,24
1033,076	0,24
1033,493	0,24
1033,911	0,24
1034,328	0,24
1034,746	0,24
1035,163	0,24
1035,58	0,24
1035,997	0,24
1036,415	0,24
1036,832	0,24
1037,249	0,24
1037,666	0,24
1038,083	0,24
1038,501	0,24
1038,918	0,23
1039,335	0,23
1039,752	0,23
1040,169	0,23
1040,586	0,23
1041,003	0,23
1041,419	0,23
1041,836	0,23
1042,253	0,23
1042,67	0,23
1043,087	0,23
1043,504	0,23
1043,92	0,23
1044,337	0,23
1044,754	0,23
1045,17	0,23
1045,587	0,23
1046,004	0,23
1046,42	0,22
1046,837	0,22
1047,253	0,22
1047,67	0,22
1048,086	0,22
1048,503	0,22
1048,919	0,22
1049,335	0,22
1049,752	0,22
1050,168	0,22
1050,584	0,22
1051,001	0,22
1051,417	0,22
1051,833	0,23
1052,249	0,23
1052,665	0,23
1053,081	0,23
1053,497	0,23
1053,914	0,23
1054,33	0,23
1054,746	0,23
1055,162	0,23
1055,578	0,23
1055,993	0,23
1056,409	0,23
1056,825	0,23
1057,241	0,23
1057,657	0,23
1058,073	0,23
1058,488	0,23
1058,904	0,23
1059,32	0,23
1059,736	0,23
1060,151	0,23
1060,567	0,23
1060,982	0,23
1061,398	0,24
1061,813	0,23
1062,229	0,23
1062,644	0,23
1063,06	0,23
1063,475	0,23
1063,891	0,23
1064,306	0,23
1064,721	0,23
1065,137	0,23
1065,552	0,23
1065,967	0,23
1066,382	0,23
1066,798	0,23
1067,213	0,23
1067,628	0,23
1068,043	0,23
1068,458	0,23
1068,873	0,23
1069,288	0,23
1069,703	0,23
1070,118	0,23
1070,533	0,23
1070,948	0,23
1071,363	0,23
1071,778	0,24
1072,193	0,24
1072,607	0,24
1073,022	0,24
1073,437	0,24
1073,852	0,24
1074,266	0,24
1074,681	0,24
1075,096	0,24
1075,51	0,24
1075,925	0,24
1076,339	0,24
1076,754	0,24
1077,168	0,24
1077,583	0,24
1077,997	0,24
1078,412	0,23
1078,826	0,23
1079,24	0,23
1079,655	0,23
1080,069	0,23
1080,483	0,23
1080,897	0,23
1081,312	0,23
1081,726	0,23
1082,14	0,23
1082,554	0,23
1082,968	0,23
1083,382	0,23
1083,796	0,22
1084,21	0,22
1084,624	0,22
1085,038	0,22
1085,452	0,22
1085,866	0,22
1086,28	0,22
1086,694	0,22
1087,108	0,22
1087,521	0,22
1087,935	0,21
1088,349	0,21
1088,763	0,21
1089,176	0,21
1089,59	0,21
1090,004	0,21
1090,417	0,2
1090,831	0,2
1091,244	0,2
1091,658	0,2
1092,071	0,2
1092,485	0,19
1092,898	0,19
1093,312	0,19
1093,725	0,19
1094,138	0,19
1094,552	0,19
1094,965	0,19
1095,378	0,19
1095,791	0,19
1096,205	0,19
1096,618	0,19
1097,031	0,18
1097,444	0,18
1097,857	0,18
1098,27	0,18
1098,683	0,18
1099,096	0,17
1099,509	0,17
1099,922	0,17
1100,335	0,16
1100,748	0,16
1101,161	0,16
1101,574	0,15
1101,986	0,15
1102,399	0,15
1102,812	0,15
1103,225	0,14
1103,637	0,14
1104,05	0,14
1104,463	0,14
1104,875	0,14
1105,288	0,13
1105,7	0,13
1106,113	0,13
1106,525	0,13
1106,938	0,12
1107,35	0,12
1107,763	0,12
1108,175	0,11
1108,588	0,11
1109	0,11
1109,412	0,1
1109,824	0,1
1110,237	0,1
1110,649	0,1
1111,061	0,09
