Data from 18C-808nm-8A_Absorbance__1280__01280.txt Node

Date: Mon Jul 17 17:09:43 CEST 2023
User: Laser008
Spectrometer: MAYP115816
Trigger mode: 0
Integration Time (sec): 2,500000E-1
Scans to average: 10
Electric dark correction enabled: true
Nonlinearity correction enabled: true
Boxcar width: 5
XAxis mode: Wavelengths
Number of Pixels in Spectrum: 2068
>>>>>Begin Spectral Data<<<<<
198,914	-0,76
199,384	-0,54
199,855	-0,38
200,325	-0,31
200,796	-0,26
201,266	-0,23
201,737	-0,21
202,207	-0,2
202,677	-0,19
203,147	-0,17
203,618	-0,14
204,088	-0,12
204,558	-0,1
205,028	-0,1
205,498	-0,1
205,968	-0,1
206,439	-0,11
206,909	-0,1
207,379	-0,11
207,849	-0,1
208,319	-0,11
208,789	-0,11
209,258	-0,11
209,728	-0,12
210,198	-0,12
210,668	-0,12
211,138	-0,12
211,608	-0,12
212,077	-0,12
212,547	-0,12
213,017	-0,12
213,486	-0,13
213,956	-0,14
214,426	-0,15
214,895	-0,14
215,365	-0,15
215,834	-0,15
216,304	-0,15
216,773	-0,15
217,243	-0,17
217,712	-0,17
218,181	-0,17
218,651	-0,17
219,12	-0,17
219,589	-0,17
220,058	-0,15
220,528	-0,16
220,997	-0,17
221,466	-0,18
221,935	-0,19
222,404	-0,19
222,873	-0,18
223,342	-0,17
223,812	-0,17
224,281	-0,17
224,749	-0,18
225,218	-0,2
225,687	-0,2
226,156	-0,19
226,625	-0,18
227,094	-0,18
227,563	-0,19
228,031	-0,2
228,5	-0,2
228,969	-0,22
229,438	-0,2
229,906	-0,2
230,375	-0,18
230,844	-0,17
231,312	-0,17
231,781	-0,18
232,249	-0,17
232,718	-0,17
233,186	-0,15
233,655	-0,16
234,123	-0,15
234,591	-0,15
235,06	-0,15
235,528	-0,17
235,996	-0,16
236,465	-0,16
236,933	-0,15
237,401	-0,15
237,869	-0,14
238,337	-0,14
238,805	-0,13
239,274	-0,13
239,742	-0,13
240,21	-0,13
240,678	-0,12
241,146	-0,11
241,614	-0,12
242,081	-0,11
242,549	-0,12
243,017	-0,12
243,485	-0,13
243,953	-0,13
244,421	-0,13
244,888	-0,13
245,356	-0,13
245,824	-0,13
246,291	-0,14
246,759	-0,14
247,227	-0,16
247,694	-0,14
248,162	-0,14
248,629	-0,13
249,097	-0,15
249,564	-0,16
250,032	-0,16
250,499	-0,16
250,967	-0,17
251,434	-0,17
251,901	-0,16
252,369	-0,16
252,836	-0,18
253,303	-0,19
253,77	-0,2
254,237	-0,19
254,705	-0,18
255,172	-0,17
255,639	-0,17
256,106	-0,19
256,573	-0,18
257,04	-0,18
257,507	-0,19
257,974	-0,2
258,441	-0,17
258,908	-0,18
259,375	-0,19
259,841	-0,18
260,308	-0,19
260,775	-0,19
261,242	-0,18
261,709	-0,19
262,175	-0,19
262,642	-0,19
263,109	-0,18
263,575	-0,2
264,042	-0,19
264,508	-0,18
264,975	-0,2
265,441	-0,21
265,908	-0,21
266,374	-0,2
266,841	-0,21
267,307	-0,21
267,773	-0,2
268,24	-0,2
268,706	-0,21
269,172	-0,22
269,639	-0,23
270,105	-0,22
270,571	-0,22
271,037	-0,23
271,503	-0,23
271,969	-0,23
272,435	-0,23
272,902	-0,24
273,368	-0,25
273,834	-0,24
274,3	-0,25
274,765	-0,25
275,231	-0,24
275,697	-0,24
276,163	-0,22
276,629	-0,22
277,095	-0,23
277,56	-0,22
278,026	-0,23
278,492	-0,21
278,958	-0,21
279,423	-0,21
279,889	-0,2
280,354	-0,2
280,82	-0,2
281,286	-0,22
281,751	-0,22
282,217	-0,21
282,682	-0,21
283,147	-0,21
283,613	-0,22
284,078	-0,22
284,544	-0,23
285,009	-0,24
285,474	-0,24
285,939	-0,25
286,405	-0,25
286,87	-0,24
287,335	-0,23
287,8	-0,23
288,265	-0,22
288,73	-0,24
289,195	-0,26
289,66	-0,26
290,125	-0,24
290,59	-0,24
291,055	-0,24
291,52	-0,24
291,985	-0,24
292,45	-0,26
292,915	-0,26
293,38	-0,26
293,844	-0,24
294,309	-0,22
294,774	-0,21
295,239	-0,22
295,703	-0,23
296,168	-0,21
296,632	-0,21
297,097	-0,19
297,562	-0,18
298,026	-0,18
298,491	-0,18
298,955	-0,18
299,419	-0,18
299,884	-0,18
300,348	-0,16
300,813	-0,15
301,277	-0,16
301,741	-0,16
302,205	-0,16
302,67	-0,16
303,134	-0,15
303,598	-0,16
304,062	-0,15
304,526	-0,16
304,99	-0,17
305,454	-0,18
305,919	-0,18
306,383	-0,18
306,847	-0,16
307,31	-0,17
307,774	-0,18
308,238	-0,18
308,702	-0,17
309,166	-0,18
309,63	-0,17
310,094	-0,15
310,557	-0,15
311,021	-0,14
311,485	-0,14
311,948	-0,14
312,412	-0,13
312,876	-0,12
313,339	-0,12
313,803	-0,13
314,266	-0,12
314,73	-0,12
315,193	-0,13
315,657	-0,12
316,12	-0,13
316,584	-0,11
317,047	-0,11
317,51	-0,11
317,973	-0,1
318,437	-0,09
318,9	-0,08
319,363	-0,07
319,826	-0,06
320,29	-0,06
320,753	-0,06
321,216	-0,06
321,679	-0,06
322,142	-0,07
322,605	-0,07
323,068	-0,08
323,531	-0,08
323,994	-0,08
324,457	-0,08
324,92	-0,08
325,382	-0,08
325,845	-0,07
326,308	-0,06
326,771	-0,06
327,233	-0,04
327,696	-0,04
328,159	-0,03
328,622	-0,02
329,084	-0,02
329,547	-0,01
330,009	-0,01
330,472	-0
330,934	0
331,397	0,01
331,859	0,01
332,322	0,01
332,784	0,02
333,246	0,02
333,709	0,02
334,171	0,03
334,633	0,03
335,096	0,03
335,558	0,03
336,02	0,02
336,482	0,03
336,944	0,03
337,406	0,03
337,868	0,04
338,331	0,04
338,793	0,04
339,255	0,05
339,717	0,05
340,178	0,06
340,64	0,06
341,102	0,07
341,564	0,07
342,026	0,09
342,488	0,09
342,949	0,1
343,411	0,12
343,873	0,14
344,335	0,16
344,796	0,19
345,258	0,23
345,719	0,26
346,181	0,29
346,643	0,32
347,104	0,35
347,566	0,37
348,027	0,39
348,488	0,4
348,95	0,42
349,411	0,43
349,873	0,44
350,334	0,45
350,795	0,46
351,256	0,47
351,718	0,47
352,179	0,48
352,64	0,48
353,101	0,48
353,562	0,48
354,023	0,48
354,484	0,48
354,945	0,48
355,406	0,48
355,867	0,49
356,328	0,49
356,789	0,49
357,25	0,49
357,711	0,49
358,172	0,49
358,633	0,49
359,093	0,49
359,554	0,49
360,015	0,49
360,476	0,5
360,936	0,5
361,397	0,5
361,858	0,5
362,318	0,5
362,779	0,5
363,239	0,5
363,7	0,5
364,16	0,5
364,621	0,5
365,081	0,5
365,541	0,5
366,002	0,5
366,462	0,5
366,922	0,5
367,383	0,5
367,843	0,5
368,303	0,5
368,763	0,5
369,223	0,5
369,684	0,5
370,144	0,5
370,604	0,5
371,064	0,5
371,524	0,5
371,984	0,5
372,444	0,5
372,904	0,5
373,363	0,5
373,823	0,5
374,283	0,5
374,743	0,49
375,203	0,49
375,663	0,49
376,122	0,49
376,582	0,49
377,042	0,49
377,501	0,49
377,961	0,49
378,42	0,49
378,88	0,49
379,34	0,49
379,799	0,49
380,259	0,49
380,718	0,49
381,177	0,49
381,637	0,49
382,096	0,49
382,555	0,49
383,015	0,49
383,474	0,49
383,933	0,49
384,393	0,49
384,852	0,49
385,311	0,49
385,77	0,49
386,229	0,49
386,688	0,49
387,147	0,49
387,606	0,49
388,065	0,48
388,524	0,48
388,983	0,48
389,442	0,48
389,901	0,48
390,36	0,48
390,819	0,48
391,277	0,48
391,736	0,48
392,195	0,48
392,654	0,48
393,112	0,48
393,571	0,48
394,03	0,48
394,488	0,48
394,947	0,48
395,405	0,48
395,864	0,48
396,322	0,48
396,781	0,48
397,239	0,48
397,698	0,48
398,156	0,48
398,614	0,48
399,073	0,48
399,531	0,48
399,989	0,48
400,447	0,48
400,905	0,48
401,364	0,48
401,822	0,48
402,28	0,48
402,738	0,48
403,196	0,48
403,654	0,48
404,112	0,47
404,57	0,47
405,028	0,47
405,486	0,47
405,944	0,47
406,402	0,47
406,859	0,47
407,317	0,47
407,775	0,47
408,233	0,47
408,691	0,47
409,148	0,47
409,606	0,47
410,064	0,47
410,521	0,47
410,979	0,47
411,436	0,47
411,894	0,47
412,351	0,47
412,809	0,47
413,266	0,47
413,724	0,47
414,181	0,47
414,638	0,47
415,096	0,47
415,553	0,47
416,01	0,47
416,467	0,47
416,925	0,47
417,382	0,47
417,839	0,47
418,296	0,47
418,753	0,47
419,21	0,47
419,667	0,47
420,124	0,47
420,581	0,47
421,038	0,47
421,495	0,47
421,952	0,47
422,409	0,47
422,866	0,47
423,322	0,47
423,779	0,47
424,236	0,47
424,693	0,47
425,149	0,47
425,606	0,47
426,063	0,47
426,519	0,47
426,976	0,47
427,433	0,47
427,889	0,47
428,346	0,47
428,802	0,47
429,258	0,47
429,715	0,47
430,171	0,47
430,628	0,47
431,084	0,47
431,54	0,47
431,997	0,47
432,453	0,46
432,909	0,46
433,365	0,46
433,821	0,46
434,277	0,46
434,734	0,46
435,19	0,46
435,646	0,46
436,102	0,46
436,558	0,46
437,014	0,46
437,47	0,46
437,925	0,46
438,381	0,46
438,837	0,46
439,293	0,46
439,749	0,46
440,205	0,46
440,66	0,46
441,116	0,46
441,572	0,46
442,027	0,46
442,483	0,46
442,939	0,46
443,394	0,46
443,85	0,46
444,305	0,46
444,761	0,46
445,216	0,46
445,672	0,46
446,127	0,46
446,582	0,46
447,038	0,46
447,493	0,46
447,948	0,46
448,403	0,46
448,859	0,46
449,314	0,46
449,769	0,46
450,224	0,46
450,679	0,46
451,134	0,46
451,589	0,47
452,044	0,47
452,499	0,46
452,954	0,47
453,409	0,47
453,864	0,46
454,319	0,47
454,774	0,47
455,229	0,47
455,684	0,47
456,138	0,47
456,593	0,47
457,048	0,47
457,503	0,47
457,957	0,47
458,412	0,47
458,866	0,47
459,321	0,47
459,776	0,47
460,23	0,47
460,685	0,47
461,139	0,47
461,593	0,47
462,048	0,47
462,502	0,47
462,957	0,47
463,411	0,47
463,865	0,47
464,319	0,47
464,774	0,47
465,228	0,47
465,682	0,47
466,136	0,47
466,59	0,47
467,044	0,47
467,499	0,48
467,953	0,48
468,407	0,48
468,861	0,48
469,315	0,48
469,768	0,48
470,222	0,48
470,676	0,48
471,13	0,48
471,584	0,48
472,038	0,48
472,491	0,48
472,945	0,48
473,399	0,48
473,852	0,48
474,306	0,48
474,76	0,48
475,213	0,48
475,667	0,48
476,12	0,49
476,574	0,49
477,027	0,49
477,481	0,49
477,934	0,49
478,388	0,49
478,841	0,49
479,294	0,49
479,748	0,49
480,201	0,49
480,654	0,5
481,107	0,5
481,561	0,5
482,014	0,5
482,467	0,5
482,92	0,5
483,373	0,5
483,826	0,5
484,279	0,5
484,732	0,51
485,185	0,51
485,638	0,51
486,091	0,51
486,544	0,51
486,997	0,51
487,449	0,51
487,902	0,51
488,355	0,52
488,808	0,52
489,26	0,52
489,713	0,52
490,166	0,52
490,618	0,52
491,071	0,53
491,523	0,53
491,976	0,53
492,429	0,53
492,881	0,54
493,333	0,54
493,786	0,54
494,238	0,54
494,691	0,54
495,143	0,55
495,595	0,55
496,048	0,55
496,5	0,55
496,952	0,56
497,404	0,56
497,856	0,56
498,309	0,56
498,761	0,57
499,213	0,57
499,665	0,57
500,117	0,57
500,569	0,58
501,021	0,58
501,473	0,58
501,925	0,58
502,377	0,59
502,828	0,59
503,28	0,59
503,732	0,6
504,184	0,6
504,636	0,6
505,087	0,6
505,539	0,61
505,991	0,61
506,442	0,61
506,894	0,61
507,345	0,62
507,797	0,62
508,249	0,62
508,7	0,63
509,151	0,63
509,603	0,63
510,054	0,63
510,506	0,64
510,957	0,64
511,408	0,64
511,86	0,64
512,311	0,65
512,762	0,65
513,213	0,65
513,665	0,65
514,116	0,66
514,567	0,66
515,018	0,66
515,469	0,66
515,92	0,67
516,371	0,67
516,822	0,67
517,273	0,67
517,724	0,68
518,175	0,68
518,626	0,68
519,076	0,68
519,527	0,68
519,978	0,68
520,429	0,69
520,88	0,69
521,33	0,69
521,781	0,69
522,232	0,69
522,682	0,69
523,133	0,69
523,583	0,7
524,034	0,7
524,484	0,7
524,935	0,7
525,385	0,7
525,836	0,7
526,286	0,7
526,736	0,7
527,187	0,7
527,637	0,7
528,087	0,7
528,538	0,7
528,988	0,7
529,438	0,7
529,888	0,7
530,338	0,7
530,788	0,7
531,238	0,7
531,688	0,69
532,139	0,69
532,589	0,69
533,038	0,69
533,488	0,69
533,938	0,69
534,388	0,69
534,838	0,69
535,288	0,69
535,738	0,68
536,187	0,68
536,637	0,68
537,087	0,68
537,537	0,68
537,986	0,67
538,436	0,67
538,885	0,67
539,335	0,66
539,785	0,66
540,234	0,66
540,684	0,66
541,133	0,65
541,582	0,65
542,032	0,65
542,481	0,64
542,931	0,64
543,38	0,64
543,829	0,64
544,278	0,63
544,728	0,63
545,177	0,63
545,626	0,62
546,075	0,62
546,524	0,62
546,973	0,62
547,422	0,61
547,871	0,61
548,32	0,61
548,769	0,61
549,218	0,61
549,667	0,6
550,116	0,6
550,565	0,6
551,014	0,6
551,463	0,6
551,911	0,59
552,36	0,59
552,809	0,59
553,258	0,58
553,706	0,58
554,155	0,58
554,603	0,58
555,052	0,58
555,501	0,57
555,949	0,57
556,398	0,57
556,846	0,56
557,294	0,56
557,743	0,56
558,191	0,56
558,64	0,55
559,088	0,55
559,536	0,55
559,985	0,54
560,433	0,54
560,881	0,54
561,329	0,53
561,777	0,53
562,225	0,53
562,674	0,53
563,122	0,53
563,57	0,52
564,018	0,52
564,466	0,52
564,914	0,52
565,362	0,51
565,809	0,51
566,257	0,51
566,705	0,5
567,153	0,5
567,601	0,5
568,048	0,5
568,496	0,49
568,944	0,49
569,392	0,49
569,839	0,49
570,287	0,49
570,734	0,48
571,182	0,48
571,63	0,48
572,077	0,48
572,525	0,47
572,972	0,47
573,419	0,47
573,867	0,47
574,314	0,46
574,761	0,46
575,209	0,46
575,656	0,46
576,103	0,46
576,551	0,46
576,998	0,45
577,445	0,45
577,892	0,45
578,339	0,45
578,786	0,45
579,233	0,45
579,68	0,44
580,127	0,44
580,574	0,44
581,021	0,44
581,468	0,44
581,915	0,44
582,362	0,43
582,809	0,43
583,255	0,43
583,702	0,43
584,149	0,43
584,596	0,43
585,042	0,42
585,489	0,42
585,936	0,42
586,382	0,42
586,829	0,42
587,275	0,42
587,722	0,42
588,168	0,42
588,615	0,41
589,061	0,41
589,508	0,41
589,954	0,41
590,4	0,41
590,847	0,41
591,293	0,41
591,739	0,41
592,185	0,41
592,632	0,41
593,078	0,4
593,524	0,4
593,97	0,4
594,416	0,4
594,862	0,4
595,308	0,4
595,754	0,4
596,2	0,4
596,646	0,4
597,092	0,39
597,538	0,39
597,984	0,39
598,43	0,39
598,876	0,39
599,321	0,39
599,767	0,39
600,213	0,39
600,659	0,39
601,104	0,39
601,55	0,39
601,995	0,39
602,441	0,38
602,887	0,38
603,332	0,38
603,778	0,38
604,223	0,38
604,668	0,38
605,114	0,38
605,559	0,38
606,005	0,38
606,45	0,38
606,895	0,38
607,341	0,38
607,786	0,38
608,231	0,38
608,676	0,37
609,121	0,37
609,566	0,37
610,012	0,36
610,457	0,36
610,902	0,36
611,347	0,36
611,792	0,35
612,237	0,35
612,682	0,35
613,127	0,35
613,571	0,35
614,016	0,35
614,461	0,36
614,906	0,36
615,351	0,36
615,795	0,36
616,24	0,36
616,685	0,36
617,129	0,36
617,574	0,36
618,019	0,36
618,463	0,36
618,908	0,36
619,352	0,36
619,797	0,36
620,241	0,36
620,686	0,36
621,13	0,36
621,574	0,36
622,019	0,36
622,463	0,36
622,907	0,35
623,352	0,35
623,796	0,35
624,24	0,35
624,684	0,35
625,128	0,35
625,572	0,35
626,016	0,35
626,461	0,35
626,905	0,35
627,349	0,35
627,793	0,35
628,236	0,35
628,68	0,35
629,124	0,35
629,568	0,35
630,012	0,35
630,456	0,35
630,9	0,35
631,343	0,35
631,787	0,35
632,231	0,35
632,674	0,35
633,118	0,35
633,562	0,35
634,005	0,35
634,449	0,35
634,892	0,35
635,336	0,35
635,779	0,35
636,223	0,35
636,666	0,34
637,109	0,34
637,553	0,34
637,996	0,34
638,439	0,34
638,883	0,34
639,326	0,34
639,769	0,34
640,212	0,34
640,655	0,34
641,099	0,34
641,542	0,34
641,985	0,34
642,428	0,34
642,871	0,34
643,314	0,34
643,757	0,34
644,2	0,34
644,643	0,34
645,085	0,34
645,528	0,34
645,971	0,34
646,414	0,34
646,857	0,34
647,299	0,34
647,742	0,33
648,185	0,33
648,627	0,33
649,07	0,33
649,513	0,33
649,955	0,33
650,398	0,33
650,84	0,33
651,283	0,33
651,725	0,33
652,168	0,33
652,61	0,33
653,052	0,33
653,495	0,33
653,937	0,26
654,379	0,21
654,821	0,21
655,264	0,21
655,706	0,21
656,148	0,21
656,59	0,21
657,032	0,21
657,474	0,21
657,916	0,21
658,358	0,21
658,8	0,26
659,242	0,33
659,684	0,33
660,126	0,33
660,568	0,33
661,01	0,33
661,452	0,33
661,894	0,33
662,335	0,33
662,777	0,33
663,219	0,33
663,661	0,33
664,102	0,33
664,544	0,33
664,985	0,33
665,427	0,33
665,869	0,33
666,31	0,33
666,752	0,33
667,193	0,33
667,634	0,33
668,076	0,33
668,517	0,33
668,959	0,33
669,4	0,33
669,841	0,33
670,282	0,33
670,724	0,33
671,165	0,33
671,606	0,33
672,047	0,33
672,488	0,33
672,929	0,33
673,37	0,33
673,811	0,32
674,252	0,32
674,693	0,32
675,134	0,32
675,575	0,32
676,016	0,32
676,457	0,32
676,898	0,32
677,339	0,32
677,78	0,32
678,22	0,32
678,661	0,32
679,102	0,32
679,542	0,32
679,983	0,32
680,424	0,32
680,864	0,32
681,305	0,32
681,745	0,32
682,186	0,32
682,626	0,32
683,067	0,32
683,507	0,32
683,948	0,32
684,388	0,32
684,828	0,32
685,269	0,32
685,709	0,32
686,149	0,32
686,589	0,32
687,029	0,31
687,47	0,31
687,91	0,31
688,35	0,31
688,79	0,31
689,23	0,31
689,67	0,31
690,11	0,31
690,55	0,31
690,99	0,31
691,43	0,31
691,87	0,31
692,31	0,31
692,749	0,31
693,189	0,31
693,629	0,31
694,069	0,31
694,508	0,31
694,948	0,31
695,388	0,31
695,827	0,31
696,267	0,31
696,706	0,31
697,146	0,31
697,586	0,31
698,025	0,31
698,464	0,31
698,904	0,31
699,343	0,31
699,783	0,31
700,222	0,31
700,661	0,31
701,101	0,31
701,54	0,31
701,979	0,31
702,418	0,31
702,857	0,31
703,297	0,31
703,736	0,31
704,175	0,31
704,614	0,31
705,053	0,31
705,492	0,31
705,931	0,31
706,37	0,31
706,809	0,31
707,248	0,3
707,687	0,3
708,125	0,3
708,564	0,3
709,003	0,3
709,442	0,3
709,88	0,3
710,319	0,3
710,758	0,3
711,196	0,3
711,635	0,3
712,074	0,3
712,512	0,3
712,951	0,3
713,389	0,3
713,828	0,3
714,266	0,3
714,705	0,3
715,143	0,3
715,581	0,3
716,02	0,3
716,458	0,3
716,896	0,29
717,334	0,29
717,773	0,29
718,211	0,29
718,649	0,29
719,087	0,29
719,525	0,29
719,963	0,29
720,401	0,29
720,839	0,29
721,277	0,29
721,715	0,29
722,153	0,29
722,591	0,29
723,029	0,29
723,467	0,29
723,905	0,29
724,342	0,29
724,78	0,29
725,218	0,29
725,656	0,29
726,093	0,29
726,531	0,29
726,969	0,29
727,406	0,29
727,844	0,29
728,281	0,29
728,719	0,29
729,156	0,29
729,594	0,29
730,031	0,29
730,469	0,29
730,906	0,29
731,343	0,29
731,781	0,29
732,218	0,29
732,655	0,29
733,092	0,29
733,53	0,29
733,967	0,29
734,404	0,29
734,841	0,29
735,278	0,29
735,715	0,29
736,152	0,29
736,589	0,29
737,026	0,29
737,463	0,29
737,9	0,29
738,337	0,29
738,774	0,28
739,211	0,28
739,647	0,28
740,084	0,28
740,521	0,28
740,958	0,28
741,394	0,28
741,831	0,28
742,268	0,28
742,704	0,28
743,141	0,28
743,577	0,28
744,014	0,28
744,45	0,27
744,887	0,27
745,323	0,27
745,76	0,27
746,196	0,27
746,632	0,27
747,069	0,27
747,505	0,27
747,941	0,27
748,378	0,27
748,814	0,27
749,25	0,27
749,686	0,27
750,122	0,27
750,558	0,28
750,994	0,28
751,43	0,28
751,866	0,28
752,302	0,28
752,738	0,28
753,174	0,28
753,61	0,28
754,046	0,29
754,482	0,29
754,918	0,29
755,354	0,29
755,789	0,29
756,225	0,29
756,661	0,29
757,096	0,28
757,532	0,28
757,968	0,28
758,403	0,28
758,839	0,28
759,274	0,28
759,71	0,27
760,145	0,27
760,581	0,27
761,016	0,26
761,452	0,26
761,887	0,26
762,322	0,25
762,758	0,25
763,193	0,25
763,628	0,24
764,063	0,24
764,499	0,23
764,934	0,23
765,369	0,22
765,804	0,22
766,239	0,21
766,674	0,21
767,109	0,2
767,544	0,2
767,979	0,19
768,414	0,18
768,849	0,17
769,284	0,17
769,719	0,16
770,154	0,15
770,588	0,15
771,023	0,14
771,458	0,13
771,893	0,12
772,327	0,11
772,762	0,1
773,197	0,1
773,631	0,09
774,066	0,08
774,5	0,08
774,935	0,07
775,369	0,06
775,804	0,05
776,238	0,04
776,673	0,03
777,107	0,02
777,541	0,02
777,976	0,01
778,41	0
778,844	-0,01
779,279	-0,01
779,713	-0,02
780,147	-0,03
780,581	-0,04
781,015	-0,05
781,449	-0,05
781,883	-0,05
782,317	-0,07
782,751	-0,08
783,185	-0,09
783,619	-0,09
784,053	-0,1
784,487	-0,11
784,921	-0,11
785,355	-0,12
785,789	-0,13
786,223	-0,14
786,656	-0,15
787,09	-0,15
787,524	-0,16
787,957	-0,16
788,391	-0,18
788,825	-0,19
789,258	-0,21
789,692	-0,22
790,125	-0,23
790,559	-0,25
790,992	-0,27
791,426	-0,29
791,859	-0,31
792,293	-0,34
792,726	-0,36
793,159	-0,38
793,593	-0,39
794,026	-0,42
794,459	-0,45
794,892	-0,48
795,326	-0,5
795,759	-0,54
796,192	-0,58
796,625	-0,63
797,058	-0,65
797,491	-0,69
797,924	-0,73
798,357	-0,78
798,79	-0,82
799,223	-0,86
799,656	-0,92
800,089	-0,96
800,522	-1,01
800,955	-1,05
801,387	-1,1
801,82	-1,16
802,253	-1,22
802,686	-1,3
803,118	-1,35
803,551	-1,41
803,984	-1,45
804,416	-1,49
804,849	-1,52
805,281	-1,64
805,714	-1,99
806,146	-2,45
806,579	-2,71
807,011	-2,87
807,444	-2,96
807,876	-3,05
808,308	-3,09
808,741	-3,12
809,173	-3,17
809,605	-3,19
810,037	-3,27
810,47	-3,19
810,902	-2,99
811,334	-2,84
811,766	-2,69
812,198	-2,46
812,63	-2,03
813,062	-1,81
813,494	-1,71
813,926	-1,62
814,358	-1,57
814,79	-1,48
815,222	-1,42
815,654	-1,37
816,086	-1,31
816,518	-1,25
816,949	-1,2
817,381	-1,16
817,813	-1,14
818,245	-1,1
818,676	-1,06
819,108	-1,03
819,54	-1,01
819,971	-0,99
820,403	-0,94
820,834	-0,92
821,266	-0,88
821,697	-0,85
822,129	-0,84
822,56	-0,81
822,991	-0,79
823,423	-0,76
823,854	-0,75
824,286	-0,73
824,717	-0,72
825,148	-0,71
825,579	-0,7
826,01	-0,69
826,442	-0,68
826,873	-0,66
827,304	-0,63
827,735	-0,62
828,166	-0,62
828,597	-0,62
829,028	-0,61
829,459	-0,61
829,89	-0,61
830,321	-0,56
830,752	-0,57
831,183	-0,55
831,613	-0,55
832,044	-0,54
832,475	-0,53
832,906	-0,55
833,336	-0,55
833,767	-0,56
834,198	-0,55
834,628	-0,53
835,059	-0,56
835,49	-0,56
835,92	-0,53
836,351	-0,54
836,781	-0,55
837,212	-0,56
837,642	-0,56
838,072	-0,54
838,503	-0,54
838,933	-0,52
839,364	-0,52
839,794	-0,51
840,224	-0,5
840,654	-0,55
841,085	-0,55
841,515	-0,53
841,945	-0,52
842,375	-0,48
842,805	-0,47
843,235	-0,46
843,665	-0,47
844,095	-0,46
844,525	-0,48
844,955	-0,48
845,385	-0,46
845,815	-0,44
846,245	-0,47
846,675	-0,47
847,105	-0,49
847,534	-0,49
847,964	-0,48
848,394	-0,47
848,824	-0,49
849,253	-0,49
849,683	-0,49
850,112	-0,5
850,542	-0,53
850,972	-0,53
851,401	-0,51
851,831	-0,49
852,26	-0,49
852,69	-0,54
853,119	-0,54
853,548	-0,54
853,978	-0,55
854,407	-0,53
854,836	-0,53
855,266	-0,51
855,695	-0,53
856,124	-0,53
856,553	-0,55
856,983	-0,56
857,412	-0,54
857,841	-0,55
858,27	-0,56
858,699	-0,56
859,128	-0,6
859,557	-0,61
859,986	-0,62
860,415	-0,6
860,844	-0,58
861,273	-0,57
861,702	-0,58
862,13	-0,57
862,559	-0,58
862,988	-0,56
863,417	-0,55
863,845	-0,55
864,274	-0,55
864,703	-0,54
865,131	-0,55
865,56	-0,55
865,989	-0,58
866,417	-0,55
866,846	-0,55
867,274	-0,54
867,703	-0,56
868,131	-0,57
868,559	-0,57
868,988	-0,59
869,416	-0,58
869,844	-0,6
870,273	-0,63
870,701	-0,61
871,129	-0,65
871,557	-0,67
871,986	-0,67
872,414	-0,69
872,842	-0,65
873,27	-0,64
873,698	-0,6
874,126	-0,64
874,554	-0,63
874,982	-0,62
875,41	-0,65
875,838	-0,6
876,266	-0,58
876,694	-0,58
877,122	-0,57
877,549	-0,62
877,977	-0,59
878,405	-0,62
878,833	-0,59
879,26	-0,57
879,688	-0,57
880,116	-0,54
880,543	-0,52
880,971	-0,52
881,399	-0,55
881,826	-0,55
882,254	-0,54
882,681	-0,57
883,109	-0,55
883,536	-0,56
883,963	-0,57
884,391	-0,55
884,818	-0,54
885,245	-0,58
885,673	-0,59
886,1	-0,57
886,527	-0,57
886,954	-0,54
887,381	-0,55
887,809	-0,55
888,236	-0,57
888,663	-0,57
889,09	-0,61
889,517	-0,63
889,944	-0,63
890,371	-0,61
890,798	-0,63
891,225	-0,62
891,652	-0,64
892,078	-0,62
892,505	-0,66
892,932	-0,61
893,359	-0,62
893,786	-0,62
894,212	-0,59
894,639	-0,6
895,066	-0,63
895,492	-0,56
895,919	-0,57
896,346	-0,57
896,772	-0,56
897,199	-0,52
897,625	-0,55
898,052	-0,51
898,478	-0,5
898,904	-0,52
899,331	-0,51
899,757	-0,54
900,183	-0,57
900,61	-0,55
901,036	-0,55
901,462	-0,55
901,888	-0,55
902,315	-0,54
902,741	-0,59
903,167	-0,57
903,593	-0,6
904,019	-0,58
904,445	-0,54
904,871	-0,56
905,297	-0,59
905,723	-0,59
906,149	-0,58
906,575	-0,59
907,001	-0,59
907,427	-0,56
907,852	-0,56
908,278	-0,56
908,704	-0,54
909,13	-0,54
909,555	-0,53
909,981	-0,53
910,407	-0,53
910,832	-0,53
911,258	-0,53
911,684	-0,53
912,109	-0,54
912,535	-0,55
912,96	-0,51
913,386	-0,55
913,811	-0,55
914,236	-0,56
914,662	-0,54
915,087	-0,57
915,512	-0,57
915,938	-0,59
916,363	-0,58
916,788	-0,59
917,213	-0,58
917,639	-0,64
918,064	-0,61
918,489	-0,62
918,914	-0,63
919,339	-0,64
919,764	-0,61
920,189	-0,61
920,614	-0,63
921,039	-0,62
921,464	-0,58
921,889	-0,61
922,314	-0,61
922,738	-0,64
923,163	-0,64
923,588	-0,64
924,013	-0,62
924,437	-0,63
924,862	-0,64
925,287	-0,6
925,711	-0,62
926,136	-0,64
926,561	-0,61
926,985	-0,6
927,41	-0,57
927,834	-0,55
928,259	-0,52
928,683	-0,51
929,108	-0,48
929,532	-0,49
929,956	-0,48
930,381	-0,47
930,805	-0,47
931,229	-0,47
931,653	-0,46
932,078	-0,46
932,502	-0,47
932,926	-0,48
933,35	-0,49
933,774	-0,48
934,198	-0,46
934,622	-0,45
935,046	-0,46
935,47	-0,46
935,894	-0,46
936,318	-0,46
936,742	-0,46
937,166	-0,47
937,59	-0,46
938,014	-0,48
938,437	-0,49
938,861	-0,5
939,285	-0,52
939,709	-0,51
940,132	-0,51
940,556	-0,51
940,98	-0,5
941,403	-0,49
941,827	-0,49
942,25	-0,5
942,674	-0,49
943,097	-0,47
943,521	-0,48
943,944	-0,49
944,368	-0,48
944,791	-0,47
945,214	-0,48
945,638	-0,49
946,061	-0,52
946,484	-0,52
946,907	-0,5
947,331	-0,5
947,754	-0,54
948,177	-0,51
948,6	-0,51
949,023	-0,51
949,446	-0,5
949,869	-0,49
950,292	-0,49
950,715	-0,46
951,138	-0,45
951,561	-0,44
951,984	-0,44
952,407	-0,44
952,83	-0,43
953,252	-0,39
953,675	-0,39
954,098	-0,39
954,521	-0,38
954,943	-0,37
955,366	-0,38
955,789	-0,36
956,211	-0,38
956,634	-0,37
957,056	-0,34
957,479	-0,35
957,902	-0,38
958,324	-0,37
958,746	-0,36
959,169	-0,36
959,591	-0,36
960,014	-0,37
960,436	-0,37
960,858	-0,36
961,281	-0,37
961,703	-0,39
962,125	-0,39
962,547	-0,38
962,969	-0,39
963,391	-0,39
963,814	-0,41
964,236	-0,41
964,658	-0,38
965,08	-0,39
965,502	-0,38
965,924	-0,35
966,346	-0,35
966,768	-0,34
967,189	-0,36
967,611	-0,36
968,033	-0,35
968,455	-0,33
968,877	-0,34
969,298	-0,35
969,72	-0,35
970,142	-0,35
970,563	-0,36
970,985	-0,34
971,407	-0,32
971,828	-0,3
972,25	-0,29
972,671	-0,27
973,093	-0,27
973,514	-0,25
973,936	-0,24
974,357	-0,23
974,778	-0,23
975,2	-0,22
975,621	-0,22
976,042	-0,21
976,464	-0,2
976,885	-0,19
977,306	-0,19
977,727	-0,18
978,148	-0,17
978,57	-0,16
978,991	-0,14
979,412	-0,13
979,833	-0,12
980,254	-0,12
980,675	-0,12
981,096	-0,11
981,517	-0,1
981,937	-0,1
982,358	-0,08
982,779	-0,07
983,2	-0,07
983,621	-0,07
984,042	-0,07
984,462	-0,06
984,883	-0,05
985,304	-0,03
985,724	-0,02
986,145	-0,01
986,565	0,01
986,986	0,01
987,407	0,02
987,827	0,03
988,248	0,05
988,668	0,06
989,088	0,07
989,509	0,08
989,929	0,09
990,35	0,09
990,77	0,1
991,19	0,1
991,61	0,11
992,031	0,11
992,451	0,12
992,871	0,13
993,291	0,14
993,711	0,14
994,131	0,14
994,551	0,15
994,971	0,15
995,391	0,16
995,811	0,16
996,231	0,17
996,651	0,17
997,071	0,18
997,491	0,18
997,911	0,19
998,331	0,2
998,75	0,2
999,17	0,2
999,59	0,21
1000,009	0,21
1000,429	0,21
1000,849	0,22
1001,268	0,22
1001,688	0,22
1002,107	0,23
1002,527	0,23
1002,946	0,23
1003,366	0,23
1003,785	0,23
1004,205	0,24
1004,624	0,24
1005,044	0,24
1005,463	0,24
1005,882	0,24
1006,301	0,24
1006,721	0,24
1007,14	0,24
1007,559	0,24
1007,978	0,24
1008,397	0,24
1008,816	0,24
1009,235	0,24
1009,655	0,24
1010,074	0,24
1010,492	0,24
1010,911	0,24
1011,33	0,24
1011,749	0,24
1012,168	0,24
1012,587	0,23
1013,006	0,23
1013,425	0,23
1013,843	0,23
1014,262	0,23
1014,681	0,23
1015,099	0,23
1015,518	0,23
1015,937	0,23
1016,355	0,23
1016,774	0,23
1017,192	0,23
1017,611	0,23
1018,029	0,23
1018,448	0,24
1018,866	0,24
1019,285	0,24
1019,703	0,24
1020,121	0,24
1020,54	0,24
1020,958	0,24
1021,376	0,24
1021,794	0,24
1022,213	0,24
1022,631	0,24
1023,049	0,24
1023,467	0,24
1023,885	0,24
1024,303	0,24
1024,721	0,23
1025,139	0,23
1025,557	0,23
1025,975	0,23
1026,393	0,23
1026,811	0,23
1027,229	0,23
1027,647	0,23
1028,065	0,23
1028,482	0,23
1028,9	0,23
1029,318	0,23
1029,735	0,23
1030,153	0,23
1030,571	0,23
1030,988	0,23
1031,406	0,23
1031,823	0,23
1032,241	0,23
1032,659	0,23
1033,076	0,23
1033,493	0,23
1033,911	0,23
1034,328	0,23
1034,746	0,23
1035,163	0,23
1035,58	0,23
1035,997	0,23
1036,415	0,23
1036,832	0,23
1037,249	0,23
1037,666	0,23
1038,083	0,23
1038,501	0,23
1038,918	0,22
1039,335	0,22
1039,752	0,22
1040,169	0,22
1040,586	0,22
1041,003	0,22
1041,419	0,22
1041,836	0,22
1042,253	0,22
1042,67	0,22
1043,087	0,22
1043,504	0,22
1043,92	0,22
1044,337	0,22
1044,754	0,22
1045,17	0,22
1045,587	0,22
1046,004	0,22
1046,42	0,22
1046,837	0,22
1047,253	0,22
1047,67	0,22
1048,086	0,21
1048,503	0,21
1048,919	0,21
1049,335	0,21
1049,752	0,21
1050,168	0,21
1050,584	0,21
1051,001	0,22
1051,417	0,21
1051,833	0,22
1052,249	0,22
1052,665	0,22
1053,081	0,22
1053,497	0,22
1053,914	0,22
1054,33	0,22
1054,746	0,22
1055,162	0,22
1055,578	0,22
1055,993	0,22
1056,409	0,22
1056,825	0,22
1057,241	0,22
1057,657	0,22
1058,073	0,22
1058,488	0,22
1058,904	0,22
1059,32	0,22
1059,736	0,22
1060,151	0,22
1060,567	0,22
1060,982	0,22
1061,398	0,22
1061,813	0,22
1062,229	0,22
1062,644	0,22
1063,06	0,22
1063,475	0,22
1063,891	0,22
1064,306	0,22
1064,721	0,22
1065,137	0,22
1065,552	0,22
1065,967	0,22
1066,382	0,22
1066,798	0,22
1067,213	0,22
1067,628	0,22
1068,043	0,22
1068,458	0,22
1068,873	0,22
1069,288	0,22
1069,703	0,22
1070,118	0,22
1070,533	0,22
1070,948	0,22
1071,363	0,22
1071,778	0,23
1072,193	0,23
1072,607	0,23
1073,022	0,23
1073,437	0,23
1073,852	0,23
1074,266	0,23
1074,681	0,23
1075,096	0,23
1075,51	0,23
1075,925	0,23
1076,339	0,23
1076,754	0,23
1077,168	0,23
1077,583	0,23
1077,997	0,23
1078,412	0,22
1078,826	0,22
1079,24	0,22
1079,655	0,22
1080,069	0,22
1080,483	0,22
1080,897	0,22
1081,312	0,22
1081,726	0,22
1082,14	0,22
1082,554	0,22
1082,968	0,22
1083,382	0,22
1083,796	0,21
1084,21	0,21
1084,624	0,21
1085,038	0,21
1085,452	0,21
1085,866	0,21
1086,28	0,21
1086,694	0,21
1087,108	0,21
1087,521	0,21
1087,935	0,2
1088,349	0,2
1088,763	0,2
1089,176	0,2
1089,59	0,2
1090,004	0,2
1090,417	0,2
1090,831	0,2
1091,244	0,19
1091,658	0,19
1092,071	0,19
1092,485	0,19
1092,898	0,19
1093,312	0,18
1093,725	0,18
1094,138	0,18
1094,552	0,18
1094,965	0,18
1095,378	0,18
1095,791	0,18
1096,205	0,17
1096,618	0,17
1097,031	0,17
1097,444	0,17
1097,857	0,17
1098,27	0,17
1098,683	0,17
1099,096	0,17
1099,509	0,16
1099,922	0,16
1100,335	0,16
1100,748	0,15
1101,161	0,15
1101,574	0,15
1101,986	0,14
1102,399	0,14
1102,812	0,14
1103,225	0,14
1103,637	0,13
1104,05	0,13
1104,463	0,13
1104,875	0,13
1105,288	0,13
1105,7	0,13
1106,113	0,13
1106,525	0,12
1106,938	0,12
1107,35	0,12
1107,763	0,12
1108,175	0,11
1108,588	0,11
1109	0,11
1109,412	0,11
1109,824	0,1
1110,237	0,1
1110,649	0,1
1111,061	0,1
