Data from 18C-808nm-8A_Absorbance__1061__01061.txt Node

Date: Mon Jul 17 17:00:36 CEST 2023
User: Laser008
Spectrometer: MAYP115816
Trigger mode: 0
Integration Time (sec): 2,500000E-1
Scans to average: 10
Electric dark correction enabled: true
Nonlinearity correction enabled: true
Boxcar width: 5
XAxis mode: Wavelengths
Number of Pixels in Spectrum: 2068
>>>>>Begin Spectral Data<<<<<
198,914	-0,71
199,384	-0,48
199,855	-0,35
200,325	-0,28
200,796	-0,26
201,266	-0,21
201,737	-0,21
202,207	-0,2
202,677	-0,19
203,147	-0,18
203,618	-0,16
204,088	-0,14
204,558	-0,13
205,028	-0,13
205,498	-0,14
205,968	-0,14
206,439	-0,15
206,909	-0,14
207,379	-0,14
207,849	-0,14
208,319	-0,14
208,789	-0,14
209,258	-0,13
209,728	-0,15
210,198	-0,14
210,668	-0,14
211,138	-0,13
211,608	-0,12
212,077	-0,12
212,547	-0,12
213,017	-0,12
213,486	-0,13
213,956	-0,14
214,426	-0,15
214,895	-0,14
215,365	-0,14
215,834	-0,15
216,304	-0,17
216,773	-0,17
217,243	-0,18
217,712	-0,19
218,181	-0,19
218,651	-0,19
219,12	-0,19
219,589	-0,19
220,058	-0,18
220,528	-0,19
220,997	-0,19
221,466	-0,2
221,935	-0,2
222,404	-0,19
222,873	-0,18
223,342	-0,18
223,812	-0,18
224,281	-0,18
224,749	-0,19
225,218	-0,21
225,687	-0,21
226,156	-0,2
226,625	-0,18
227,094	-0,18
227,563	-0,18
228,031	-0,2
228,5	-0,2
228,969	-0,21
229,438	-0,2
229,906	-0,18
230,375	-0,17
230,844	-0,16
231,312	-0,16
231,781	-0,18
232,249	-0,18
232,718	-0,19
233,186	-0,17
233,655	-0,17
234,123	-0,17
234,591	-0,18
235,06	-0,18
235,528	-0,18
235,996	-0,18
236,465	-0,18
236,933	-0,18
237,401	-0,17
237,869	-0,16
238,337	-0,17
238,805	-0,17
239,274	-0,17
239,742	-0,16
240,21	-0,16
240,678	-0,16
241,146	-0,15
241,614	-0,15
242,081	-0,15
242,549	-0,15
243,017	-0,15
243,485	-0,14
243,953	-0,14
244,421	-0,13
244,888	-0,13
245,356	-0,13
245,824	-0,13
246,291	-0,14
246,759	-0,14
247,227	-0,15
247,694	-0,14
248,162	-0,13
248,629	-0,12
249,097	-0,13
249,564	-0,13
250,032	-0,14
250,499	-0,14
250,967	-0,14
251,434	-0,14
251,901	-0,14
252,369	-0,14
252,836	-0,15
253,303	-0,17
253,77	-0,18
254,237	-0,18
254,705	-0,18
255,172	-0,18
255,639	-0,18
256,106	-0,19
256,573	-0,19
257,04	-0,2
257,507	-0,2
257,974	-0,2
258,441	-0,18
258,908	-0,18
259,375	-0,2
259,841	-0,2
260,308	-0,2
260,775	-0,2
261,242	-0,19
261,709	-0,2
262,175	-0,21
262,642	-0,2
263,109	-0,2
263,575	-0,22
264,042	-0,21
264,508	-0,2
264,975	-0,22
265,441	-0,22
265,908	-0,23
266,374	-0,23
266,841	-0,22
267,307	-0,22
267,773	-0,21
268,24	-0,21
268,706	-0,21
269,172	-0,21
269,639	-0,22
270,105	-0,2
270,571	-0,21
271,037	-0,2
271,503	-0,21
271,969	-0,21
272,435	-0,2
272,902	-0,23
273,368	-0,24
273,834	-0,24
274,3	-0,24
274,765	-0,24
275,231	-0,24
275,697	-0,23
276,163	-0,23
276,629	-0,23
277,095	-0,23
277,56	-0,23
278,026	-0,23
278,492	-0,21
278,958	-0,21
279,423	-0,22
279,889	-0,22
280,354	-0,22
280,82	-0,22
281,286	-0,23
281,751	-0,23
282,217	-0,23
282,682	-0,23
283,147	-0,22
283,613	-0,22
284,078	-0,23
284,544	-0,23
285,009	-0,24
285,474	-0,23
285,939	-0,25
286,405	-0,25
286,87	-0,25
287,335	-0,24
287,8	-0,24
288,265	-0,23
288,73	-0,24
289,195	-0,26
289,66	-0,26
290,125	-0,24
290,59	-0,24
291,055	-0,23
291,52	-0,23
291,985	-0,23
292,45	-0,24
292,915	-0,24
293,38	-0,25
293,844	-0,22
294,309	-0,2
294,774	-0,2
295,239	-0,21
295,703	-0,21
296,168	-0,19
296,632	-0,19
297,097	-0,18
297,562	-0,17
298,026	-0,17
298,491	-0,17
298,955	-0,18
299,419	-0,18
299,884	-0,18
300,348	-0,17
300,813	-0,16
301,277	-0,17
301,741	-0,18
302,205	-0,18
302,67	-0,18
303,134	-0,18
303,598	-0,18
304,062	-0,16
304,526	-0,16
304,99	-0,18
305,454	-0,18
305,919	-0,18
306,383	-0,17
306,847	-0,16
307,31	-0,16
307,774	-0,17
308,238	-0,16
308,702	-0,15
309,166	-0,17
309,63	-0,17
310,094	-0,14
310,557	-0,14
311,021	-0,14
311,485	-0,14
311,948	-0,14
312,412	-0,14
312,876	-0,13
313,339	-0,14
313,803	-0,15
314,266	-0,15
314,73	-0,15
315,193	-0,15
315,657	-0,14
316,12	-0,14
316,584	-0,13
317,047	-0,13
317,51	-0,12
317,973	-0,11
318,437	-0,1
318,9	-0,09
319,363	-0,08
319,826	-0,08
320,29	-0,09
320,753	-0,08
321,216	-0,09
321,679	-0,09
322,142	-0,08
322,605	-0,09
323,068	-0,09
323,531	-0,09
323,994	-0,09
324,457	-0,09
324,92	-0,08
325,382	-0,07
325,845	-0,07
326,308	-0,06
326,771	-0,05
327,233	-0,05
327,696	-0,04
328,159	-0,03
328,622	-0,03
329,084	-0,03
329,547	-0,02
330,009	-0,02
330,472	-0,01
330,934	-0,01
331,397	-0
331,859	-0
332,322	-0
332,784	-0
333,246	0
333,709	-0
334,171	0
334,633	0,01
335,096	0,01
335,558	0,01
336,02	0,01
336,482	0,01
336,944	0,02
337,406	0,02
337,868	0,03
338,331	0,03
338,793	0,04
339,255	0,04
339,717	0,04
340,178	0,04
340,64	0,05
341,102	0,06
341,564	0,06
342,026	0,07
342,488	0,08
342,949	0,08
343,411	0,1
343,873	0,12
344,335	0,14
344,796	0,17
345,258	0,19
345,719	0,22
346,181	0,25
346,643	0,27
347,104	0,29
347,566	0,31
348,027	0,32
348,488	0,33
348,95	0,34
349,411	0,35
349,873	0,36
350,334	0,37
350,795	0,38
351,256	0,39
351,718	0,39
352,179	0,39
352,64	0,39
353,101	0,39
353,562	0,4
354,023	0,4
354,484	0,4
354,945	0,4
355,406	0,4
355,867	0,4
356,328	0,4
356,789	0,4
357,25	0,4
357,711	0,4
358,172	0,41
358,633	0,41
359,093	0,41
359,554	0,41
360,015	0,41
360,476	0,41
360,936	0,41
361,397	0,41
361,858	0,41
362,318	0,41
362,779	0,41
363,239	0,41
363,7	0,41
364,16	0,41
364,621	0,41
365,081	0,41
365,541	0,41
366,002	0,41
366,462	0,41
366,922	0,41
367,383	0,41
367,843	0,41
368,303	0,41
368,763	0,41
369,223	0,41
369,684	0,41
370,144	0,41
370,604	0,41
371,064	0,41
371,524	0,41
371,984	0,41
372,444	0,41
372,904	0,41
373,363	0,41
373,823	0,41
374,283	0,41
374,743	0,41
375,203	0,41
375,663	0,41
376,122	0,41
376,582	0,41
377,042	0,41
377,501	0,41
377,961	0,41
378,42	0,41
378,88	0,41
379,34	0,41
379,799	0,4
380,259	0,4
380,718	0,4
381,177	0,4
381,637	0,4
382,096	0,4
382,555	0,4
383,015	0,4
383,474	0,4
383,933	0,4
384,393	0,4
384,852	0,4
385,311	0,4
385,77	0,4
386,229	0,4
386,688	0,4
387,147	0,4
387,606	0,4
388,065	0,4
388,524	0,4
388,983	0,4
389,442	0,4
389,901	0,4
390,36	0,4
390,819	0,4
391,277	0,4
391,736	0,4
392,195	0,4
392,654	0,4
393,112	0,4
393,571	0,4
394,03	0,4
394,488	0,4
394,947	0,4
395,405	0,4
395,864	0,4
396,322	0,4
396,781	0,4
397,239	0,4
397,698	0,4
398,156	0,4
398,614	0,4
399,073	0,4
399,531	0,39
399,989	0,39
400,447	0,39
400,905	0,39
401,364	0,39
401,822	0,39
402,28	0,39
402,738	0,39
403,196	0,39
403,654	0,39
404,112	0,39
404,57	0,39
405,028	0,39
405,486	0,39
405,944	0,39
406,402	0,39
406,859	0,39
407,317	0,39
407,775	0,39
408,233	0,39
408,691	0,39
409,148	0,39
409,606	0,39
410,064	0,39
410,521	0,39
410,979	0,39
411,436	0,39
411,894	0,39
412,351	0,39
412,809	0,39
413,266	0,39
413,724	0,39
414,181	0,39
414,638	0,39
415,096	0,39
415,553	0,39
416,01	0,39
416,467	0,39
416,925	0,39
417,382	0,39
417,839	0,39
418,296	0,39
418,753	0,39
419,21	0,39
419,667	0,39
420,124	0,39
420,581	0,39
421,038	0,38
421,495	0,38
421,952	0,38
422,409	0,38
422,866	0,39
423,322	0,39
423,779	0,39
424,236	0,39
424,693	0,39
425,149	0,39
425,606	0,39
426,063	0,39
426,519	0,39
426,976	0,39
427,433	0,39
427,889	0,39
428,346	0,38
428,802	0,38
429,258	0,38
429,715	0,38
430,171	0,38
430,628	0,38
431,084	0,38
431,54	0,38
431,997	0,38
432,453	0,38
432,909	0,38
433,365	0,38
433,821	0,38
434,277	0,38
434,734	0,38
435,19	0,38
435,646	0,38
436,102	0,38
436,558	0,38
437,014	0,38
437,47	0,38
437,925	0,38
438,381	0,38
438,837	0,38
439,293	0,38
439,749	0,38
440,205	0,38
440,66	0,38
441,116	0,38
441,572	0,38
442,027	0,38
442,483	0,38
442,939	0,38
443,394	0,38
443,85	0,38
444,305	0,38
444,761	0,38
445,216	0,38
445,672	0,38
446,127	0,38
446,582	0,38
447,038	0,38
447,493	0,38
447,948	0,38
448,403	0,38
448,859	0,38
449,314	0,38
449,769	0,38
450,224	0,38
450,679	0,38
451,134	0,38
451,589	0,38
452,044	0,38
452,499	0,38
452,954	0,38
453,409	0,38
453,864	0,38
454,319	0,38
454,774	0,38
455,229	0,38
455,684	0,38
456,138	0,38
456,593	0,38
457,048	0,38
457,503	0,38
457,957	0,38
458,412	0,38
458,866	0,38
459,321	0,38
459,776	0,38
460,23	0,38
460,685	0,38
461,139	0,38
461,593	0,38
462,048	0,38
462,502	0,38
462,957	0,38
463,411	0,39
463,865	0,39
464,319	0,39
464,774	0,39
465,228	0,39
465,682	0,39
466,136	0,39
466,59	0,39
467,044	0,39
467,499	0,39
467,953	0,39
468,407	0,39
468,861	0,39
469,315	0,39
469,768	0,39
470,222	0,39
470,676	0,39
471,13	0,39
471,584	0,39
472,038	0,39
472,491	0,39
472,945	0,39
473,399	0,39
473,852	0,39
474,306	0,39
474,76	0,39
475,213	0,39
475,667	0,39
476,12	0,4
476,574	0,4
477,027	0,4
477,481	0,4
477,934	0,4
478,388	0,4
478,841	0,4
479,294	0,4
479,748	0,4
480,201	0,4
480,654	0,4
481,107	0,41
481,561	0,41
482,014	0,41
482,467	0,41
482,92	0,41
483,373	0,41
483,826	0,41
484,279	0,41
484,732	0,41
485,185	0,41
485,638	0,41
486,091	0,41
486,544	0,42
486,997	0,42
487,449	0,42
487,902	0,42
488,355	0,42
488,808	0,42
489,26	0,42
489,713	0,42
490,166	0,43
490,618	0,43
491,071	0,43
491,523	0,43
491,976	0,43
492,429	0,43
492,881	0,44
493,333	0,44
493,786	0,44
494,238	0,44
494,691	0,44
495,143	0,44
495,595	0,45
496,048	0,45
496,5	0,45
496,952	0,45
497,404	0,45
497,856	0,45
498,309	0,46
498,761	0,46
499,213	0,46
499,665	0,46
500,117	0,47
500,569	0,47
501,021	0,47
501,473	0,47
501,925	0,47
502,377	0,48
502,828	0,48
503,28	0,48
503,732	0,48
504,184	0,49
504,636	0,49
505,087	0,49
505,539	0,49
505,991	0,49
506,442	0,5
506,894	0,5
507,345	0,5
507,797	0,5
508,249	0,51
508,7	0,51
509,151	0,51
509,603	0,51
510,054	0,51
510,506	0,52
510,957	0,52
511,408	0,52
511,86	0,52
512,311	0,52
512,762	0,53
513,213	0,53
513,665	0,53
514,116	0,53
514,567	0,53
515,018	0,54
515,469	0,54
515,92	0,54
516,371	0,54
516,822	0,54
517,273	0,55
517,724	0,55
518,175	0,55
518,626	0,55
519,076	0,55
519,527	0,55
519,978	0,56
520,429	0,56
520,88	0,56
521,33	0,56
521,781	0,56
522,232	0,56
522,682	0,56
523,133	0,56
523,583	0,57
524,034	0,57
524,484	0,57
524,935	0,57
525,385	0,57
525,836	0,57
526,286	0,57
526,736	0,57
527,187	0,57
527,637	0,57
528,087	0,57
528,538	0,57
528,988	0,57
529,438	0,57
529,888	0,57
530,338	0,57
530,788	0,57
531,238	0,57
531,688	0,57
532,139	0,57
532,589	0,57
533,038	0,57
533,488	0,57
533,938	0,56
534,388	0,56
534,838	0,56
535,288	0,56
535,738	0,56
536,187	0,56
536,637	0,56
537,087	0,56
537,537	0,55
537,986	0,55
538,436	0,55
538,885	0,55
539,335	0,55
539,785	0,54
540,234	0,54
540,684	0,54
541,133	0,54
541,582	0,53
542,032	0,53
542,481	0,53
542,931	0,53
543,38	0,52
543,829	0,52
544,278	0,52
544,728	0,52
545,177	0,52
545,626	0,51
546,075	0,51
546,524	0,51
546,973	0,51
547,422	0,51
547,871	0,5
548,32	0,5
548,769	0,5
549,218	0,5
549,667	0,5
550,116	0,5
550,565	0,5
551,014	0,5
551,463	0,5
551,911	0,5
552,36	0,49
552,809	0,49
553,258	0,49
553,706	0,49
554,155	0,49
554,603	0,48
555,052	0,48
555,501	0,48
555,949	0,48
556,398	0,48
556,846	0,47
557,294	0,47
557,743	0,47
558,191	0,47
558,64	0,47
559,088	0,46
559,536	0,46
559,985	0,46
560,433	0,46
560,881	0,45
561,329	0,45
561,777	0,45
562,225	0,45
562,674	0,45
563,122	0,45
563,57	0,44
564,018	0,44
564,466	0,44
564,914	0,44
565,362	0,44
565,809	0,43
566,257	0,43
566,705	0,43
567,153	0,43
567,601	0,43
568,048	0,42
568,496	0,42
568,944	0,42
569,392	0,42
569,839	0,42
570,287	0,42
570,734	0,42
571,182	0,41
571,63	0,41
572,077	0,41
572,525	0,41
572,972	0,41
573,419	0,4
573,867	0,4
574,314	0,4
574,761	0,4
575,209	0,4
575,656	0,4
576,103	0,4
576,551	0,4
576,998	0,39
577,445	0,39
577,892	0,39
578,339	0,39
578,786	0,39
579,233	0,39
579,68	0,39
580,127	0,39
580,574	0,39
581,021	0,38
581,468	0,38
581,915	0,38
582,362	0,38
582,809	0,38
583,255	0,38
583,702	0,38
584,149	0,38
584,596	0,37
585,042	0,37
585,489	0,37
585,936	0,37
586,382	0,37
586,829	0,37
587,275	0,37
587,722	0,37
588,168	0,37
588,615	0,37
589,061	0,36
589,508	0,36
589,954	0,36
590,4	0,36
590,847	0,36
591,293	0,36
591,739	0,36
592,185	0,36
592,632	0,36
593,078	0,36
593,524	0,36
593,97	0,36
594,416	0,36
594,862	0,36
595,308	0,36
595,754	0,36
596,2	0,35
596,646	0,35
597,092	0,35
597,538	0,35
597,984	0,35
598,43	0,35
598,876	0,35
599,321	0,35
599,767	0,35
600,213	0,35
600,659	0,35
601,104	0,35
601,55	0,35
601,995	0,34
602,441	0,34
602,887	0,34
603,332	0,34
603,778	0,34
604,223	0,34
604,668	0,34
605,114	0,34
605,559	0,34
606,005	0,34
606,45	0,34
606,895	0,34
607,341	0,34
607,786	0,34
608,231	0,34
608,676	0,34
609,121	0,33
609,566	0,33
610,012	0,33
610,457	0,32
610,902	0,32
611,347	0,32
611,792	0,32
612,237	0,32
612,682	0,32
613,127	0,32
613,571	0,32
614,016	0,32
614,461	0,32
614,906	0,32
615,351	0,32
615,795	0,32
616,24	0,32
616,685	0,32
617,129	0,32
617,574	0,33
618,019	0,33
618,463	0,33
618,908	0,33
619,352	0,33
619,797	0,33
620,241	0,33
620,686	0,33
621,13	0,33
621,574	0,32
622,019	0,32
622,463	0,32
622,907	0,32
623,352	0,32
623,796	0,32
624,24	0,32
624,684	0,32
625,128	0,32
625,572	0,32
626,016	0,32
626,461	0,32
626,905	0,32
627,349	0,32
627,793	0,32
628,236	0,32
628,68	0,32
629,124	0,32
629,568	0,32
630,012	0,32
630,456	0,32
630,9	0,32
631,343	0,32
631,787	0,32
632,231	0,32
632,674	0,32
633,118	0,32
633,562	0,32
634,005	0,32
634,449	0,32
634,892	0,32
635,336	0,32
635,779	0,32
636,223	0,32
636,666	0,32
637,109	0,32
637,553	0,32
637,996	0,32
638,439	0,32
638,883	0,31
639,326	0,31
639,769	0,31
640,212	0,31
640,655	0,31
641,099	0,31
641,542	0,31
641,985	0,31
642,428	0,31
642,871	0,31
643,314	0,31
643,757	0,31
644,2	0,31
644,643	0,31
645,085	0,31
645,528	0,31
645,971	0,31
646,414	0,31
646,857	0,31
647,299	0,31
647,742	0,31
648,185	0,31
648,627	0,31
649,07	0,31
649,513	0,31
649,955	0,31
650,398	0,3
650,84	0,3
651,283	0,3
651,725	0,31
652,168	0,31
652,61	0,31
653,052	0,31
653,495	0,3
653,937	0,24
654,379	0,19
654,821	0,2
655,264	0,2
655,706	0,2
656,148	0,2
656,59	0,2
657,032	0,2
657,474	0,2
657,916	0,2
658,358	0,19
658,8	0,24
659,242	0,3
659,684	0,31
660,126	0,31
660,568	0,31
661,01	0,31
661,452	0,3
661,894	0,3
662,335	0,3
662,777	0,3
663,219	0,3
663,661	0,3
664,102	0,3
664,544	0,3
664,985	0,3
665,427	0,3
665,869	0,3
666,31	0,3
666,752	0,3
667,193	0,3
667,634	0,3
668,076	0,3
668,517	0,3
668,959	0,3
669,4	0,3
669,841	0,3
670,282	0,3
670,724	0,3
671,165	0,3
671,606	0,3
672,047	0,3
672,488	0,3
672,929	0,3
673,37	0,3
673,811	0,3
674,252	0,3
674,693	0,3
675,134	0,3
675,575	0,3
676,016	0,3
676,457	0,3
676,898	0,3
677,339	0,3
677,78	0,3
678,22	0,3
678,661	0,3
679,102	0,3
679,542	0,3
679,983	0,3
680,424	0,3
680,864	0,3
681,305	0,3
681,745	0,3
682,186	0,3
682,626	0,3
683,067	0,3
683,507	0,3
683,948	0,3
684,388	0,3
684,828	0,3
685,269	0,3
685,709	0,3
686,149	0,29
686,589	0,29
687,029	0,29
687,47	0,29
687,91	0,29
688,35	0,29
688,79	0,29
689,23	0,29
689,67	0,29
690,11	0,29
690,55	0,29
690,99	0,29
691,43	0,29
691,87	0,29
692,31	0,29
692,749	0,28
693,189	0,28
693,629	0,28
694,069	0,28
694,508	0,28
694,948	0,28
695,388	0,28
695,827	0,28
696,267	0,29
696,706	0,29
697,146	0,29
697,586	0,29
698,025	0,29
698,464	0,29
698,904	0,29
699,343	0,29
699,783	0,29
700,222	0,29
700,661	0,29
701,101	0,29
701,54	0,29
701,979	0,29
702,418	0,29
702,857	0,29
703,297	0,29
703,736	0,29
704,175	0,29
704,614	0,29
705,053	0,29
705,492	0,29
705,931	0,28
706,37	0,28
706,809	0,28
707,248	0,28
707,687	0,28
708,125	0,28
708,564	0,28
709,003	0,28
709,442	0,28
709,88	0,28
710,319	0,28
710,758	0,28
711,196	0,28
711,635	0,28
712,074	0,28
712,512	0,28
712,951	0,28
713,389	0,28
713,828	0,28
714,266	0,28
714,705	0,28
715,143	0,28
715,581	0,28
716,02	0,28
716,458	0,27
716,896	0,27
717,334	0,27
717,773	0,27
718,211	0,27
718,649	0,27
719,087	0,27
719,525	0,27
719,963	0,27
720,401	0,27
720,839	0,27
721,277	0,27
721,715	0,27
722,153	0,27
722,591	0,27
723,029	0,27
723,467	0,27
723,905	0,27
724,342	0,27
724,78	0,27
725,218	0,27
725,656	0,27
726,093	0,27
726,531	0,27
726,969	0,27
727,406	0,27
727,844	0,27
728,281	0,27
728,719	0,27
729,156	0,27
729,594	0,27
730,031	0,27
730,469	0,27
730,906	0,27
731,343	0,27
731,781	0,27
732,218	0,27
732,655	0,27
733,092	0,27
733,53	0,27
733,967	0,27
734,404	0,27
734,841	0,27
735,278	0,27
735,715	0,27
736,152	0,27
736,589	0,26
737,026	0,26
737,463	0,26
737,9	0,26
738,337	0,26
738,774	0,26
739,211	0,26
739,647	0,26
740,084	0,26
740,521	0,26
740,958	0,26
741,394	0,26
741,831	0,26
742,268	0,26
742,704	0,26
743,141	0,26
743,577	0,26
744,014	0,25
744,45	0,25
744,887	0,25
745,323	0,25
745,76	0,25
746,196	0,25
746,632	0,25
747,069	0,25
747,505	0,25
747,941	0,25
748,378	0,25
748,814	0,25
749,25	0,25
749,686	0,25
750,122	0,25
750,558	0,25
750,994	0,25
751,43	0,26
751,866	0,26
752,302	0,26
752,738	0,26
753,174	0,26
753,61	0,26
754,046	0,26
754,482	0,26
754,918	0,26
755,354	0,26
755,789	0,26
756,225	0,26
756,661	0,26
757,096	0,26
757,532	0,26
757,968	0,26
758,403	0,26
758,839	0,25
759,274	0,25
759,71	0,25
760,145	0,25
760,581	0,24
761,016	0,24
761,452	0,24
761,887	0,23
762,322	0,23
762,758	0,23
763,193	0,22
763,628	0,22
764,063	0,22
764,499	0,21
764,934	0,21
765,369	0,2
765,804	0,2
766,239	0,19
766,674	0,19
767,109	0,18
767,544	0,18
767,979	0,17
768,414	0,16
768,849	0,16
769,284	0,15
769,719	0,14
770,154	0,14
770,588	0,13
771,023	0,12
771,458	0,12
771,893	0,1
772,327	0,09
772,762	0,09
773,197	0,08
773,631	0,07
774,066	0,07
774,5	0,06
774,935	0,05
775,369	0,05
775,804	0,04
776,238	0,03
776,673	0,02
777,107	0,01
777,541	0
777,976	-0,01
778,41	-0,01
778,844	-0,02
779,279	-0,03
779,713	-0,04
780,147	-0,04
780,581	-0,05
781,015	-0,06
781,449	-0,07
781,883	-0,07
782,317	-0,08
782,751	-0,09
783,185	-0,1
783,619	-0,1
784,053	-0,11
784,487	-0,11
784,921	-0,12
785,355	-0,12
785,789	-0,13
786,223	-0,14
786,656	-0,16
787,09	-0,17
787,524	-0,17
787,957	-0,18
788,391	-0,2
788,825	-0,22
789,258	-0,24
789,692	-0,25
790,125	-0,26
790,559	-0,28
790,992	-0,3
791,426	-0,31
791,859	-0,32
792,293	-0,36
792,726	-0,38
793,159	-0,4
793,593	-0,41
794,026	-0,43
794,459	-0,46
794,892	-0,49
795,326	-0,52
795,759	-0,56
796,192	-0,6
796,625	-0,65
797,058	-0,67
797,491	-0,71
797,924	-0,75
798,357	-0,81
798,79	-0,85
799,223	-0,89
799,656	-0,95
800,089	-1
800,522	-1,04
800,955	-1,08
801,387	-1,14
801,82	-1,19
802,253	-1,26
802,686	-1,34
803,118	-1,39
803,551	-1,44
803,984	-1,49
804,416	-1,53
804,849	-1,57
805,281	-1,72
805,714	-2,1
806,146	-2,5
806,579	-2,74
807,011	-2,89
807,444	-2,98
807,876	-3,06
808,308	-3,09
808,741	-3,12
809,173	-3,18
809,605	-3,2
810,037	-3,27
810,47	-3,18
810,902	-2,98
811,334	-2,83
811,766	-2,67
812,198	-2,42
812,63	-2,01
813,062	-1,82
813,494	-1,72
813,926	-1,63
814,358	-1,58
814,79	-1,5
815,222	-1,44
815,654	-1,39
816,086	-1,33
816,518	-1,27
816,949	-1,22
817,381	-1,18
817,813	-1,16
818,245	-1,12
818,676	-1,08
819,108	-1,04
819,54	-1,03
819,971	-1
820,403	-0,95
820,834	-0,93
821,266	-0,88
821,697	-0,86
822,129	-0,84
822,56	-0,81
822,991	-0,79
823,423	-0,76
823,854	-0,75
824,286	-0,73
824,717	-0,72
825,148	-0,7
825,579	-0,69
826,01	-0,68
826,442	-0,67
826,873	-0,66
827,304	-0,62
827,735	-0,62
828,166	-0,62
828,597	-0,61
829,028	-0,6
829,459	-0,61
829,89	-0,6
830,321	-0,56
830,752	-0,57
831,183	-0,55
831,613	-0,55
832,044	-0,55
832,475	-0,53
832,906	-0,55
833,336	-0,55
833,767	-0,55
834,198	-0,53
834,628	-0,52
835,059	-0,54
835,49	-0,54
835,92	-0,51
836,351	-0,51
836,781	-0,52
837,212	-0,53
837,642	-0,53
838,072	-0,52
838,503	-0,53
838,933	-0,52
839,364	-0,52
839,794	-0,51
840,224	-0,5
840,654	-0,55
841,085	-0,56
841,515	-0,53
841,945	-0,54
842,375	-0,49
842,805	-0,48
843,235	-0,46
843,665	-0,48
844,095	-0,47
844,525	-0,49
844,955	-0,5
845,385	-0,47
845,815	-0,45
846,245	-0,47
846,675	-0,47
847,105	-0,49
847,534	-0,49
847,964	-0,48
848,394	-0,46
848,824	-0,49
849,253	-0,48
849,683	-0,48
850,112	-0,49
850,542	-0,53
850,972	-0,53
851,401	-0,5
851,831	-0,49
852,26	-0,5
852,69	-0,53
853,119	-0,52
853,548	-0,53
853,978	-0,53
854,407	-0,51
854,836	-0,52
855,266	-0,5
855,695	-0,52
856,124	-0,54
856,553	-0,55
856,983	-0,56
857,412	-0,55
857,841	-0,56
858,27	-0,56
858,699	-0,57
859,128	-0,61
859,557	-0,62
859,986	-0,63
860,415	-0,6
860,844	-0,57
861,273	-0,57
861,702	-0,58
862,13	-0,56
862,559	-0,57
862,988	-0,55
863,417	-0,53
863,845	-0,51
864,274	-0,52
864,703	-0,51
865,131	-0,52
865,56	-0,53
865,989	-0,56
866,417	-0,53
866,846	-0,54
867,274	-0,52
867,703	-0,54
868,131	-0,56
868,559	-0,57
868,988	-0,58
869,416	-0,58
869,844	-0,59
870,273	-0,62
870,701	-0,6
871,129	-0,62
871,557	-0,65
871,986	-0,66
872,414	-0,67
872,842	-0,65
873,27	-0,63
873,698	-0,6
874,126	-0,63
874,554	-0,61
874,982	-0,61
875,41	-0,64
875,838	-0,6
876,266	-0,57
876,694	-0,58
877,122	-0,57
877,549	-0,62
877,977	-0,59
878,405	-0,61
878,833	-0,59
879,26	-0,58
879,688	-0,57
880,116	-0,55
880,543	-0,53
880,971	-0,52
881,399	-0,54
881,826	-0,56
882,254	-0,54
882,681	-0,58
883,109	-0,54
883,536	-0,55
883,963	-0,56
884,391	-0,54
884,818	-0,53
885,245	-0,58
885,673	-0,59
886,1	-0,56
886,527	-0,55
886,954	-0,51
887,381	-0,53
887,809	-0,53
888,236	-0,55
888,663	-0,55
889,09	-0,6
889,517	-0,62
889,944	-0,61
890,371	-0,61
890,798	-0,61
891,225	-0,61
891,652	-0,64
892,078	-0,61
892,505	-0,64
892,932	-0,59
893,359	-0,59
893,786	-0,59
894,212	-0,56
894,639	-0,57
895,066	-0,59
895,492	-0,53
895,919	-0,53
896,346	-0,53
896,772	-0,55
897,199	-0,52
897,625	-0,55
898,052	-0,52
898,478	-0,5
898,904	-0,51
899,331	-0,5
899,757	-0,53
900,183	-0,54
900,61	-0,54
901,036	-0,54
901,462	-0,53
901,888	-0,52
902,315	-0,5
902,741	-0,56
903,167	-0,54
903,593	-0,57
904,019	-0,56
904,445	-0,52
904,871	-0,55
905,297	-0,57
905,723	-0,57
906,149	-0,56
906,575	-0,56
907,001	-0,56
907,427	-0,53
907,852	-0,53
908,278	-0,55
908,704	-0,53
909,13	-0,53
909,555	-0,53
909,981	-0,51
910,407	-0,51
910,832	-0,51
911,258	-0,52
911,684	-0,52
912,109	-0,52
912,535	-0,53
912,96	-0,49
913,386	-0,53
913,811	-0,53
914,236	-0,54
914,662	-0,52
915,087	-0,56
915,512	-0,56
915,938	-0,58
916,363	-0,57
916,788	-0,59
917,213	-0,57
917,639	-0,61
918,064	-0,58
918,489	-0,57
918,914	-0,58
919,339	-0,6
919,764	-0,57
920,189	-0,57
920,614	-0,58
921,039	-0,59
921,464	-0,55
921,889	-0,59
922,314	-0,6
922,738	-0,63
923,163	-0,65
923,588	-0,64
924,013	-0,63
924,437	-0,63
924,862	-0,64
925,287	-0,6
925,711	-0,61
926,136	-0,62
926,561	-0,6
926,985	-0,59
927,41	-0,56
927,834	-0,54
928,259	-0,52
928,683	-0,49
929,108	-0,47
929,532	-0,49
929,956	-0,49
930,381	-0,48
930,805	-0,48
931,229	-0,47
931,653	-0,45
932,078	-0,45
932,502	-0,46
932,926	-0,47
933,35	-0,48
933,774	-0,46
934,198	-0,44
934,622	-0,42
935,046	-0,43
935,47	-0,43
935,894	-0,43
936,318	-0,43
936,742	-0,43
937,166	-0,44
937,59	-0,43
938,014	-0,45
938,437	-0,47
938,861	-0,49
939,285	-0,5
939,709	-0,5
940,132	-0,5
940,556	-0,5
940,98	-0,49
941,403	-0,48
941,827	-0,48
942,25	-0,49
942,674	-0,48
943,097	-0,46
943,521	-0,46
943,944	-0,47
944,368	-0,45
944,791	-0,45
945,214	-0,47
945,638	-0,47
946,061	-0,5
946,484	-0,51
946,907	-0,5
947,331	-0,49
947,754	-0,53
948,177	-0,51
948,6	-0,5
949,023	-0,49
949,446	-0,49
949,869	-0,48
950,292	-0,48
950,715	-0,45
951,138	-0,44
951,561	-0,42
951,984	-0,43
952,407	-0,42
952,83	-0,4
953,252	-0,36
953,675	-0,36
954,098	-0,37
954,521	-0,36
954,943	-0,35
955,366	-0,34
955,789	-0,33
956,211	-0,34
956,634	-0,35
957,056	-0,33
957,479	-0,34
957,902	-0,36
958,324	-0,37
958,746	-0,35
959,169	-0,37
959,591	-0,37
960,014	-0,38
960,436	-0,38
960,858	-0,38
961,281	-0,37
961,703	-0,38
962,125	-0,38
962,547	-0,37
962,969	-0,38
963,391	-0,4
963,814	-0,4
964,236	-0,39
964,658	-0,36
965,08	-0,37
965,502	-0,36
965,924	-0,33
966,346	-0,34
966,768	-0,33
967,189	-0,35
967,611	-0,35
968,033	-0,35
968,455	-0,33
968,877	-0,35
969,298	-0,36
969,72	-0,37
970,142	-0,36
970,563	-0,37
970,985	-0,36
971,407	-0,35
971,828	-0,33
972,25	-0,32
972,671	-0,3
973,093	-0,3
973,514	-0,28
973,936	-0,26
974,357	-0,25
974,778	-0,25
975,2	-0,24
975,621	-0,23
976,042	-0,22
976,464	-0,21
976,885	-0,2
977,306	-0,2
977,727	-0,19
978,148	-0,18
978,57	-0,17
978,991	-0,16
979,412	-0,14
979,833	-0,14
980,254	-0,13
980,675	-0,14
981,096	-0,13
981,517	-0,12
981,937	-0,12
982,358	-0,11
982,779	-0,09
983,2	-0,1
983,621	-0,1
984,042	-0,09
984,462	-0,08
984,883	-0,07
985,304	-0,05
985,724	-0,04
986,145	-0,03
986,565	-0,02
986,986	-0,01
987,407	-0
987,827	0,01
988,248	0,02
988,668	0,03
989,088	0,03
989,509	0,04
989,929	0,05
990,35	0,06
990,77	0,07
991,19	0,08
991,61	0,09
992,031	0,1
992,451	0,1
992,871	0,11
993,291	0,12
993,711	0,12
994,131	0,13
994,551	0,13
994,971	0,14
995,391	0,14
995,811	0,14
996,231	0,14
996,651	0,15
997,071	0,15
997,491	0,16
997,911	0,16
998,331	0,17
998,75	0,17
999,17	0,17
999,59	0,18
1000,009	0,18
1000,429	0,18
1000,849	0,19
1001,268	0,19
1001,688	0,19
1002,107	0,2
1002,527	0,2
1002,946	0,2
1003,366	0,2
1003,785	0,2
1004,205	0,2
1004,624	0,21
1005,044	0,21
1005,463	0,21
1005,882	0,21
1006,301	0,21
1006,721	0,21
1007,14	0,21
1007,559	0,21
1007,978	0,21
1008,397	0,21
1008,816	0,21
1009,235	0,21
1009,655	0,21
1010,074	0,21
1010,492	0,21
1010,911	0,21
1011,33	0,2
1011,749	0,2
1012,168	0,2
1012,587	0,2
1013,006	0,2
1013,425	0,2
1013,843	0,2
1014,262	0,2
1014,681	0,2
1015,099	0,2
1015,518	0,2
1015,937	0,2
1016,355	0,2
1016,774	0,2
1017,192	0,2
1017,611	0,2
1018,029	0,2
1018,448	0,2
1018,866	0,2
1019,285	0,2
1019,703	0,2
1020,121	0,2
1020,54	0,2
1020,958	0,2
1021,376	0,21
1021,794	0,21
1022,213	0,2
1022,631	0,2
1023,049	0,2
1023,467	0,2
1023,885	0,2
1024,303	0,2
1024,721	0,2
1025,139	0,2
1025,557	0,2
1025,975	0,2
1026,393	0,2
1026,811	0,2
1027,229	0,2
1027,647	0,2
1028,065	0,2
1028,482	0,2
1028,9	0,2
1029,318	0,2
1029,735	0,2
1030,153	0,2
1030,571	0,2
1030,988	0,2
1031,406	0,2
1031,823	0,2
1032,241	0,2
1032,659	0,2
1033,076	0,2
1033,493	0,2
1033,911	0,2
1034,328	0,2
1034,746	0,2
1035,163	0,2
1035,58	0,2
1035,997	0,2
1036,415	0,2
1036,832	0,19
1037,249	0,19
1037,666	0,19
1038,083	0,19
1038,501	0,19
1038,918	0,19
1039,335	0,19
1039,752	0,19
1040,169	0,19
1040,586	0,19
1041,003	0,19
1041,419	0,19
1041,836	0,19
1042,253	0,19
1042,67	0,19
1043,087	0,19
1043,504	0,19
1043,92	0,19
1044,337	0,19
1044,754	0,18
1045,17	0,18
1045,587	0,18
1046,004	0,18
1046,42	0,18
1046,837	0,18
1047,253	0,18
1047,67	0,18
1048,086	0,18
1048,503	0,18
1048,919	0,18
1049,335	0,18
1049,752	0,18
1050,168	0,18
1050,584	0,18
1051,001	0,18
1051,417	0,18
1051,833	0,18
1052,249	0,18
1052,665	0,18
1053,081	0,18
1053,497	0,18
1053,914	0,18
1054,33	0,18
1054,746	0,19
1055,162	0,19
1055,578	0,19
1055,993	0,19
1056,409	0,19
1056,825	0,19
1057,241	0,19
1057,657	0,19
1058,073	0,19
1058,488	0,19
1058,904	0,19
1059,32	0,19
1059,736	0,19
1060,151	0,19
1060,567	0,19
1060,982	0,19
1061,398	0,19
1061,813	0,19
1062,229	0,19
1062,644	0,19
1063,06	0,19
1063,475	0,19
1063,891	0,19
1064,306	0,18
1064,721	0,18
1065,137	0,18
1065,552	0,18
1065,967	0,18
1066,382	0,18
1066,798	0,18
1067,213	0,18
1067,628	0,18
1068,043	0,18
1068,458	0,18
1068,873	0,18
1069,288	0,18
1069,703	0,19
1070,118	0,19
1070,533	0,19
1070,948	0,19
1071,363	0,19
1071,778	0,19
1072,193	0,19
1072,607	0,19
1073,022	0,19
1073,437	0,19
1073,852	0,19
1074,266	0,19
1074,681	0,2
1075,096	0,2
1075,51	0,2
1075,925	0,2
1076,339	0,19
1076,754	0,19
1077,168	0,19
1077,583	0,19
1077,997	0,19
1078,412	0,19
1078,826	0,19
1079,24	0,19
1079,655	0,19
1080,069	0,19
1080,483	0,19
1080,897	0,19
1081,312	0,19
1081,726	0,19
1082,14	0,19
1082,554	0,18
1082,968	0,18
1083,382	0,18
1083,796	0,18
1084,21	0,18
1084,624	0,18
1085,038	0,18
1085,452	0,18
1085,866	0,18
1086,28	0,18
1086,694	0,18
1087,108	0,18
1087,521	0,17
1087,935	0,17
1088,349	0,17
1088,763	0,17
1089,176	0,17
1089,59	0,17
1090,004	0,17
1090,417	0,16
1090,831	0,16
1091,244	0,16
1091,658	0,16
1092,071	0,16
1092,485	0,16
1092,898	0,16
1093,312	0,15
1093,725	0,15
1094,138	0,15
1094,552	0,15
1094,965	0,15
1095,378	0,15
1095,791	0,15
1096,205	0,15
1096,618	0,15
1097,031	0,14
1097,444	0,14
1097,857	0,14
1098,27	0,14
1098,683	0,14
1099,096	0,14
1099,509	0,14
1099,922	0,13
1100,335	0,13
1100,748	0,13
1101,161	0,13
1101,574	0,13
1101,986	0,12
1102,399	0,12
1102,812	0,12
1103,225	0,12
1103,637	0,11
1104,05	0,11
1104,463	0,11
1104,875	0,11
1105,288	0,1
1105,7	0,1
1106,113	0,1
1106,525	0,1
1106,938	0,09
1107,35	0,09
1107,763	0,09
1108,175	0,09
1108,588	0,08
1109	0,08
1109,412	0,08
1109,824	0,08
1110,237	0,08
1110,649	0,08
1111,061	0,07
