Data from 18C-808nm-8A_Absorbance__877__00877.txt Node

Date: Mon Jul 17 16:52:56 CEST 2023
User: Laser008
Spectrometer: MAYP115816
Trigger mode: 0
Integration Time (sec): 2,500000E-1
Scans to average: 10
Electric dark correction enabled: true
Nonlinearity correction enabled: true
Boxcar width: 5
XAxis mode: Wavelengths
Number of Pixels in Spectrum: 2068
>>>>>Begin Spectral Data<<<<<
198,914	-0,66
199,384	-0,45
199,855	-0,33
200,325	-0,25
200,796	-0,23
201,266	-0,19
201,737	-0,19
202,207	-0,18
202,677	-0,18
203,147	-0,16
203,618	-0,14
204,088	-0,13
204,558	-0,11
205,028	-0,11
205,498	-0,13
205,968	-0,12
206,439	-0,14
206,909	-0,13
207,379	-0,13
207,849	-0,13
208,319	-0,13
208,789	-0,14
209,258	-0,13
209,728	-0,15
210,198	-0,15
210,668	-0,14
211,138	-0,14
211,608	-0,13
212,077	-0,12
212,547	-0,12
213,017	-0,12
213,486	-0,13
213,956	-0,13
214,426	-0,15
214,895	-0,14
215,365	-0,15
215,834	-0,15
216,304	-0,16
216,773	-0,16
217,243	-0,18
217,712	-0,2
218,181	-0,2
218,651	-0,19
219,12	-0,19
219,589	-0,19
220,058	-0,18
220,528	-0,19
220,997	-0,19
221,466	-0,19
221,935	-0,19
222,404	-0,18
222,873	-0,17
223,342	-0,17
223,812	-0,17
224,281	-0,18
224,749	-0,18
225,218	-0,19
225,687	-0,19
226,156	-0,18
226,625	-0,17
227,094	-0,17
227,563	-0,17
228,031	-0,18
228,5	-0,19
228,969	-0,2
229,438	-0,19
229,906	-0,18
230,375	-0,18
230,844	-0,18
231,312	-0,18
231,781	-0,19
232,249	-0,19
232,718	-0,19
233,186	-0,17
233,655	-0,17
234,123	-0,17
234,591	-0,17
235,06	-0,17
235,528	-0,17
235,996	-0,17
236,465	-0,17
236,933	-0,17
237,401	-0,17
237,869	-0,16
238,337	-0,16
238,805	-0,15
239,274	-0,15
239,742	-0,14
240,21	-0,14
240,678	-0,14
241,146	-0,13
241,614	-0,13
242,081	-0,12
242,549	-0,12
243,017	-0,12
243,485	-0,13
243,953	-0,13
244,421	-0,13
244,888	-0,13
245,356	-0,12
245,824	-0,13
246,291	-0,13
246,759	-0,14
247,227	-0,15
247,694	-0,14
248,162	-0,13
248,629	-0,12
249,097	-0,12
249,564	-0,13
250,032	-0,14
250,499	-0,14
250,967	-0,14
251,434	-0,14
251,901	-0,13
252,369	-0,14
252,836	-0,15
253,303	-0,17
253,77	-0,18
254,237	-0,18
254,705	-0,18
255,172	-0,17
255,639	-0,17
256,106	-0,19
256,573	-0,19
257,04	-0,19
257,507	-0,19
257,974	-0,19
258,441	-0,17
258,908	-0,17
259,375	-0,18
259,841	-0,18
260,308	-0,19
260,775	-0,19
261,242	-0,18
261,709	-0,19
262,175	-0,2
262,642	-0,19
263,109	-0,19
263,575	-0,2
264,042	-0,18
264,508	-0,18
264,975	-0,19
265,441	-0,2
265,908	-0,21
266,374	-0,21
266,841	-0,21
267,307	-0,2
267,773	-0,19
268,24	-0,2
268,706	-0,2
269,172	-0,21
269,639	-0,21
270,105	-0,2
270,571	-0,2
271,037	-0,21
271,503	-0,21
271,969	-0,21
272,435	-0,21
272,902	-0,23
273,368	-0,25
273,834	-0,24
274,3	-0,25
274,765	-0,25
275,231	-0,25
275,697	-0,24
276,163	-0,23
276,629	-0,22
277,095	-0,23
277,56	-0,23
278,026	-0,24
278,492	-0,22
278,958	-0,22
279,423	-0,22
279,889	-0,22
280,354	-0,22
280,82	-0,22
281,286	-0,24
281,751	-0,25
282,217	-0,24
282,682	-0,23
283,147	-0,23
283,613	-0,24
284,078	-0,24
284,544	-0,24
285,009	-0,25
285,474	-0,24
285,939	-0,26
286,405	-0,24
286,87	-0,24
287,335	-0,23
287,8	-0,23
288,265	-0,22
288,73	-0,24
289,195	-0,25
289,66	-0,25
290,125	-0,24
290,59	-0,24
291,055	-0,23
291,52	-0,23
291,985	-0,22
292,45	-0,24
292,915	-0,23
293,38	-0,24
293,844	-0,21
294,309	-0,2
294,774	-0,19
295,239	-0,21
295,703	-0,2
296,168	-0,2
296,632	-0,2
297,097	-0,19
297,562	-0,18
298,026	-0,18
298,491	-0,17
298,955	-0,17
299,419	-0,16
299,884	-0,16
300,348	-0,15
300,813	-0,14
301,277	-0,15
301,741	-0,14
302,205	-0,15
302,67	-0,14
303,134	-0,14
303,598	-0,14
304,062	-0,14
304,526	-0,14
304,99	-0,15
305,454	-0,16
305,919	-0,16
306,383	-0,15
306,847	-0,15
307,31	-0,16
307,774	-0,17
308,238	-0,16
308,702	-0,17
309,166	-0,19
309,63	-0,18
310,094	-0,16
310,557	-0,16
311,021	-0,16
311,485	-0,15
311,948	-0,15
312,412	-0,14
312,876	-0,14
313,339	-0,14
313,803	-0,15
314,266	-0,13
314,73	-0,14
315,193	-0,14
315,657	-0,13
316,12	-0,13
316,584	-0,12
317,047	-0,13
317,51	-0,12
317,973	-0,11
318,437	-0,1
318,9	-0,09
319,363	-0,08
319,826	-0,08
320,29	-0,09
320,753	-0,1
321,216	-0,1
321,679	-0,1
322,142	-0,09
322,605	-0,1
323,068	-0,1
323,531	-0,1
323,994	-0,09
324,457	-0,1
324,92	-0,09
325,382	-0,08
325,845	-0,08
326,308	-0,07
326,771	-0,07
327,233	-0,06
327,696	-0,06
328,159	-0,06
328,622	-0,05
329,084	-0,06
329,547	-0,04
330,009	-0,04
330,472	-0,03
330,934	-0,02
331,397	-0,01
331,859	-0,01
332,322	-0,01
332,784	-0
333,246	0
333,709	0
334,171	0,01
334,633	0,01
335,096	0
335,558	-0
336,02	-0
336,482	-0,01
336,944	0
337,406	0,01
337,868	0,01
338,331	0,01
338,793	0,02
339,255	0,03
339,717	0,03
340,178	0,03
340,64	0,04
341,102	0,04
341,564	0,05
342,026	0,06
342,488	0,06
342,949	0,08
343,411	0,09
343,873	0,11
344,335	0,12
344,796	0,15
345,258	0,17
345,719	0,2
346,181	0,22
346,643	0,24
347,104	0,26
347,566	0,27
348,027	0,29
348,488	0,3
348,95	0,3
349,411	0,31
349,873	0,32
350,334	0,33
350,795	0,34
351,256	0,34
351,718	0,34
352,179	0,35
352,64	0,35
353,101	0,35
353,562	0,35
354,023	0,35
354,484	0,35
354,945	0,35
355,406	0,35
355,867	0,35
356,328	0,35
356,789	0,35
357,25	0,36
357,711	0,36
358,172	0,36
358,633	0,36
359,093	0,36
359,554	0,36
360,015	0,36
360,476	0,36
360,936	0,36
361,397	0,36
361,858	0,36
362,318	0,36
362,779	0,36
363,239	0,36
363,7	0,36
364,16	0,36
364,621	0,36
365,081	0,36
365,541	0,36
366,002	0,36
366,462	0,36
366,922	0,36
367,383	0,36
367,843	0,36
368,303	0,36
368,763	0,36
369,223	0,36
369,684	0,36
370,144	0,36
370,604	0,36
371,064	0,36
371,524	0,36
371,984	0,36
372,444	0,36
372,904	0,36
373,363	0,36
373,823	0,36
374,283	0,36
374,743	0,36
375,203	0,36
375,663	0,36
376,122	0,36
376,582	0,36
377,042	0,36
377,501	0,36
377,961	0,36
378,42	0,36
378,88	0,36
379,34	0,36
379,799	0,36
380,259	0,36
380,718	0,36
381,177	0,36
381,637	0,36
382,096	0,36
382,555	0,36
383,015	0,35
383,474	0,35
383,933	0,35
384,393	0,35
384,852	0,35
385,311	0,35
385,77	0,35
386,229	0,35
386,688	0,35
387,147	0,35
387,606	0,35
388,065	0,35
388,524	0,35
388,983	0,35
389,442	0,35
389,901	0,35
390,36	0,35
390,819	0,35
391,277	0,35
391,736	0,35
392,195	0,35
392,654	0,35
393,112	0,35
393,571	0,35
394,03	0,35
394,488	0,35
394,947	0,35
395,405	0,35
395,864	0,35
396,322	0,35
396,781	0,35
397,239	0,35
397,698	0,35
398,156	0,35
398,614	0,35
399,073	0,35
399,531	0,35
399,989	0,35
400,447	0,35
400,905	0,35
401,364	0,35
401,822	0,35
402,28	0,35
402,738	0,35
403,196	0,35
403,654	0,35
404,112	0,35
404,57	0,35
405,028	0,35
405,486	0,35
405,944	0,35
406,402	0,34
406,859	0,34
407,317	0,34
407,775	0,34
408,233	0,35
408,691	0,34
409,148	0,34
409,606	0,34
410,064	0,34
410,521	0,34
410,979	0,34
411,436	0,34
411,894	0,34
412,351	0,34
412,809	0,34
413,266	0,34
413,724	0,34
414,181	0,34
414,638	0,34
415,096	0,34
415,553	0,34
416,01	0,34
416,467	0,34
416,925	0,34
417,382	0,34
417,839	0,34
418,296	0,34
418,753	0,34
419,21	0,34
419,667	0,34
420,124	0,34
420,581	0,34
421,038	0,34
421,495	0,34
421,952	0,34
422,409	0,34
422,866	0,34
423,322	0,34
423,779	0,34
424,236	0,34
424,693	0,34
425,149	0,34
425,606	0,34
426,063	0,34
426,519	0,34
426,976	0,34
427,433	0,34
427,889	0,34
428,346	0,34
428,802	0,34
429,258	0,34
429,715	0,34
430,171	0,34
430,628	0,34
431,084	0,34
431,54	0,34
431,997	0,34
432,453	0,34
432,909	0,34
433,365	0,34
433,821	0,33
434,277	0,33
434,734	0,33
435,19	0,33
435,646	0,33
436,102	0,33
436,558	0,33
437,014	0,33
437,47	0,33
437,925	0,33
438,381	0,33
438,837	0,33
439,293	0,33
439,749	0,33
440,205	0,33
440,66	0,33
441,116	0,33
441,572	0,33
442,027	0,33
442,483	0,33
442,939	0,33
443,394	0,33
443,85	0,33
444,305	0,33
444,761	0,33
445,216	0,33
445,672	0,33
446,127	0,33
446,582	0,33
447,038	0,33
447,493	0,33
447,948	0,33
448,403	0,33
448,859	0,34
449,314	0,34
449,769	0,33
450,224	0,33
450,679	0,33
451,134	0,33
451,589	0,33
452,044	0,34
452,499	0,34
452,954	0,34
453,409	0,34
453,864	0,34
454,319	0,34
454,774	0,34
455,229	0,34
455,684	0,34
456,138	0,34
456,593	0,33
457,048	0,33
457,503	0,33
457,957	0,33
458,412	0,33
458,866	0,33
459,321	0,33
459,776	0,33
460,23	0,33
460,685	0,34
461,139	0,34
461,593	0,34
462,048	0,34
462,502	0,34
462,957	0,34
463,411	0,34
463,865	0,34
464,319	0,34
464,774	0,34
465,228	0,34
465,682	0,34
466,136	0,34
466,59	0,34
467,044	0,34
467,499	0,34
467,953	0,34
468,407	0,34
468,861	0,34
469,315	0,34
469,768	0,34
470,222	0,34
470,676	0,34
471,13	0,34
471,584	0,34
472,038	0,34
472,491	0,34
472,945	0,34
473,399	0,34
473,852	0,34
474,306	0,34
474,76	0,35
475,213	0,35
475,667	0,35
476,12	0,35
476,574	0,35
477,027	0,35
477,481	0,35
477,934	0,35
478,388	0,35
478,841	0,35
479,294	0,35
479,748	0,35
480,201	0,35
480,654	0,35
481,107	0,35
481,561	0,35
482,014	0,36
482,467	0,36
482,92	0,36
483,373	0,36
483,826	0,36
484,279	0,36
484,732	0,36
485,185	0,36
485,638	0,36
486,091	0,36
486,544	0,36
486,997	0,36
487,449	0,36
487,902	0,36
488,355	0,37
488,808	0,37
489,26	0,37
489,713	0,37
490,166	0,37
490,618	0,37
491,071	0,37
491,523	0,38
491,976	0,38
492,429	0,38
492,881	0,38
493,333	0,38
493,786	0,38
494,238	0,38
494,691	0,39
495,143	0,39
495,595	0,39
496,048	0,39
496,5	0,39
496,952	0,39
497,404	0,39
497,856	0,4
498,309	0,4
498,761	0,4
499,213	0,4
499,665	0,4
500,117	0,41
500,569	0,41
501,021	0,41
501,473	0,41
501,925	0,41
502,377	0,42
502,828	0,42
503,28	0,42
503,732	0,42
504,184	0,42
504,636	0,43
505,087	0,43
505,539	0,43
505,991	0,43
506,442	0,43
506,894	0,43
507,345	0,44
507,797	0,44
508,249	0,44
508,7	0,44
509,151	0,44
509,603	0,45
510,054	0,45
510,506	0,45
510,957	0,45
511,408	0,45
511,86	0,45
512,311	0,46
512,762	0,46
513,213	0,46
513,665	0,46
514,116	0,46
514,567	0,46
515,018	0,47
515,469	0,47
515,92	0,47
516,371	0,47
516,822	0,47
517,273	0,47
517,724	0,48
518,175	0,48
518,626	0,48
519,076	0,48
519,527	0,48
519,978	0,48
520,429	0,48
520,88	0,48
521,33	0,49
521,781	0,49
522,232	0,49
522,682	0,49
523,133	0,49
523,583	0,49
524,034	0,49
524,484	0,49
524,935	0,49
525,385	0,5
525,836	0,5
526,286	0,5
526,736	0,5
527,187	0,5
527,637	0,5
528,087	0,5
528,538	0,5
528,988	0,5
529,438	0,5
529,888	0,5
530,338	0,5
530,788	0,49
531,238	0,49
531,688	0,5
532,139	0,5
532,589	0,5
533,038	0,5
533,488	0,5
533,938	0,49
534,388	0,49
534,838	0,49
535,288	0,49
535,738	0,49
536,187	0,49
536,637	0,49
537,087	0,49
537,537	0,49
537,986	0,48
538,436	0,48
538,885	0,48
539,335	0,48
539,785	0,48
540,234	0,47
540,684	0,47
541,133	0,47
541,582	0,47
542,032	0,47
542,481	0,47
542,931	0,46
543,38	0,46
543,829	0,46
544,278	0,46
544,728	0,46
545,177	0,45
545,626	0,45
546,075	0,45
546,524	0,45
546,973	0,45
547,422	0,45
547,871	0,45
548,32	0,45
548,769	0,45
549,218	0,44
549,667	0,44
550,116	0,44
550,565	0,44
551,014	0,44
551,463	0,44
551,911	0,44
552,36	0,44
552,809	0,44
553,258	0,44
553,706	0,43
554,155	0,43
554,603	0,43
555,052	0,43
555,501	0,43
555,949	0,43
556,398	0,43
556,846	0,42
557,294	0,42
557,743	0,42
558,191	0,42
558,64	0,42
559,088	0,41
559,536	0,41
559,985	0,41
560,433	0,41
560,881	0,41
561,329	0,41
561,777	0,41
562,225	0,4
562,674	0,4
563,122	0,4
563,57	0,4
564,018	0,4
564,466	0,4
564,914	0,4
565,362	0,4
565,809	0,39
566,257	0,39
566,705	0,39
567,153	0,39
567,601	0,39
568,048	0,39
568,496	0,38
568,944	0,38
569,392	0,38
569,839	0,38
570,287	0,38
570,734	0,38
571,182	0,38
571,63	0,37
572,077	0,37
572,525	0,37
572,972	0,37
573,419	0,37
573,867	0,37
574,314	0,37
574,761	0,36
575,209	0,36
575,656	0,36
576,103	0,36
576,551	0,36
576,998	0,36
577,445	0,36
577,892	0,36
578,339	0,36
578,786	0,36
579,233	0,36
579,68	0,36
580,127	0,36
580,574	0,35
581,021	0,35
581,468	0,35
581,915	0,35
582,362	0,35
582,809	0,35
583,255	0,35
583,702	0,35
584,149	0,35
584,596	0,35
585,042	0,34
585,489	0,34
585,936	0,34
586,382	0,34
586,829	0,34
587,275	0,34
587,722	0,34
588,168	0,34
588,615	0,34
589,061	0,34
589,508	0,34
589,954	0,34
590,4	0,34
590,847	0,33
591,293	0,33
591,739	0,33
592,185	0,33
592,632	0,33
593,078	0,33
593,524	0,33
593,97	0,33
594,416	0,33
594,862	0,33
595,308	0,33
595,754	0,33
596,2	0,33
596,646	0,33
597,092	0,33
597,538	0,33
597,984	0,33
598,43	0,33
598,876	0,33
599,321	0,33
599,767	0,33
600,213	0,32
600,659	0,32
601,104	0,32
601,55	0,32
601,995	0,32
602,441	0,32
602,887	0,32
603,332	0,32
603,778	0,32
604,223	0,32
604,668	0,32
605,114	0,32
605,559	0,32
606,005	0,32
606,45	0,32
606,895	0,32
607,341	0,32
607,786	0,32
608,231	0,32
608,676	0,31
609,121	0,31
609,566	0,31
610,012	0,31
610,457	0,3
610,902	0,3
611,347	0,3
611,792	0,3
612,237	0,3
612,682	0,3
613,127	0,3
613,571	0,3
614,016	0,3
614,461	0,3
614,906	0,3
615,351	0,3
615,795	0,3
616,24	0,3
616,685	0,3
617,129	0,3
617,574	0,31
618,019	0,31
618,463	0,31
618,908	0,31
619,352	0,31
619,797	0,31
620,241	0,31
620,686	0,31
621,13	0,31
621,574	0,31
622,019	0,3
622,463	0,3
622,907	0,3
623,352	0,3
623,796	0,3
624,24	0,3
624,684	0,3
625,128	0,3
625,572	0,3
626,016	0,3
626,461	0,3
626,905	0,3
627,349	0,3
627,793	0,3
628,236	0,3
628,68	0,3
629,124	0,3
629,568	0,3
630,012	0,3
630,456	0,3
630,9	0,3
631,343	0,3
631,787	0,3
632,231	0,3
632,674	0,3
633,118	0,3
633,562	0,3
634,005	0,3
634,449	0,3
634,892	0,3
635,336	0,3
635,779	0,3
636,223	0,3
636,666	0,3
637,109	0,3
637,553	0,3
637,996	0,3
638,439	0,3
638,883	0,3
639,326	0,3
639,769	0,3
640,212	0,3
640,655	0,3
641,099	0,29
641,542	0,29
641,985	0,29
642,428	0,3
642,871	0,3
643,314	0,3
643,757	0,3
644,2	0,3
644,643	0,3
645,085	0,3
645,528	0,29
645,971	0,29
646,414	0,29
646,857	0,29
647,299	0,29
647,742	0,29
648,185	0,29
648,627	0,29
649,07	0,29
649,513	0,29
649,955	0,29
650,398	0,29
650,84	0,29
651,283	0,29
651,725	0,29
652,168	0,29
652,61	0,29
653,052	0,29
653,495	0,29
653,937	0,23
654,379	0,18
654,821	0,19
655,264	0,19
655,706	0,19
656,148	0,19
656,59	0,19
657,032	0,19
657,474	0,19
657,916	0,19
658,358	0,18
658,8	0,23
659,242	0,29
659,684	0,29
660,126	0,29
660,568	0,29
661,01	0,29
661,452	0,29
661,894	0,29
662,335	0,29
662,777	0,29
663,219	0,29
663,661	0,29
664,102	0,29
664,544	0,29
664,985	0,29
665,427	0,29
665,869	0,29
666,31	0,29
666,752	0,29
667,193	0,29
667,634	0,29
668,076	0,29
668,517	0,29
668,959	0,29
669,4	0,29
669,841	0,29
670,282	0,29
670,724	0,29
671,165	0,29
671,606	0,29
672,047	0,29
672,488	0,29
672,929	0,29
673,37	0,29
673,811	0,29
674,252	0,29
674,693	0,28
675,134	0,28
675,575	0,28
676,016	0,28
676,457	0,29
676,898	0,28
677,339	0,28
677,78	0,28
678,22	0,28
678,661	0,28
679,102	0,28
679,542	0,28
679,983	0,28
680,424	0,28
680,864	0,28
681,305	0,28
681,745	0,28
682,186	0,28
682,626	0,29
683,067	0,29
683,507	0,28
683,948	0,28
684,388	0,28
684,828	0,28
685,269	0,28
685,709	0,28
686,149	0,28
686,589	0,28
687,029	0,28
687,47	0,28
687,91	0,28
688,35	0,28
688,79	0,28
689,23	0,28
689,67	0,28
690,11	0,27
690,55	0,27
690,99	0,27
691,43	0,27
691,87	0,27
692,31	0,27
692,749	0,27
693,189	0,27
693,629	0,27
694,069	0,27
694,508	0,27
694,948	0,27
695,388	0,27
695,827	0,27
696,267	0,27
696,706	0,27
697,146	0,28
697,586	0,28
698,025	0,28
698,464	0,28
698,904	0,28
699,343	0,28
699,783	0,28
700,222	0,28
700,661	0,28
701,101	0,28
701,54	0,28
701,979	0,28
702,418	0,28
702,857	0,28
703,297	0,28
703,736	0,28
704,175	0,28
704,614	0,28
705,053	0,27
705,492	0,27
705,931	0,27
706,37	0,27
706,809	0,27
707,248	0,27
707,687	0,27
708,125	0,27
708,564	0,27
709,003	0,27
709,442	0,27
709,88	0,27
710,319	0,27
710,758	0,27
711,196	0,27
711,635	0,27
712,074	0,27
712,512	0,27
712,951	0,27
713,389	0,27
713,828	0,27
714,266	0,26
714,705	0,26
715,143	0,26
715,581	0,26
716,02	0,26
716,458	0,26
716,896	0,26
717,334	0,26
717,773	0,26
718,211	0,26
718,649	0,26
719,087	0,26
719,525	0,26
719,963	0,26
720,401	0,26
720,839	0,26
721,277	0,26
721,715	0,26
722,153	0,26
722,591	0,26
723,029	0,26
723,467	0,26
723,905	0,26
724,342	0,26
724,78	0,26
725,218	0,26
725,656	0,26
726,093	0,26
726,531	0,26
726,969	0,26
727,406	0,26
727,844	0,26
728,281	0,26
728,719	0,26
729,156	0,26
729,594	0,26
730,031	0,26
730,469	0,26
730,906	0,26
731,343	0,26
731,781	0,26
732,218	0,26
732,655	0,26
733,092	0,26
733,53	0,26
733,967	0,26
734,404	0,26
734,841	0,26
735,278	0,25
735,715	0,25
736,152	0,25
736,589	0,25
737,026	0,25
737,463	0,25
737,9	0,25
738,337	0,25
738,774	0,25
739,211	0,25
739,647	0,25
740,084	0,25
740,521	0,25
740,958	0,25
741,394	0,25
741,831	0,25
742,268	0,24
742,704	0,24
743,141	0,24
743,577	0,24
744,014	0,24
744,45	0,24
744,887	0,24
745,323	0,24
745,76	0,24
746,196	0,24
746,632	0,24
747,069	0,24
747,505	0,24
747,941	0,24
748,378	0,24
748,814	0,24
749,25	0,24
749,686	0,24
750,122	0,24
750,558	0,24
750,994	0,24
751,43	0,24
751,866	0,24
752,302	0,25
752,738	0,25
753,174	0,25
753,61	0,25
754,046	0,25
754,482	0,25
754,918	0,25
755,354	0,25
755,789	0,25
756,225	0,25
756,661	0,25
757,096	0,25
757,532	0,25
757,968	0,25
758,403	0,24
758,839	0,24
759,274	0,24
759,71	0,24
760,145	0,24
760,581	0,23
761,016	0,23
761,452	0,23
761,887	0,22
762,322	0,22
762,758	0,22
763,193	0,21
763,628	0,21
764,063	0,2
764,499	0,2
764,934	0,19
765,369	0,19
765,804	0,18
766,239	0,18
766,674	0,18
767,109	0,17
767,544	0,16
767,979	0,16
768,414	0,15
768,849	0,14
769,284	0,13
769,719	0,13
770,154	0,12
770,588	0,12
771,023	0,11
771,458	0,1
771,893	0,09
772,327	0,08
772,762	0,08
773,197	0,07
773,631	0,07
774,066	0,06
774,5	0,05
774,935	0,04
775,369	0,04
775,804	0,03
776,238	0,02
776,673	0,01
777,107	0,01
777,541	-0
777,976	-0,01
778,41	-0,01
778,844	-0,02
779,279	-0,02
779,713	-0,03
780,147	-0,04
780,581	-0,04
781,015	-0,05
781,449	-0,06
781,883	-0,06
782,317	-0,08
782,751	-0,09
783,185	-0,09
783,619	-0,1
784,053	-0,11
784,487	-0,11
784,921	-0,12
785,355	-0,12
785,789	-0,13
786,223	-0,13
786,656	-0,15
787,09	-0,16
787,524	-0,16
787,957	-0,17
788,391	-0,19
788,825	-0,21
789,258	-0,22
789,692	-0,23
790,125	-0,25
790,559	-0,27
790,992	-0,29
791,426	-0,31
791,859	-0,33
792,293	-0,36
792,726	-0,37
793,159	-0,39
793,593	-0,41
794,026	-0,43
794,459	-0,47
794,892	-0,49
795,326	-0,52
795,759	-0,56
796,192	-0,6
796,625	-0,65
797,058	-0,67
797,491	-0,72
797,924	-0,76
798,357	-0,81
798,79	-0,86
799,223	-0,9
799,656	-0,96
800,089	-1,01
800,522	-1,06
800,955	-1,1
801,387	-1,16
801,82	-1,21
802,253	-1,28
802,686	-1,36
803,118	-1,41
803,551	-1,47
803,984	-1,51
804,416	-1,56
804,849	-1,61
805,281	-1,77
805,714	-2,14
806,146	-2,52
806,579	-2,75
807,011	-2,9
807,444	-2,99
807,876	-3,06
808,308	-3,09
808,741	-3,12
809,173	-3,17
809,605	-3,19
810,037	-3,26
810,47	-3,17
810,902	-2,97
811,334	-2,81
811,766	-2,65
812,198	-2,38
812,63	-1,99
813,062	-1,82
813,494	-1,73
813,926	-1,64
814,358	-1,59
814,79	-1,51
815,222	-1,45
815,654	-1,4
816,086	-1,33
816,518	-1,28
816,949	-1,23
817,381	-1,18
817,813	-1,17
818,245	-1,12
818,676	-1,08
819,108	-1,05
819,54	-1,04
819,971	-1,01
820,403	-0,96
820,834	-0,95
821,266	-0,9
821,697	-0,88
822,129	-0,86
822,56	-0,83
822,991	-0,81
823,423	-0,78
823,854	-0,77
824,286	-0,74
824,717	-0,72
825,148	-0,7
825,579	-0,69
826,01	-0,67
826,442	-0,67
826,873	-0,65
827,304	-0,61
827,735	-0,6
828,166	-0,6
828,597	-0,6
829,028	-0,59
829,459	-0,6
829,89	-0,6
830,321	-0,55
830,752	-0,56
831,183	-0,55
831,613	-0,54
832,044	-0,53
832,475	-0,52
832,906	-0,53
833,336	-0,53
833,767	-0,54
834,198	-0,53
834,628	-0,51
835,059	-0,54
835,49	-0,55
835,92	-0,53
836,351	-0,53
836,781	-0,53
837,212	-0,54
837,642	-0,55
838,072	-0,52
838,503	-0,54
838,933	-0,51
839,364	-0,52
839,794	-0,5
840,224	-0,49
840,654	-0,53
841,085	-0,53
841,515	-0,51
841,945	-0,51
842,375	-0,46
842,805	-0,46
843,235	-0,44
843,665	-0,46
844,095	-0,44
844,525	-0,47
844,955	-0,47
845,385	-0,44
845,815	-0,43
846,245	-0,45
846,675	-0,46
847,105	-0,47
847,534	-0,47
847,964	-0,45
848,394	-0,44
848,824	-0,48
849,253	-0,46
849,683	-0,46
850,112	-0,48
850,542	-0,52
850,972	-0,52
851,401	-0,5
851,831	-0,48
852,26	-0,49
852,69	-0,53
853,119	-0,52
853,548	-0,52
853,978	-0,52
854,407	-0,5
854,836	-0,49
855,266	-0,47
855,695	-0,48
856,124	-0,5
856,553	-0,52
856,983	-0,54
857,412	-0,53
857,841	-0,53
858,27	-0,53
858,699	-0,54
859,128	-0,57
859,557	-0,59
859,986	-0,6
860,415	-0,58
860,844	-0,56
861,273	-0,56
861,702	-0,57
862,13	-0,55
862,559	-0,56
862,988	-0,55
863,417	-0,54
863,845	-0,52
864,274	-0,53
864,703	-0,53
865,131	-0,53
865,56	-0,54
865,989	-0,56
866,417	-0,52
866,846	-0,53
867,274	-0,53
867,703	-0,55
868,131	-0,56
868,559	-0,57
868,988	-0,58
869,416	-0,57
869,844	-0,58
870,273	-0,61
870,701	-0,58
871,129	-0,63
871,557	-0,65
871,986	-0,65
872,414	-0,67
872,842	-0,64
873,27	-0,62
873,698	-0,59
874,126	-0,63
874,554	-0,61
874,982	-0,61
875,41	-0,64
875,838	-0,59
876,266	-0,56
876,694	-0,56
877,122	-0,55
877,549	-0,6
877,977	-0,57
878,405	-0,59
878,833	-0,56
879,26	-0,54
879,688	-0,54
880,116	-0,52
880,543	-0,52
880,971	-0,5
881,399	-0,53
881,826	-0,53
882,254	-0,5
882,681	-0,54
883,109	-0,51
883,536	-0,52
883,963	-0,54
884,391	-0,52
884,818	-0,5
885,245	-0,53
885,673	-0,56
886,1	-0,52
886,527	-0,53
886,954	-0,51
887,381	-0,54
887,809	-0,54
888,236	-0,55
888,663	-0,55
889,09	-0,59
889,517	-0,62
889,944	-0,62
890,371	-0,6
890,798	-0,61
891,225	-0,61
891,652	-0,63
892,078	-0,6
892,505	-0,63
892,932	-0,59
893,359	-0,6
893,786	-0,6
894,212	-0,57
894,639	-0,58
895,066	-0,61
895,492	-0,55
895,919	-0,55
896,346	-0,54
896,772	-0,54
897,199	-0,51
897,625	-0,54
898,052	-0,51
898,478	-0,5
898,904	-0,51
899,331	-0,5
899,757	-0,51
900,183	-0,54
900,61	-0,52
901,036	-0,53
901,462	-0,52
901,888	-0,51
902,315	-0,49
902,741	-0,54
903,167	-0,52
903,593	-0,55
904,019	-0,53
904,445	-0,51
904,871	-0,52
905,297	-0,55
905,723	-0,54
906,149	-0,54
906,575	-0,54
907,001	-0,55
907,427	-0,52
907,852	-0,51
908,278	-0,52
908,704	-0,5
909,13	-0,5
909,555	-0,49
909,981	-0,48
910,407	-0,48
910,832	-0,48
911,258	-0,48
911,684	-0,47
912,109	-0,48
912,535	-0,49
912,96	-0,45
913,386	-0,49
913,811	-0,49
914,236	-0,51
914,662	-0,48
915,087	-0,52
915,512	-0,53
915,938	-0,55
916,363	-0,54
916,788	-0,56
917,213	-0,55
917,639	-0,6
918,064	-0,57
918,489	-0,58
918,914	-0,58
919,339	-0,61
919,764	-0,57
920,189	-0,57
920,614	-0,59
921,039	-0,59
921,464	-0,55
921,889	-0,58
922,314	-0,58
922,738	-0,62
923,163	-0,64
923,588	-0,64
924,013	-0,62
924,437	-0,62
924,862	-0,64
925,287	-0,61
925,711	-0,61
926,136	-0,62
926,561	-0,6
926,985	-0,59
927,41	-0,55
927,834	-0,52
928,259	-0,49
928,683	-0,48
929,108	-0,45
929,532	-0,45
929,956	-0,44
930,381	-0,43
930,805	-0,44
931,229	-0,43
931,653	-0,42
932,078	-0,42
932,502	-0,43
932,926	-0,44
933,35	-0,44
933,774	-0,44
934,198	-0,42
934,622	-0,41
935,046	-0,42
935,47	-0,42
935,894	-0,42
936,318	-0,42
936,742	-0,42
937,166	-0,42
937,59	-0,42
938,014	-0,44
938,437	-0,45
938,861	-0,47
939,285	-0,48
939,709	-0,47
940,132	-0,47
940,556	-0,48
940,98	-0,47
941,403	-0,47
941,827	-0,46
942,25	-0,48
942,674	-0,47
943,097	-0,46
943,521	-0,46
943,944	-0,47
944,368	-0,47
944,791	-0,45
945,214	-0,47
945,638	-0,47
946,061	-0,5
946,484	-0,51
946,907	-0,49
947,331	-0,49
947,754	-0,53
948,177	-0,51
948,6	-0,5
949,023	-0,49
949,446	-0,49
949,869	-0,47
950,292	-0,47
950,715	-0,43
951,138	-0,42
951,561	-0,41
951,984	-0,4
952,407	-0,39
952,83	-0,37
953,252	-0,34
953,675	-0,33
954,098	-0,35
954,521	-0,34
954,943	-0,34
955,366	-0,35
955,789	-0,34
956,211	-0,36
956,634	-0,37
957,056	-0,34
957,479	-0,35
957,902	-0,38
958,324	-0,39
958,746	-0,37
959,169	-0,38
959,591	-0,38
960,014	-0,39
960,436	-0,38
960,858	-0,38
961,281	-0,38
961,703	-0,39
962,125	-0,39
962,547	-0,37
962,969	-0,39
963,391	-0,4
963,814	-0,41
964,236	-0,39
964,658	-0,37
965,08	-0,38
965,502	-0,36
965,924	-0,33
966,346	-0,34
966,768	-0,33
967,189	-0,35
967,611	-0,33
968,033	-0,33
968,455	-0,31
968,877	-0,32
969,298	-0,33
969,72	-0,33
970,142	-0,32
970,563	-0,33
970,985	-0,31
971,407	-0,29
971,828	-0,27
972,25	-0,26
972,671	-0,26
973,093	-0,26
973,514	-0,24
973,936	-0,22
974,357	-0,21
974,778	-0,22
975,2	-0,22
975,621	-0,21
976,042	-0,21
976,464	-0,21
976,885	-0,2
977,306	-0,19
977,727	-0,18
978,148	-0,17
978,57	-0,17
978,991	-0,15
979,412	-0,14
979,833	-0,13
980,254	-0,12
980,675	-0,13
981,096	-0,11
981,517	-0,1
981,937	-0,1
982,358	-0,09
982,779	-0,08
983,2	-0,08
983,621	-0,08
984,042	-0,06
984,462	-0,05
984,883	-0,04
985,304	-0,03
985,724	-0,02
986,145	-0,02
986,565	-0
986,986	0
987,407	0,01
987,827	0,02
988,248	0,03
988,668	0,04
989,088	0,04
989,509	0,05
989,929	0,06
990,35	0,06
990,77	0,07
991,19	0,08
991,61	0,08
992,031	0,09
992,451	0,1
992,871	0,1
993,291	0,1
993,711	0,11
994,131	0,11
994,551	0,12
994,971	0,12
995,391	0,13
995,811	0,13
996,231	0,13
996,651	0,14
997,071	0,14
997,491	0,15
997,911	0,15
998,331	0,16
998,75	0,16
999,17	0,16
999,59	0,16
1000,009	0,17
1000,429	0,17
1000,849	0,17
1001,268	0,18
1001,688	0,18
1002,107	0,18
1002,527	0,18
1002,946	0,18
1003,366	0,18
1003,785	0,19
1004,205	0,19
1004,624	0,19
1005,044	0,19
1005,463	0,19
1005,882	0,19
1006,301	0,19
1006,721	0,19
1007,14	0,19
1007,559	0,19
1007,978	0,19
1008,397	0,19
1008,816	0,19
1009,235	0,19
1009,655	0,19
1010,074	0,19
1010,492	0,19
1010,911	0,19
1011,33	0,19
1011,749	0,19
1012,168	0,19
1012,587	0,19
1013,006	0,18
1013,425	0,18
1013,843	0,18
1014,262	0,18
1014,681	0,18
1015,099	0,18
1015,518	0,18
1015,937	0,18
1016,355	0,18
1016,774	0,18
1017,192	0,18
1017,611	0,19
1018,029	0,19
1018,448	0,19
1018,866	0,19
1019,285	0,19
1019,703	0,19
1020,121	0,19
1020,54	0,19
1020,958	0,19
1021,376	0,19
1021,794	0,19
1022,213	0,19
1022,631	0,19
1023,049	0,19
1023,467	0,19
1023,885	0,19
1024,303	0,18
1024,721	0,18
1025,139	0,18
1025,557	0,18
1025,975	0,18
1026,393	0,18
1026,811	0,18
1027,229	0,18
1027,647	0,18
1028,065	0,18
1028,482	0,18
1028,9	0,18
1029,318	0,18
1029,735	0,18
1030,153	0,18
1030,571	0,18
1030,988	0,18
1031,406	0,18
1031,823	0,18
1032,241	0,18
1032,659	0,18
1033,076	0,18
1033,493	0,18
1033,911	0,18
1034,328	0,18
1034,746	0,18
1035,163	0,18
1035,58	0,18
1035,997	0,18
1036,415	0,18
1036,832	0,18
1037,249	0,18
1037,666	0,18
1038,083	0,18
1038,501	0,18
1038,918	0,18
1039,335	0,17
1039,752	0,17
1040,169	0,17
1040,586	0,17
1041,003	0,17
1041,419	0,17
1041,836	0,17
1042,253	0,17
1042,67	0,17
1043,087	0,17
1043,504	0,17
1043,92	0,17
1044,337	0,17
1044,754	0,17
1045,17	0,17
1045,587	0,17
1046,004	0,17
1046,42	0,17
1046,837	0,17
1047,253	0,16
1047,67	0,16
1048,086	0,16
1048,503	0,16
1048,919	0,16
1049,335	0,16
1049,752	0,16
1050,168	0,16
1050,584	0,16
1051,001	0,16
1051,417	0,16
1051,833	0,16
1052,249	0,16
1052,665	0,17
1053,081	0,17
1053,497	0,17
1053,914	0,17
1054,33	0,17
1054,746	0,17
1055,162	0,17
1055,578	0,17
1055,993	0,17
1056,409	0,17
1056,825	0,17
1057,241	0,17
1057,657	0,17
1058,073	0,17
1058,488	0,17
1058,904	0,17
1059,32	0,17
1059,736	0,17
1060,151	0,17
1060,567	0,17
1060,982	0,17
1061,398	0,17
1061,813	0,17
1062,229	0,17
1062,644	0,17
1063,06	0,17
1063,475	0,17
1063,891	0,17
1064,306	0,17
1064,721	0,17
1065,137	0,16
1065,552	0,16
1065,967	0,16
1066,382	0,16
1066,798	0,16
1067,213	0,16
1067,628	0,16
1068,043	0,17
1068,458	0,17
1068,873	0,17
1069,288	0,17
1069,703	0,17
1070,118	0,17
1070,533	0,17
1070,948	0,17
1071,363	0,17
1071,778	0,17
1072,193	0,17
1072,607	0,17
1073,022	0,17
1073,437	0,17
1073,852	0,18
1074,266	0,18
1074,681	0,18
1075,096	0,18
1075,51	0,18
1075,925	0,18
1076,339	0,18
1076,754	0,18
1077,168	0,18
1077,583	0,17
1077,997	0,17
1078,412	0,17
1078,826	0,17
1079,24	0,17
1079,655	0,17
1080,069	0,17
1080,483	0,17
1080,897	0,17
1081,312	0,17
1081,726	0,17
1082,14	0,17
1082,554	0,17
1082,968	0,17
1083,382	0,17
1083,796	0,16
1084,21	0,16
1084,624	0,16
1085,038	0,16
1085,452	0,16
1085,866	0,16
1086,28	0,16
1086,694	0,16
1087,108	0,16
1087,521	0,16
1087,935	0,16
1088,349	0,16
1088,763	0,15
1089,176	0,15
1089,59	0,15
1090,004	0,15
1090,417	0,15
1090,831	0,15
1091,244	0,14
1091,658	0,14
1092,071	0,14
1092,485	0,14
1092,898	0,14
1093,312	0,14
1093,725	0,14
1094,138	0,13
1094,552	0,13
1094,965	0,13
1095,378	0,13
1095,791	0,13
1096,205	0,13
1096,618	0,13
1097,031	0,13
1097,444	0,13
1097,857	0,13
1098,27	0,13
1098,683	0,13
1099,096	0,13
1099,509	0,13
1099,922	0,12
1100,335	0,12
1100,748	0,12
1101,161	0,11
1101,574	0,11
1101,986	0,11
1102,399	0,11
1102,812	0,11
1103,225	0,1
1103,637	0,1
1104,05	0,1
1104,463	0,1
1104,875	0,1
1105,288	0,09
1105,7	0,09
1106,113	0,09
1106,525	0,08
1106,938	0,08
1107,35	0,08
1107,763	0,08
1108,175	0,08
1108,588	0,08
1109	0,07
1109,412	0,07
1109,824	0,07
1110,237	0,08
1110,649	0,08
1111,061	0,07
