Data from 18C-808nm-8A_Absorbance__326__00326.txt Node

Date: Mon Jul 17 16:29:58 CEST 2023
User: Laser008
Spectrometer: MAYP115816
Trigger mode: 0
Integration Time (sec): 2,500000E-1
Scans to average: 10
Electric dark correction enabled: true
Nonlinearity correction enabled: true
Boxcar width: 5
XAxis mode: Wavelengths
Number of Pixels in Spectrum: 2068
>>>>>Begin Spectral Data<<<<<
198,914	-0,64
199,384	-0,41
199,855	-0,31
200,325	-0,25
200,796	-0,23
201,266	-0,19
201,737	-0,16
202,207	-0,15
202,677	-0,14
203,147	-0,12
203,618	-0,09
204,088	-0,08
204,558	-0,07
205,028	-0,07
205,498	-0,07
205,968	-0,06
206,439	-0,07
206,909	-0,07
207,379	-0,08
207,849	-0,08
208,319	-0,08
208,789	-0,09
209,258	-0,08
209,728	-0,1
210,198	-0,1
210,668	-0,1
211,138	-0,1
211,608	-0,1
212,077	-0,09
212,547	-0,08
213,017	-0,09
213,486	-0,09
213,956	-0,1
214,426	-0,11
214,895	-0,1
215,365	-0,1
215,834	-0,1
216,304	-0,11
216,773	-0,1
217,243	-0,12
217,712	-0,13
218,181	-0,12
218,651	-0,13
219,12	-0,12
219,589	-0,12
220,058	-0,11
220,528	-0,12
220,997	-0,12
221,466	-0,13
221,935	-0,14
222,404	-0,14
222,873	-0,13
223,342	-0,13
223,812	-0,12
224,281	-0,12
224,749	-0,13
225,218	-0,15
225,687	-0,14
226,156	-0,13
226,625	-0,12
227,094	-0,12
227,563	-0,13
228,031	-0,14
228,5	-0,14
228,969	-0,15
229,438	-0,14
229,906	-0,13
230,375	-0,13
230,844	-0,13
231,312	-0,13
231,781	-0,13
232,249	-0,13
232,718	-0,13
233,186	-0,12
233,655	-0,12
234,123	-0,11
234,591	-0,11
235,06	-0,11
235,528	-0,11
235,996	-0,11
236,465	-0,11
236,933	-0,1
237,401	-0,1
237,869	-0,08
238,337	-0,09
238,805	-0,08
239,274	-0,07
239,742	-0,07
240,21	-0,08
240,678	-0,07
241,146	-0,07
241,614	-0,07
242,081	-0,07
242,549	-0,07
243,017	-0,08
243,485	-0,08
243,953	-0,08
244,421	-0,09
244,888	-0,08
245,356	-0,08
245,824	-0,09
246,291	-0,1
246,759	-0,11
247,227	-0,11
247,694	-0,1
248,162	-0,1
248,629	-0,09
249,097	-0,09
249,564	-0,09
250,032	-0,1
250,499	-0,11
250,967	-0,1
251,434	-0,11
251,901	-0,1
252,369	-0,09
252,836	-0,1
253,303	-0,11
253,77	-0,12
254,237	-0,12
254,705	-0,12
255,172	-0,11
255,639	-0,11
256,106	-0,12
256,573	-0,12
257,04	-0,13
257,507	-0,14
257,974	-0,14
258,441	-0,13
258,908	-0,13
259,375	-0,13
259,841	-0,13
260,308	-0,13
260,775	-0,12
261,242	-0,1
261,709	-0,1
262,175	-0,11
262,642	-0,1
263,109	-0,09
263,575	-0,1
264,042	-0,08
264,508	-0,07
264,975	-0,09
265,441	-0,11
265,908	-0,11
266,374	-0,1
266,841	-0,09
267,307	-0,09
267,773	-0,09
268,24	-0,09
268,706	-0,09
269,172	-0,1
269,639	-0,12
270,105	-0,11
270,571	-0,1
271,037	-0,11
271,503	-0,13
271,969	-0,13
272,435	-0,13
272,902	-0,14
273,368	-0,16
273,834	-0,16
274,3	-0,17
274,765	-0,17
275,231	-0,17
275,697	-0,16
276,163	-0,16
276,629	-0,16
277,095	-0,16
277,56	-0,15
278,026	-0,15
278,492	-0,13
278,958	-0,12
279,423	-0,12
279,889	-0,12
280,354	-0,12
280,82	-0,12
281,286	-0,13
281,751	-0,13
282,217	-0,12
282,682	-0,13
283,147	-0,12
283,613	-0,13
284,078	-0,14
284,544	-0,15
285,009	-0,17
285,474	-0,17
285,939	-0,18
286,405	-0,18
286,87	-0,17
287,335	-0,18
287,8	-0,17
288,265	-0,16
288,73	-0,17
289,195	-0,19
289,66	-0,18
290,125	-0,17
290,59	-0,16
291,055	-0,16
291,52	-0,15
291,985	-0,15
292,45	-0,17
292,915	-0,16
293,38	-0,17
293,844	-0,16
294,309	-0,15
294,774	-0,14
295,239	-0,15
295,703	-0,15
296,168	-0,14
296,632	-0,14
297,097	-0,14
297,562	-0,12
298,026	-0,13
298,491	-0,13
298,955	-0,13
299,419	-0,12
299,884	-0,12
300,348	-0,11
300,813	-0,11
301,277	-0,12
301,741	-0,11
302,205	-0,11
302,67	-0,11
303,134	-0,11
303,598	-0,11
304,062	-0,1
304,526	-0,1
304,99	-0,1
305,454	-0,1
305,919	-0,1
306,383	-0,09
306,847	-0,09
307,31	-0,1
307,774	-0,09
308,238	-0,08
308,702	-0,08
309,166	-0,09
309,63	-0,09
310,094	-0,07
310,557	-0,07
311,021	-0,07
311,485	-0,07
311,948	-0,07
312,412	-0,07
312,876	-0,08
313,339	-0,08
313,803	-0,1
314,266	-0,09
314,73	-0,09
315,193	-0,1
315,657	-0,1
316,12	-0,1
316,584	-0,09
317,047	-0,08
317,51	-0,07
317,973	-0,07
318,437	-0,06
318,9	-0,05
319,363	-0,04
319,826	-0,04
320,29	-0,03
320,753	-0,03
321,216	-0,03
321,679	-0,03
322,142	-0,03
322,605	-0,04
323,068	-0,04
323,531	-0,04
323,994	-0,04
324,457	-0,04
324,92	-0,03
325,382	-0,04
325,845	-0,03
326,308	-0,04
326,771	-0,03
327,233	-0,03
327,696	-0,03
328,159	-0,02
328,622	-0,02
329,084	-0,01
329,547	-0
330,009	-0
330,472	0,01
330,934	0,02
331,397	0,02
331,859	0,02
332,322	0,02
332,784	0,02
333,246	0,02
333,709	0,02
334,171	0,02
334,633	0,03
335,096	0,02
335,558	0,02
336,02	0,01
336,482	0,01
336,944	0,02
337,406	0,03
337,868	0,04
338,331	0,04
338,793	0,05
339,255	0,05
339,717	0,05
340,178	0,06
340,64	0,06
341,102	0,07
341,564	0,08
342,026	0,09
342,488	0,09
342,949	0,1
343,411	0,11
343,873	0,12
344,335	0,13
344,796	0,15
345,258	0,16
345,719	0,18
346,181	0,19
346,643	0,2
347,104	0,21
347,566	0,22
348,027	0,23
348,488	0,23
348,95	0,23
349,411	0,24
349,873	0,25
350,334	0,25
350,795	0,26
351,256	0,26
351,718	0,26
352,179	0,26
352,64	0,26
353,101	0,27
353,562	0,27
354,023	0,27
354,484	0,27
354,945	0,27
355,406	0,27
355,867	0,27
356,328	0,27
356,789	0,27
357,25	0,27
357,711	0,27
358,172	0,27
358,633	0,27
359,093	0,27
359,554	0,27
360,015	0,27
360,476	0,27
360,936	0,27
361,397	0,27
361,858	0,27
362,318	0,27
362,779	0,27
363,239	0,27
363,7	0,27
364,16	0,27
364,621	0,27
365,081	0,27
365,541	0,27
366,002	0,27
366,462	0,27
366,922	0,27
367,383	0,27
367,843	0,27
368,303	0,27
368,763	0,27
369,223	0,27
369,684	0,27
370,144	0,27
370,604	0,27
371,064	0,27
371,524	0,27
371,984	0,27
372,444	0,27
372,904	0,27
373,363	0,27
373,823	0,27
374,283	0,27
374,743	0,27
375,203	0,27
375,663	0,27
376,122	0,27
376,582	0,27
377,042	0,27
377,501	0,27
377,961	0,27
378,42	0,27
378,88	0,27
379,34	0,27
379,799	0,27
380,259	0,27
380,718	0,27
381,177	0,27
381,637	0,27
382,096	0,27
382,555	0,27
383,015	0,27
383,474	0,27
383,933	0,27
384,393	0,27
384,852	0,27
385,311	0,27
385,77	0,27
386,229	0,27
386,688	0,27
387,147	0,27
387,606	0,27
388,065	0,27
388,524	0,27
388,983	0,26
389,442	0,26
389,901	0,26
390,36	0,26
390,819	0,26
391,277	0,26
391,736	0,26
392,195	0,26
392,654	0,26
393,112	0,26
393,571	0,26
394,03	0,26
394,488	0,26
394,947	0,26
395,405	0,26
395,864	0,26
396,322	0,26
396,781	0,26
397,239	0,26
397,698	0,26
398,156	0,26
398,614	0,26
399,073	0,26
399,531	0,26
399,989	0,26
400,447	0,26
400,905	0,26
401,364	0,26
401,822	0,26
402,28	0,26
402,738	0,26
403,196	0,26
403,654	0,26
404,112	0,26
404,57	0,26
405,028	0,26
405,486	0,26
405,944	0,26
406,402	0,26
406,859	0,26
407,317	0,26
407,775	0,26
408,233	0,26
408,691	0,26
409,148	0,26
409,606	0,26
410,064	0,26
410,521	0,26
410,979	0,26
411,436	0,26
411,894	0,26
412,351	0,26
412,809	0,26
413,266	0,25
413,724	0,25
414,181	0,25
414,638	0,25
415,096	0,25
415,553	0,25
416,01	0,25
416,467	0,25
416,925	0,25
417,382	0,25
417,839	0,25
418,296	0,25
418,753	0,25
419,21	0,25
419,667	0,25
420,124	0,25
420,581	0,25
421,038	0,25
421,495	0,25
421,952	0,25
422,409	0,25
422,866	0,25
423,322	0,25
423,779	0,25
424,236	0,25
424,693	0,25
425,149	0,25
425,606	0,25
426,063	0,25
426,519	0,25
426,976	0,25
427,433	0,25
427,889	0,25
428,346	0,25
428,802	0,25
429,258	0,25
429,715	0,25
430,171	0,25
430,628	0,25
431,084	0,25
431,54	0,25
431,997	0,25
432,453	0,25
432,909	0,25
433,365	0,25
433,821	0,25
434,277	0,25
434,734	0,25
435,19	0,25
435,646	0,25
436,102	0,25
436,558	0,25
437,014	0,25
437,47	0,25
437,925	0,25
438,381	0,25
438,837	0,25
439,293	0,25
439,749	0,25
440,205	0,25
440,66	0,25
441,116	0,25
441,572	0,25
442,027	0,25
442,483	0,25
442,939	0,25
443,394	0,25
443,85	0,25
444,305	0,25
444,761	0,25
445,216	0,25
445,672	0,25
446,127	0,25
446,582	0,25
447,038	0,25
447,493	0,25
447,948	0,25
448,403	0,25
448,859	0,25
449,314	0,25
449,769	0,25
450,224	0,25
450,679	0,25
451,134	0,25
451,589	0,25
452,044	0,25
452,499	0,25
452,954	0,25
453,409	0,25
453,864	0,25
454,319	0,25
454,774	0,25
455,229	0,25
455,684	0,25
456,138	0,25
456,593	0,25
457,048	0,25
457,503	0,24
457,957	0,24
458,412	0,24
458,866	0,24
459,321	0,24
459,776	0,24
460,23	0,24
460,685	0,25
461,139	0,25
461,593	0,25
462,048	0,25
462,502	0,25
462,957	0,25
463,411	0,25
463,865	0,25
464,319	0,25
464,774	0,25
465,228	0,25
465,682	0,25
466,136	0,25
466,59	0,25
467,044	0,25
467,499	0,25
467,953	0,25
468,407	0,25
468,861	0,25
469,315	0,25
469,768	0,25
470,222	0,25
470,676	0,25
471,13	0,25
471,584	0,25
472,038	0,25
472,491	0,25
472,945	0,25
473,399	0,25
473,852	0,25
474,306	0,25
474,76	0,25
475,213	0,25
475,667	0,25
476,12	0,25
476,574	0,25
477,027	0,25
477,481	0,26
477,934	0,26
478,388	0,26
478,841	0,26
479,294	0,26
479,748	0,26
480,201	0,26
480,654	0,26
481,107	0,26
481,561	0,26
482,014	0,26
482,467	0,26
482,92	0,26
483,373	0,26
483,826	0,26
484,279	0,26
484,732	0,27
485,185	0,27
485,638	0,27
486,091	0,27
486,544	0,27
486,997	0,27
487,449	0,27
487,902	0,27
488,355	0,27
488,808	0,27
489,26	0,27
489,713	0,27
490,166	0,28
490,618	0,28
491,071	0,28
491,523	0,28
491,976	0,28
492,429	0,28
492,881	0,28
493,333	0,28
493,786	0,29
494,238	0,29
494,691	0,29
495,143	0,29
495,595	0,29
496,048	0,29
496,5	0,29
496,952	0,3
497,404	0,3
497,856	0,3
498,309	0,3
498,761	0,3
499,213	0,3
499,665	0,3
500,117	0,31
500,569	0,31
501,021	0,31
501,473	0,31
501,925	0,31
502,377	0,31
502,828	0,32
503,28	0,32
503,732	0,32
504,184	0,32
504,636	0,32
505,087	0,32
505,539	0,33
505,991	0,33
506,442	0,33
506,894	0,33
507,345	0,33
507,797	0,33
508,249	0,34
508,7	0,34
509,151	0,34
509,603	0,34
510,054	0,34
510,506	0,34
510,957	0,35
511,408	0,35
511,86	0,35
512,311	0,35
512,762	0,35
513,213	0,35
513,665	0,36
514,116	0,36
514,567	0,36
515,018	0,36
515,469	0,36
515,92	0,36
516,371	0,37
516,822	0,37
517,273	0,37
517,724	0,37
518,175	0,37
518,626	0,37
519,076	0,37
519,527	0,38
519,978	0,38
520,429	0,38
520,88	0,38
521,33	0,38
521,781	0,38
522,232	0,38
522,682	0,38
523,133	0,38
523,583	0,39
524,034	0,39
524,484	0,39
524,935	0,39
525,385	0,39
525,836	0,39
526,286	0,39
526,736	0,39
527,187	0,39
527,637	0,39
528,087	0,39
528,538	0,39
528,988	0,39
529,438	0,39
529,888	0,39
530,338	0,39
530,788	0,39
531,238	0,39
531,688	0,39
532,139	0,39
532,589	0,39
533,038	0,39
533,488	0,39
533,938	0,39
534,388	0,39
534,838	0,39
535,288	0,39
535,738	0,39
536,187	0,39
536,637	0,39
537,087	0,39
537,537	0,39
537,986	0,38
538,436	0,38
538,885	0,38
539,335	0,38
539,785	0,38
540,234	0,38
540,684	0,37
541,133	0,37
541,582	0,37
542,032	0,37
542,481	0,37
542,931	0,37
543,38	0,37
543,829	0,37
544,278	0,36
544,728	0,36
545,177	0,36
545,626	0,36
546,075	0,36
546,524	0,36
546,973	0,36
547,422	0,36
547,871	0,36
548,32	0,36
548,769	0,36
549,218	0,36
549,667	0,36
550,116	0,36
550,565	0,35
551,014	0,35
551,463	0,35
551,911	0,35
552,36	0,35
552,809	0,35
553,258	0,35
553,706	0,35
554,155	0,35
554,603	0,34
555,052	0,34
555,501	0,34
555,949	0,34
556,398	0,34
556,846	0,34
557,294	0,34
557,743	0,34
558,191	0,33
558,64	0,33
559,088	0,33
559,536	0,33
559,985	0,33
560,433	0,33
560,881	0,33
561,329	0,33
561,777	0,32
562,225	0,32
562,674	0,32
563,122	0,32
563,57	0,32
564,018	0,32
564,466	0,32
564,914	0,32
565,362	0,32
565,809	0,32
566,257	0,31
566,705	0,31
567,153	0,31
567,601	0,31
568,048	0,31
568,496	0,31
568,944	0,31
569,392	0,31
569,839	0,31
570,287	0,3
570,734	0,3
571,182	0,3
571,63	0,3
572,077	0,3
572,525	0,3
572,972	0,3
573,419	0,3
573,867	0,3
574,314	0,3
574,761	0,29
575,209	0,29
575,656	0,29
576,103	0,29
576,551	0,29
576,998	0,29
577,445	0,29
577,892	0,29
578,339	0,29
578,786	0,29
579,233	0,29
579,68	0,29
580,127	0,29
580,574	0,29
581,021	0,28
581,468	0,28
581,915	0,28
582,362	0,28
582,809	0,28
583,255	0,28
583,702	0,28
584,149	0,28
584,596	0,28
585,042	0,28
585,489	0,28
585,936	0,28
586,382	0,28
586,829	0,28
587,275	0,27
587,722	0,27
588,168	0,27
588,615	0,27
589,061	0,27
589,508	0,27
589,954	0,27
590,4	0,27
590,847	0,27
591,293	0,27
591,739	0,27
592,185	0,27
592,632	0,27
593,078	0,27
593,524	0,27
593,97	0,27
594,416	0,27
594,862	0,27
595,308	0,27
595,754	0,27
596,2	0,27
596,646	0,27
597,092	0,26
597,538	0,26
597,984	0,26
598,43	0,26
598,876	0,26
599,321	0,26
599,767	0,26
600,213	0,26
600,659	0,26
601,104	0,26
601,55	0,26
601,995	0,26
602,441	0,26
602,887	0,26
603,332	0,26
603,778	0,26
604,223	0,26
604,668	0,26
605,114	0,26
605,559	0,26
606,005	0,26
606,45	0,26
606,895	0,26
607,341	0,26
607,786	0,26
608,231	0,25
608,676	0,25
609,121	0,25
609,566	0,25
610,012	0,24
610,457	0,24
610,902	0,24
611,347	0,24
611,792	0,24
612,237	0,24
612,682	0,24
613,127	0,24
613,571	0,24
614,016	0,24
614,461	0,24
614,906	0,24
615,351	0,24
615,795	0,24
616,24	0,24
616,685	0,24
617,129	0,24
617,574	0,24
618,019	0,24
618,463	0,24
618,908	0,24
619,352	0,24
619,797	0,24
620,241	0,24
620,686	0,24
621,13	0,24
621,574	0,24
622,019	0,24
622,463	0,24
622,907	0,24
623,352	0,24
623,796	0,24
624,24	0,24
624,684	0,24
625,128	0,24
625,572	0,24
626,016	0,24
626,461	0,24
626,905	0,24
627,349	0,24
627,793	0,24
628,236	0,24
628,68	0,24
629,124	0,24
629,568	0,24
630,012	0,24
630,456	0,24
630,9	0,24
631,343	0,24
631,787	0,24
632,231	0,24
632,674	0,24
633,118	0,24
633,562	0,24
634,005	0,24
634,449	0,24
634,892	0,24
635,336	0,24
635,779	0,24
636,223	0,24
636,666	0,24
637,109	0,24
637,553	0,24
637,996	0,24
638,439	0,24
638,883	0,24
639,326	0,24
639,769	0,23
640,212	0,23
640,655	0,23
641,099	0,23
641,542	0,23
641,985	0,23
642,428	0,23
642,871	0,23
643,314	0,23
643,757	0,23
644,2	0,23
644,643	0,23
645,085	0,23
645,528	0,23
645,971	0,23
646,414	0,23
646,857	0,23
647,299	0,23
647,742	0,23
648,185	0,23
648,627	0,23
649,07	0,23
649,513	0,23
649,955	0,23
650,398	0,23
650,84	0,23
651,283	0,23
651,725	0,23
652,168	0,23
652,61	0,23
653,052	0,23
653,495	0,23
653,937	0,18
654,379	0,15
654,821	0,15
655,264	0,15
655,706	0,15
656,148	0,15
656,59	0,15
657,032	0,15
657,474	0,15
657,916	0,15
658,358	0,15
658,8	0,18
659,242	0,22
659,684	0,23
660,126	0,23
660,568	0,23
661,01	0,23
661,452	0,23
661,894	0,22
662,335	0,22
662,777	0,22
663,219	0,22
663,661	0,22
664,102	0,22
664,544	0,22
664,985	0,22
665,427	0,22
665,869	0,22
666,31	0,22
666,752	0,22
667,193	0,22
667,634	0,22
668,076	0,22
668,517	0,22
668,959	0,22
669,4	0,22
669,841	0,22
670,282	0,22
670,724	0,22
671,165	0,22
671,606	0,22
672,047	0,22
672,488	0,22
672,929	0,22
673,37	0,22
673,811	0,22
674,252	0,22
674,693	0,22
675,134	0,22
675,575	0,22
676,016	0,22
676,457	0,22
676,898	0,22
677,339	0,22
677,78	0,22
678,22	0,21
678,661	0,21
679,102	0,21
679,542	0,21
679,983	0,21
680,424	0,21
680,864	0,21
681,305	0,21
681,745	0,21
682,186	0,21
682,626	0,21
683,067	0,22
683,507	0,22
683,948	0,22
684,388	0,22
684,828	0,22
685,269	0,22
685,709	0,22
686,149	0,22
686,589	0,22
687,029	0,22
687,47	0,21
687,91	0,21
688,35	0,21
688,79	0,21
689,23	0,21
689,67	0,21
690,11	0,21
690,55	0,21
690,99	0,21
691,43	0,21
691,87	0,21
692,31	0,21
692,749	0,21
693,189	0,21
693,629	0,21
694,069	0,2
694,508	0,2
694,948	0,2
695,388	0,21
695,827	0,21
696,267	0,21
696,706	0,21
697,146	0,21
697,586	0,21
698,025	0,21
698,464	0,21
698,904	0,21
699,343	0,21
699,783	0,21
700,222	0,21
700,661	0,21
701,101	0,21
701,54	0,21
701,979	0,21
702,418	0,21
702,857	0,21
703,297	0,21
703,736	0,2
704,175	0,2
704,614	0,2
705,053	0,2
705,492	0,2
705,931	0,2
706,37	0,2
706,809	0,2
707,248	0,2
707,687	0,2
708,125	0,2
708,564	0,2
709,003	0,2
709,442	0,2
709,88	0,2
710,319	0,2
710,758	0,2
711,196	0,2
711,635	0,2
712,074	0,2
712,512	0,2
712,951	0,2
713,389	0,2
713,828	0,2
714,266	0,2
714,705	0,2
715,143	0,19
715,581	0,19
716,02	0,19
716,458	0,19
716,896	0,19
717,334	0,19
717,773	0,19
718,211	0,19
718,649	0,19
719,087	0,19
719,525	0,19
719,963	0,19
720,401	0,19
720,839	0,19
721,277	0,19
721,715	0,19
722,153	0,19
722,591	0,19
723,029	0,19
723,467	0,19
723,905	0,19
724,342	0,19
724,78	0,19
725,218	0,19
725,656	0,19
726,093	0,19
726,531	0,19
726,969	0,19
727,406	0,19
727,844	0,19
728,281	0,19
728,719	0,19
729,156	0,19
729,594	0,19
730,031	0,19
730,469	0,19
730,906	0,19
731,343	0,19
731,781	0,19
732,218	0,19
732,655	0,19
733,092	0,19
733,53	0,19
733,967	0,18
734,404	0,18
734,841	0,18
735,278	0,18
735,715	0,18
736,152	0,18
736,589	0,18
737,026	0,18
737,463	0,18
737,9	0,18
738,337	0,18
738,774	0,18
739,211	0,18
739,647	0,18
740,084	0,17
740,521	0,17
740,958	0,17
741,394	0,17
741,831	0,17
742,268	0,17
742,704	0,17
743,141	0,17
743,577	0,17
744,014	0,17
744,45	0,17
744,887	0,17
745,323	0,17
745,76	0,17
746,196	0,17
746,632	0,17
747,069	0,17
747,505	0,17
747,941	0,17
748,378	0,17
748,814	0,17
749,25	0,17
749,686	0,17
750,122	0,17
750,558	0,17
750,994	0,17
751,43	0,17
751,866	0,18
752,302	0,18
752,738	0,18
753,174	0,18
753,61	0,18
754,046	0,18
754,482	0,18
754,918	0,18
755,354	0,18
755,789	0,18
756,225	0,18
756,661	0,18
757,096	0,18
757,532	0,18
757,968	0,18
758,403	0,18
758,839	0,18
759,274	0,18
759,71	0,18
760,145	0,17
760,581	0,17
761,016	0,17
761,452	0,16
761,887	0,16
762,322	0,16
762,758	0,16
763,193	0,15
763,628	0,15
764,063	0,15
764,499	0,14
764,934	0,14
765,369	0,14
765,804	0,13
766,239	0,13
766,674	0,13
767,109	0,12
767,544	0,12
767,979	0,12
768,414	0,11
768,849	0,11
769,284	0,1
769,719	0,1
770,154	0,09
770,588	0,09
771,023	0,08
771,458	0,08
771,893	0,07
772,327	0,06
772,762	0,05
773,197	0,05
773,631	0,04
774,066	0,04
774,5	0,04
774,935	0,03
775,369	0,02
775,804	0,02
776,238	0,01
776,673	0
777,107	-0
777,541	-0
777,976	-0,01
778,41	-0,01
778,844	-0,02
779,279	-0,03
779,713	-0,03
780,147	-0,04
780,581	-0,04
781,015	-0,05
781,449	-0,06
781,883	-0,07
782,317	-0,08
782,751	-0,08
783,185	-0,09
783,619	-0,1
784,053	-0,11
784,487	-0,11
784,921	-0,12
785,355	-0,12
785,789	-0,13
786,223	-0,14
786,656	-0,15
787,09	-0,16
787,524	-0,17
787,957	-0,18
788,391	-0,2
788,825	-0,21
789,258	-0,23
789,692	-0,25
790,125	-0,27
790,559	-0,28
790,992	-0,31
791,426	-0,33
791,859	-0,35
792,293	-0,38
792,726	-0,4
793,159	-0,42
793,593	-0,45
794,026	-0,47
794,459	-0,5
794,892	-0,53
795,326	-0,56
795,759	-0,6
796,192	-0,65
796,625	-0,7
797,058	-0,73
797,491	-0,78
797,924	-0,82
798,357	-0,88
798,79	-0,93
799,223	-0,98
799,656	-1,03
800,089	-1,09
800,522	-1,13
800,955	-1,18
801,387	-1,24
801,82	-1,3
802,253	-1,36
802,686	-1,45
803,118	-1,51
803,551	-1,56
803,984	-1,62
804,416	-1,7
804,849	-1,88
805,281	-2,22
805,714	-2,49
806,146	-2,73
806,579	-2,9
807,011	-3,02
807,444	-3,05
807,876	-3,08
808,308	-3,1
808,741	-3,12
809,173	-3,17
809,605	-3,18
810,037	-3,21
810,47	-3,06
810,902	-2,83
811,334	-2,62
811,766	-2,32
812,198	-1,98
812,63	-1,81
813,062	-1,73
813,494	-1,66
813,926	-1,58
814,358	-1,53
814,79	-1,45
815,222	-1,39
815,654	-1,35
816,086	-1,28
816,518	-1,23
816,949	-1,18
817,381	-1,13
817,813	-1,12
818,245	-1,07
818,676	-1,03
819,108	-1
819,54	-0,98
819,971	-0,96
820,403	-0,91
820,834	-0,89
821,266	-0,85
821,697	-0,82
822,129	-0,81
822,56	-0,78
822,991	-0,75
823,423	-0,72
823,854	-0,71
824,286	-0,68
824,717	-0,67
825,148	-0,65
825,579	-0,64
826,01	-0,62
826,442	-0,61
826,873	-0,59
827,304	-0,55
827,735	-0,55
828,166	-0,55
828,597	-0,54
829,028	-0,53
829,459	-0,53
829,89	-0,53
830,321	-0,49
830,752	-0,49
831,183	-0,48
831,613	-0,47
832,044	-0,46
832,475	-0,44
832,906	-0,46
833,336	-0,46
833,767	-0,47
834,198	-0,46
834,628	-0,44
835,059	-0,46
835,49	-0,47
835,92	-0,44
836,351	-0,44
836,781	-0,45
837,212	-0,47
837,642	-0,46
838,072	-0,44
838,503	-0,45
838,933	-0,42
839,364	-0,43
839,794	-0,42
840,224	-0,41
840,654	-0,46
841,085	-0,46
841,515	-0,43
841,945	-0,43
842,375	-0,39
842,805	-0,38
843,235	-0,37
843,665	-0,38
844,095	-0,37
844,525	-0,38
844,955	-0,38
845,385	-0,36
845,815	-0,35
846,245	-0,37
846,675	-0,38
847,105	-0,39
847,534	-0,39
847,964	-0,38
848,394	-0,37
848,824	-0,4
849,253	-0,38
849,683	-0,39
850,112	-0,39
850,542	-0,42
850,972	-0,43
851,401	-0,39
851,831	-0,38
852,26	-0,39
852,69	-0,42
853,119	-0,41
853,548	-0,41
853,978	-0,41
854,407	-0,4
854,836	-0,4
855,266	-0,38
855,695	-0,4
856,124	-0,42
856,553	-0,43
856,983	-0,43
857,412	-0,43
857,841	-0,44
858,27	-0,46
858,699	-0,47
859,128	-0,5
859,557	-0,51
859,986	-0,53
860,415	-0,51
860,844	-0,48
861,273	-0,48
861,702	-0,5
862,13	-0,48
862,559	-0,5
862,988	-0,47
863,417	-0,46
863,845	-0,43
864,274	-0,44
864,703	-0,44
865,131	-0,44
865,56	-0,46
865,989	-0,48
866,417	-0,45
866,846	-0,45
867,274	-0,44
867,703	-0,46
868,131	-0,47
868,559	-0,48
868,988	-0,49
869,416	-0,49
869,844	-0,49
870,273	-0,52
870,701	-0,5
871,129	-0,53
871,557	-0,55
871,986	-0,55
872,414	-0,57
872,842	-0,54
873,27	-0,52
873,698	-0,49
874,126	-0,53
874,554	-0,52
874,982	-0,51
875,41	-0,55
875,838	-0,49
876,266	-0,47
876,694	-0,47
877,122	-0,45
877,549	-0,49
877,977	-0,47
878,405	-0,49
878,833	-0,46
879,26	-0,44
879,688	-0,45
880,116	-0,43
880,543	-0,41
880,971	-0,4
881,399	-0,43
881,826	-0,44
882,254	-0,41
882,681	-0,45
883,109	-0,4
883,536	-0,42
883,963	-0,42
884,391	-0,41
884,818	-0,39
885,245	-0,42
885,673	-0,43
886,1	-0,41
886,527	-0,41
886,954	-0,38
887,381	-0,39
887,809	-0,41
888,236	-0,43
888,663	-0,43
889,09	-0,46
889,517	-0,49
889,944	-0,49
890,371	-0,49
890,798	-0,5
891,225	-0,49
891,652	-0,53
892,078	-0,51
892,505	-0,54
892,932	-0,49
893,359	-0,5
893,786	-0,49
894,212	-0,46
894,639	-0,47
895,066	-0,48
895,492	-0,43
895,919	-0,45
896,346	-0,44
896,772	-0,43
897,199	-0,39
897,625	-0,42
898,052	-0,38
898,478	-0,38
898,904	-0,39
899,331	-0,38
899,757	-0,4
900,183	-0,42
900,61	-0,41
901,036	-0,42
901,462	-0,42
901,888	-0,42
902,315	-0,4
902,741	-0,45
903,167	-0,43
903,593	-0,47
904,019	-0,46
904,445	-0,44
904,871	-0,45
905,297	-0,46
905,723	-0,45
906,149	-0,44
906,575	-0,45
907,001	-0,46
907,427	-0,42
907,852	-0,43
908,278	-0,43
908,704	-0,41
909,13	-0,4
909,555	-0,4
909,981	-0,4
910,407	-0,4
910,832	-0,39
911,258	-0,4
911,684	-0,4
912,109	-0,4
912,535	-0,41
912,96	-0,37
913,386	-0,41
913,811	-0,42
914,236	-0,43
914,662	-0,41
915,087	-0,44
915,512	-0,44
915,938	-0,45
916,363	-0,44
916,788	-0,45
917,213	-0,44
917,639	-0,48
918,064	-0,45
918,489	-0,45
918,914	-0,46
919,339	-0,47
919,764	-0,44
920,189	-0,45
920,614	-0,47
921,039	-0,47
921,464	-0,43
921,889	-0,45
922,314	-0,46
922,738	-0,49
923,163	-0,5
923,588	-0,5
924,013	-0,5
924,437	-0,5
924,862	-0,53
925,287	-0,49
925,711	-0,5
926,136	-0,53
926,561	-0,51
926,985	-0,5
927,41	-0,47
927,834	-0,45
928,259	-0,43
928,683	-0,41
929,108	-0,38
929,532	-0,39
929,956	-0,38
930,381	-0,38
930,805	-0,38
931,229	-0,37
931,653	-0,36
932,078	-0,36
932,502	-0,38
932,926	-0,38
933,35	-0,38
933,774	-0,37
934,198	-0,35
934,622	-0,35
935,046	-0,35
935,47	-0,36
935,894	-0,35
936,318	-0,36
936,742	-0,36
937,166	-0,36
937,59	-0,36
938,014	-0,39
938,437	-0,4
938,861	-0,42
939,285	-0,42
939,709	-0,41
940,132	-0,42
940,556	-0,43
940,98	-0,42
941,403	-0,41
941,827	-0,4
942,25	-0,41
942,674	-0,39
943,097	-0,38
943,521	-0,37
943,944	-0,39
944,368	-0,38
944,791	-0,36
945,214	-0,37
945,638	-0,38
946,061	-0,4
946,484	-0,41
946,907	-0,4
947,331	-0,4
947,754	-0,44
948,177	-0,42
948,6	-0,41
949,023	-0,4
949,446	-0,4
949,869	-0,38
950,292	-0,37
950,715	-0,34
951,138	-0,32
951,561	-0,31
951,984	-0,32
952,407	-0,31
952,83	-0,3
953,252	-0,27
953,675	-0,27
954,098	-0,26
954,521	-0,26
954,943	-0,25
955,366	-0,26
955,789	-0,24
956,211	-0,27
956,634	-0,27
957,056	-0,25
957,479	-0,26
957,902	-0,27
958,324	-0,28
958,746	-0,28
959,169	-0,29
959,591	-0,29
960,014	-0,3
960,436	-0,3
960,858	-0,29
961,281	-0,29
961,703	-0,3
962,125	-0,29
962,547	-0,28
962,969	-0,29
963,391	-0,29
963,814	-0,3
964,236	-0,29
964,658	-0,27
965,08	-0,27
965,502	-0,27
965,924	-0,25
966,346	-0,25
966,768	-0,25
967,189	-0,27
967,611	-0,27
968,033	-0,27
968,455	-0,26
968,877	-0,26
969,298	-0,27
969,72	-0,29
970,142	-0,28
970,563	-0,28
970,985	-0,27
971,407	-0,26
971,828	-0,25
972,25	-0,24
972,671	-0,22
973,093	-0,21
973,514	-0,2
973,936	-0,19
974,357	-0,18
974,778	-0,18
975,2	-0,18
975,621	-0,18
976,042	-0,16
976,464	-0,16
976,885	-0,15
977,306	-0,15
977,727	-0,15
978,148	-0,15
978,57	-0,14
978,991	-0,12
979,412	-0,11
979,833	-0,1
980,254	-0,1
980,675	-0,1
981,096	-0,1
981,517	-0,09
981,937	-0,09
982,358	-0,08
982,779	-0,07
983,2	-0,07
983,621	-0,07
984,042	-0,07
984,462	-0,06
984,883	-0,05
985,304	-0,04
985,724	-0,03
986,145	-0,03
986,565	-0,02
986,986	-0,02
987,407	-0,02
987,827	-0,01
988,248	0
988,668	0,01
989,088	0,01
989,509	0,02
989,929	0,02
990,35	0,02
990,77	0,03
991,19	0,03
991,61	0,04
992,031	0,05
992,451	0,05
992,871	0,06
993,291	0,06
993,711	0,06
994,131	0,06
994,551	0,06
994,971	0,07
995,391	0,07
995,811	0,07
996,231	0,07
996,651	0,07
997,071	0,07
997,491	0,07
997,911	0,08
998,331	0,08
998,75	0,08
999,17	0,08
999,59	0,09
1000,009	0,09
1000,429	0,09
1000,849	0,09
1001,268	0,09
1001,688	0,09
1002,107	0,1
1002,527	0,1
1002,946	0,1
1003,366	0,1
1003,785	0,1
1004,205	0,1
1004,624	0,1
1005,044	0,1
1005,463	0,1
1005,882	0,1
1006,301	0,1
1006,721	0,1
1007,14	0,1
1007,559	0,1
1007,978	0,1
1008,397	0,1
1008,816	0,1
1009,235	0,1
1009,655	0,1
1010,074	0,1
1010,492	0,1
1010,911	0,1
1011,33	0,1
1011,749	0,1
1012,168	0,1
1012,587	0,1
1013,006	0,1
1013,425	0,09
1013,843	0,09
1014,262	0,09
1014,681	0,09
1015,099	0,09
1015,518	0,09
1015,937	0,09
1016,355	0,09
1016,774	0,09
1017,192	0,09
1017,611	0,09
1018,029	0,09
1018,448	0,1
1018,866	0,1
1019,285	0,1
1019,703	0,1
1020,121	0,1
1020,54	0,1
1020,958	0,1
1021,376	0,1
1021,794	0,1
1022,213	0,1
1022,631	0,1
1023,049	0,1
1023,467	0,1
1023,885	0,1
1024,303	0,1
1024,721	0,09
1025,139	0,09
1025,557	0,09
1025,975	0,09
1026,393	0,09
1026,811	0,09
1027,229	0,09
1027,647	0,09
1028,065	0,09
1028,482	0,09
1028,9	0,09
1029,318	0,09
1029,735	0,09
1030,153	0,09
1030,571	0,09
1030,988	0,09
1031,406	0,09
1031,823	0,09
1032,241	0,09
1032,659	0,09
1033,076	0,09
1033,493	0,09
1033,911	0,09
1034,328	0,09
1034,746	0,09
1035,163	0,09
1035,58	0,09
1035,997	0,09
1036,415	0,1
1036,832	0,1
1037,249	0,1
1037,666	0,1
1038,083	0,1
1038,501	0,1
1038,918	0,1
1039,335	0,1
1039,752	0,1
1040,169	0,09
1040,586	0,09
1041,003	0,09
1041,419	0,09
1041,836	0,09
1042,253	0,09
1042,67	0,09
1043,087	0,09
1043,504	0,09
1043,92	0,09
1044,337	0,09
1044,754	0,09
1045,17	0,09
1045,587	0,09
1046,004	0,09
1046,42	0,09
1046,837	0,09
1047,253	0,09
1047,67	0,09
1048,086	0,09
1048,503	0,09
1048,919	0,09
1049,335	0,09
1049,752	0,09
1050,168	0,09
1050,584	0,09
1051,001	0,09
1051,417	0,09
1051,833	0,09
1052,249	0,09
1052,665	0,09
1053,081	0,09
1053,497	0,09
1053,914	0,09
1054,33	0,09
1054,746	0,09
1055,162	0,09
1055,578	0,09
1055,993	0,09
1056,409	0,09
1056,825	0,09
1057,241	0,09
1057,657	0,09
1058,073	0,09
1058,488	0,09
1058,904	0,09
1059,32	0,09
1059,736	0,09
1060,151	0,09
1060,567	0,09
1060,982	0,09
1061,398	0,09
1061,813	0,09
1062,229	0,09
1062,644	0,09
1063,06	0,08
1063,475	0,08
1063,891	0,08
1064,306	0,08
1064,721	0,08
1065,137	0,08
1065,552	0,08
1065,967	0,08
1066,382	0,08
1066,798	0,08
1067,213	0,08
1067,628	0,08
1068,043	0,08
1068,458	0,08
1068,873	0,09
1069,288	0,09
1069,703	0,09
1070,118	0,09
1070,533	0,09
1070,948	0,09
1071,363	0,09
1071,778	0,09
1072,193	0,09
1072,607	0,09
1073,022	0,09
1073,437	0,09
1073,852	0,09
1074,266	0,09
1074,681	0,09
1075,096	0,09
1075,51	0,09
1075,925	0,09
1076,339	0,09
1076,754	0,08
1077,168	0,08
1077,583	0,08
1077,997	0,08
1078,412	0,08
1078,826	0,08
1079,24	0,08
1079,655	0,08
1080,069	0,08
1080,483	0,08
1080,897	0,08
1081,312	0,08
1081,726	0,08
1082,14	0,08
1082,554	0,08
1082,968	0,08
1083,382	0,08
1083,796	0,08
1084,21	0,08
1084,624	0,08
1085,038	0,08
1085,452	0,08
1085,866	0,08
1086,28	0,08
1086,694	0,08
1087,108	0,08
1087,521	0,08
1087,935	0,08
1088,349	0,07
1088,763	0,07
1089,176	0,07
1089,59	0,07
1090,004	0,07
1090,417	0,07
1090,831	0,07
1091,244	0,07
1091,658	0,06
1092,071	0,06
1092,485	0,06
1092,898	0,06
1093,312	0,06
1093,725	0,06
1094,138	0,06
1094,552	0,06
1094,965	0,06
1095,378	0,06
1095,791	0,06
1096,205	0,06
1096,618	0,06
1097,031	0,06
1097,444	0,05
1097,857	0,05
1098,27	0,05
1098,683	0,05
1099,096	0,05
1099,509	0,05
1099,922	0,05
1100,335	0,05
1100,748	0,05
1101,161	0,05
1101,574	0,04
1101,986	0,04
1102,399	0,04
1102,812	0,04
1103,225	0,04
1103,637	0,04
1104,05	0,04
1104,463	0,04
1104,875	0,03
1105,288	0,03
1105,7	0,03
1106,113	0,03
1106,525	0,03
1106,938	0,03
1107,35	0,02
1107,763	0,02
1108,175	0,02
1108,588	0,02
1109	0,02
1109,412	0,01
1109,824	0,01
1110,237	0,01
1110,649	0,01
1111,061	0,01
