Data from 18C-808nm-8A_Absorbance__748__00748.txt Node

Date: Mon Jul 17 16:47:33 CEST 2023
User: Laser008
Spectrometer: MAYP115816
Trigger mode: 0
Integration Time (sec): 2,500000E-1
Scans to average: 10
Electric dark correction enabled: true
Nonlinearity correction enabled: true
Boxcar width: 5
XAxis mode: Wavelengths
Number of Pixels in Spectrum: 2068
>>>>>Begin Spectral Data<<<<<
198,914	-0,71
199,384	-0,51
199,855	-0,38
200,325	-0,3
200,796	-0,28
201,266	-0,23
201,737	-0,22
202,207	-0,2
202,677	-0,2
203,147	-0,18
203,618	-0,15
204,088	-0,13
204,558	-0,12
205,028	-0,11
205,498	-0,11
205,968	-0,11
206,439	-0,13
206,909	-0,11
207,379	-0,12
207,849	-0,12
208,319	-0,13
208,789	-0,13
209,258	-0,13
209,728	-0,14
210,198	-0,13
210,668	-0,13
211,138	-0,13
211,608	-0,13
212,077	-0,14
212,547	-0,14
213,017	-0,14
213,486	-0,14
213,956	-0,15
214,426	-0,17
214,895	-0,16
215,365	-0,17
215,834	-0,18
216,304	-0,19
216,773	-0,19
217,243	-0,21
217,712	-0,23
218,181	-0,22
218,651	-0,22
219,12	-0,22
219,589	-0,22
220,058	-0,2
220,528	-0,21
220,997	-0,22
221,466	-0,23
221,935	-0,23
222,404	-0,21
222,873	-0,19
223,342	-0,19
223,812	-0,2
224,281	-0,2
224,749	-0,2
225,218	-0,22
225,687	-0,22
226,156	-0,2
226,625	-0,19
227,094	-0,19
227,563	-0,2
228,031	-0,22
228,5	-0,22
228,969	-0,23
229,438	-0,22
229,906	-0,21
230,375	-0,2
230,844	-0,2
231,312	-0,2
231,781	-0,2
232,249	-0,19
232,718	-0,19
233,186	-0,17
233,655	-0,17
234,123	-0,16
234,591	-0,17
235,06	-0,17
235,528	-0,18
235,996	-0,17
236,465	-0,17
236,933	-0,16
237,401	-0,17
237,869	-0,16
238,337	-0,16
238,805	-0,15
239,274	-0,15
239,742	-0,15
240,21	-0,14
240,678	-0,13
241,146	-0,12
241,614	-0,13
242,081	-0,12
242,549	-0,12
243,017	-0,12
243,485	-0,12
243,953	-0,12
244,421	-0,11
244,888	-0,11
245,356	-0,11
245,824	-0,11
246,291	-0,11
246,759	-0,11
247,227	-0,12
247,694	-0,11
248,162	-0,11
248,629	-0,1
249,097	-0,11
249,564	-0,12
250,032	-0,13
250,499	-0,14
250,967	-0,14
251,434	-0,15
251,901	-0,15
252,369	-0,15
252,836	-0,16
253,303	-0,18
253,77	-0,19
254,237	-0,18
254,705	-0,18
255,172	-0,17
255,639	-0,17
256,106	-0,18
256,573	-0,18
257,04	-0,19
257,507	-0,19
257,974	-0,19
258,441	-0,17
258,908	-0,18
259,375	-0,19
259,841	-0,19
260,308	-0,19
260,775	-0,18
261,242	-0,18
261,709	-0,19
262,175	-0,2
262,642	-0,19
263,109	-0,19
263,575	-0,19
264,042	-0,17
264,508	-0,18
264,975	-0,19
265,441	-0,2
265,908	-0,21
266,374	-0,21
266,841	-0,21
267,307	-0,2
267,773	-0,19
268,24	-0,19
268,706	-0,2
269,172	-0,21
269,639	-0,22
270,105	-0,2
270,571	-0,2
271,037	-0,2
271,503	-0,21
271,969	-0,21
272,435	-0,22
272,902	-0,23
273,368	-0,23
273,834	-0,23
274,3	-0,22
274,765	-0,22
275,231	-0,23
275,697	-0,23
276,163	-0,23
276,629	-0,22
277,095	-0,22
277,56	-0,22
278,026	-0,22
278,492	-0,22
278,958	-0,22
279,423	-0,23
279,889	-0,22
280,354	-0,22
280,82	-0,21
281,286	-0,22
281,751	-0,23
282,217	-0,22
282,682	-0,22
283,147	-0,22
283,613	-0,22
284,078	-0,22
284,544	-0,23
285,009	-0,24
285,474	-0,24
285,939	-0,25
286,405	-0,24
286,87	-0,24
287,335	-0,24
287,8	-0,23
288,265	-0,22
288,73	-0,23
289,195	-0,25
289,66	-0,24
290,125	-0,22
290,59	-0,23
291,055	-0,22
291,52	-0,22
291,985	-0,23
292,45	-0,24
292,915	-0,24
293,38	-0,25
293,844	-0,23
294,309	-0,22
294,774	-0,21
295,239	-0,22
295,703	-0,23
296,168	-0,21
296,632	-0,21
297,097	-0,19
297,562	-0,18
298,026	-0,18
298,491	-0,18
298,955	-0,18
299,419	-0,17
299,884	-0,17
300,348	-0,16
300,813	-0,15
301,277	-0,15
301,741	-0,16
302,205	-0,16
302,67	-0,15
303,134	-0,14
303,598	-0,14
304,062	-0,14
304,526	-0,13
304,99	-0,15
305,454	-0,15
305,919	-0,15
306,383	-0,15
306,847	-0,15
307,31	-0,16
307,774	-0,17
308,238	-0,17
308,702	-0,17
309,166	-0,18
309,63	-0,18
310,094	-0,16
310,557	-0,16
311,021	-0,15
311,485	-0,15
311,948	-0,16
312,412	-0,15
312,876	-0,14
313,339	-0,15
313,803	-0,15
314,266	-0,15
314,73	-0,15
315,193	-0,15
315,657	-0,14
316,12	-0,14
316,584	-0,14
317,047	-0,13
317,51	-0,12
317,973	-0,11
318,437	-0,1
318,9	-0,09
319,363	-0,09
319,826	-0,09
320,29	-0,09
320,753	-0,1
321,216	-0,09
321,679	-0,09
322,142	-0,09
322,605	-0,1
323,068	-0,1
323,531	-0,1
323,994	-0,1
324,457	-0,1
324,92	-0,08
325,382	-0,08
325,845	-0,08
326,308	-0,07
326,771	-0,07
327,233	-0,07
327,696	-0,06
328,159	-0,06
328,622	-0,05
329,084	-0,05
329,547	-0,04
330,009	-0,04
330,472	-0,03
330,934	-0,03
331,397	-0,03
331,859	-0,02
332,322	-0,02
332,784	-0,02
333,246	-0,01
333,709	-0,01
334,171	-0
334,633	-0
335,096	-0,01
335,558	-0,01
336,02	-0,01
336,482	-0,01
336,944	-0,01
337,406	-0
337,868	0
338,331	-0
338,793	0
339,255	0,01
339,717	0,01
340,178	0,02
340,64	0,02
341,102	0,03
341,564	0,04
342,026	0,04
342,488	0,05
342,949	0,05
343,411	0,07
343,873	0,09
344,335	0,11
344,796	0,13
345,258	0,15
345,719	0,18
346,181	0,2
346,643	0,21
347,104	0,23
347,566	0,24
348,027	0,25
348,488	0,26
348,95	0,27
349,411	0,27
349,873	0,28
350,334	0,29
350,795	0,3
351,256	0,3
351,718	0,3
352,179	0,31
352,64	0,31
353,101	0,31
353,562	0,31
354,023	0,31
354,484	0,31
354,945	0,31
355,406	0,31
355,867	0,31
356,328	0,31
356,789	0,31
357,25	0,32
357,711	0,32
358,172	0,32
358,633	0,32
359,093	0,32
359,554	0,32
360,015	0,32
360,476	0,32
360,936	0,32
361,397	0,32
361,858	0,32
362,318	0,32
362,779	0,32
363,239	0,32
363,7	0,32
364,16	0,32
364,621	0,32
365,081	0,32
365,541	0,32
366,002	0,32
366,462	0,32
366,922	0,32
367,383	0,32
367,843	0,32
368,303	0,32
368,763	0,32
369,223	0,32
369,684	0,32
370,144	0,32
370,604	0,32
371,064	0,32
371,524	0,32
371,984	0,32
372,444	0,32
372,904	0,32
373,363	0,32
373,823	0,32
374,283	0,32
374,743	0,32
375,203	0,32
375,663	0,32
376,122	0,32
376,582	0,32
377,042	0,32
377,501	0,32
377,961	0,32
378,42	0,32
378,88	0,32
379,34	0,32
379,799	0,32
380,259	0,32
380,718	0,32
381,177	0,32
381,637	0,32
382,096	0,31
382,555	0,31
383,015	0,31
383,474	0,31
383,933	0,31
384,393	0,31
384,852	0,31
385,311	0,31
385,77	0,31
386,229	0,31
386,688	0,31
387,147	0,31
387,606	0,31
388,065	0,31
388,524	0,31
388,983	0,31
389,442	0,31
389,901	0,31
390,36	0,31
390,819	0,31
391,277	0,31
391,736	0,31
392,195	0,31
392,654	0,31
393,112	0,31
393,571	0,31
394,03	0,31
394,488	0,31
394,947	0,31
395,405	0,31
395,864	0,31
396,322	0,31
396,781	0,31
397,239	0,31
397,698	0,31
398,156	0,31
398,614	0,31
399,073	0,31
399,531	0,31
399,989	0,31
400,447	0,31
400,905	0,31
401,364	0,31
401,822	0,31
402,28	0,31
402,738	0,31
403,196	0,31
403,654	0,31
404,112	0,31
404,57	0,31
405,028	0,3
405,486	0,3
405,944	0,3
406,402	0,3
406,859	0,3
407,317	0,3
407,775	0,3
408,233	0,3
408,691	0,3
409,148	0,3
409,606	0,3
410,064	0,3
410,521	0,3
410,979	0,3
411,436	0,3
411,894	0,3
412,351	0,3
412,809	0,3
413,266	0,3
413,724	0,3
414,181	0,3
414,638	0,3
415,096	0,3
415,553	0,3
416,01	0,3
416,467	0,3
416,925	0,3
417,382	0,3
417,839	0,3
418,296	0,3
418,753	0,3
419,21	0,3
419,667	0,3
420,124	0,3
420,581	0,3
421,038	0,3
421,495	0,3
421,952	0,3
422,409	0,3
422,866	0,3
423,322	0,3
423,779	0,3
424,236	0,3
424,693	0,3
425,149	0,3
425,606	0,3
426,063	0,3
426,519	0,3
426,976	0,3
427,433	0,3
427,889	0,3
428,346	0,3
428,802	0,3
429,258	0,3
429,715	0,3
430,171	0,3
430,628	0,3
431,084	0,3
431,54	0,3
431,997	0,3
432,453	0,3
432,909	0,3
433,365	0,29
433,821	0,29
434,277	0,29
434,734	0,29
435,19	0,29
435,646	0,29
436,102	0,29
436,558	0,29
437,014	0,29
437,47	0,29
437,925	0,29
438,381	0,29
438,837	0,29
439,293	0,29
439,749	0,29
440,205	0,29
440,66	0,29
441,116	0,29
441,572	0,29
442,027	0,29
442,483	0,29
442,939	0,29
443,394	0,29
443,85	0,29
444,305	0,29
444,761	0,29
445,216	0,29
445,672	0,29
446,127	0,29
446,582	0,29
447,038	0,29
447,493	0,29
447,948	0,29
448,403	0,29
448,859	0,29
449,314	0,29
449,769	0,29
450,224	0,29
450,679	0,29
451,134	0,29
451,589	0,29
452,044	0,29
452,499	0,29
452,954	0,29
453,409	0,29
453,864	0,29
454,319	0,29
454,774	0,29
455,229	0,29
455,684	0,29
456,138	0,29
456,593	0,29
457,048	0,29
457,503	0,29
457,957	0,29
458,412	0,29
458,866	0,29
459,321	0,29
459,776	0,29
460,23	0,29
460,685	0,29
461,139	0,29
461,593	0,29
462,048	0,3
462,502	0,3
462,957	0,3
463,411	0,3
463,865	0,3
464,319	0,3
464,774	0,3
465,228	0,3
465,682	0,3
466,136	0,3
466,59	0,3
467,044	0,3
467,499	0,3
467,953	0,3
468,407	0,3
468,861	0,3
469,315	0,3
469,768	0,3
470,222	0,3
470,676	0,3
471,13	0,3
471,584	0,3
472,038	0,3
472,491	0,3
472,945	0,3
473,399	0,3
473,852	0,3
474,306	0,3
474,76	0,3
475,213	0,3
475,667	0,3
476,12	0,3
476,574	0,3
477,027	0,3
477,481	0,3
477,934	0,31
478,388	0,31
478,841	0,31
479,294	0,31
479,748	0,31
480,201	0,31
480,654	0,31
481,107	0,31
481,561	0,31
482,014	0,31
482,467	0,31
482,92	0,31
483,373	0,31
483,826	0,31
484,279	0,31
484,732	0,32
485,185	0,32
485,638	0,32
486,091	0,32
486,544	0,32
486,997	0,32
487,449	0,32
487,902	0,32
488,355	0,32
488,808	0,32
489,26	0,32
489,713	0,32
490,166	0,33
490,618	0,33
491,071	0,33
491,523	0,33
491,976	0,33
492,429	0,33
492,881	0,33
493,333	0,34
493,786	0,34
494,238	0,34
494,691	0,34
495,143	0,34
495,595	0,34
496,048	0,34
496,5	0,35
496,952	0,35
497,404	0,35
497,856	0,35
498,309	0,35
498,761	0,35
499,213	0,36
499,665	0,36
500,117	0,36
500,569	0,36
501,021	0,36
501,473	0,36
501,925	0,37
502,377	0,37
502,828	0,37
503,28	0,37
503,732	0,37
504,184	0,38
504,636	0,38
505,087	0,38
505,539	0,38
505,991	0,38
506,442	0,38
506,894	0,39
507,345	0,39
507,797	0,39
508,249	0,39
508,7	0,39
509,151	0,39
509,603	0,4
510,054	0,4
510,506	0,4
510,957	0,4
511,408	0,4
511,86	0,4
512,311	0,41
512,762	0,41
513,213	0,41
513,665	0,41
514,116	0,41
514,567	0,41
515,018	0,42
515,469	0,42
515,92	0,42
516,371	0,42
516,822	0,42
517,273	0,42
517,724	0,43
518,175	0,43
518,626	0,43
519,076	0,43
519,527	0,43
519,978	0,43
520,429	0,43
520,88	0,43
521,33	0,44
521,781	0,44
522,232	0,44
522,682	0,44
523,133	0,44
523,583	0,44
524,034	0,44
524,484	0,44
524,935	0,44
525,385	0,44
525,836	0,44
526,286	0,44
526,736	0,44
527,187	0,44
527,637	0,44
528,087	0,44
528,538	0,44
528,988	0,44
529,438	0,44
529,888	0,44
530,338	0,44
530,788	0,44
531,238	0,44
531,688	0,44
532,139	0,44
532,589	0,44
533,038	0,44
533,488	0,44
533,938	0,44
534,388	0,44
534,838	0,44
535,288	0,44
535,738	0,44
536,187	0,44
536,637	0,44
537,087	0,44
537,537	0,44
537,986	0,43
538,436	0,43
538,885	0,43
539,335	0,43
539,785	0,43
540,234	0,43
540,684	0,42
541,133	0,42
541,582	0,42
542,032	0,42
542,481	0,42
542,931	0,42
543,38	0,41
543,829	0,41
544,278	0,41
544,728	0,41
545,177	0,41
545,626	0,41
546,075	0,41
546,524	0,4
546,973	0,4
547,422	0,4
547,871	0,4
548,32	0,4
548,769	0,4
549,218	0,4
549,667	0,4
550,116	0,4
550,565	0,4
551,014	0,4
551,463	0,4
551,911	0,39
552,36	0,39
552,809	0,39
553,258	0,39
553,706	0,39
554,155	0,39
554,603	0,39
555,052	0,39
555,501	0,38
555,949	0,38
556,398	0,38
556,846	0,38
557,294	0,38
557,743	0,38
558,191	0,38
558,64	0,37
559,088	0,37
559,536	0,37
559,985	0,37
560,433	0,37
560,881	0,37
561,329	0,36
561,777	0,36
562,225	0,36
562,674	0,36
563,122	0,36
563,57	0,36
564,018	0,36
564,466	0,36
564,914	0,35
565,362	0,35
565,809	0,35
566,257	0,35
566,705	0,35
567,153	0,35
567,601	0,35
568,048	0,34
568,496	0,34
568,944	0,34
569,392	0,34
569,839	0,34
570,287	0,34
570,734	0,34
571,182	0,34
571,63	0,34
572,077	0,33
572,525	0,33
572,972	0,33
573,419	0,33
573,867	0,33
574,314	0,33
574,761	0,33
575,209	0,33
575,656	0,32
576,103	0,32
576,551	0,32
576,998	0,32
577,445	0,32
577,892	0,32
578,339	0,32
578,786	0,32
579,233	0,32
579,68	0,32
580,127	0,32
580,574	0,32
581,021	0,32
581,468	0,31
581,915	0,31
582,362	0,31
582,809	0,31
583,255	0,31
583,702	0,31
584,149	0,31
584,596	0,31
585,042	0,31
585,489	0,31
585,936	0,31
586,382	0,31
586,829	0,31
587,275	0,31
587,722	0,3
588,168	0,3
588,615	0,3
589,061	0,3
589,508	0,3
589,954	0,3
590,4	0,3
590,847	0,3
591,293	0,3
591,739	0,3
592,185	0,3
592,632	0,3
593,078	0,3
593,524	0,3
593,97	0,3
594,416	0,3
594,862	0,3
595,308	0,3
595,754	0,3
596,2	0,29
596,646	0,29
597,092	0,29
597,538	0,29
597,984	0,29
598,43	0,29
598,876	0,29
599,321	0,29
599,767	0,29
600,213	0,29
600,659	0,29
601,104	0,29
601,55	0,29
601,995	0,29
602,441	0,29
602,887	0,29
603,332	0,29
603,778	0,29
604,223	0,29
604,668	0,29
605,114	0,29
605,559	0,28
606,005	0,29
606,45	0,29
606,895	0,29
607,341	0,28
607,786	0,28
608,231	0,28
608,676	0,28
609,121	0,28
609,566	0,28
610,012	0,27
610,457	0,27
610,902	0,27
611,347	0,27
611,792	0,27
612,237	0,27
612,682	0,27
613,127	0,27
613,571	0,27
614,016	0,27
614,461	0,27
614,906	0,27
615,351	0,27
615,795	0,27
616,24	0,27
616,685	0,27
617,129	0,27
617,574	0,27
618,019	0,27
618,463	0,27
618,908	0,27
619,352	0,27
619,797	0,27
620,241	0,27
620,686	0,27
621,13	0,27
621,574	0,27
622,019	0,27
622,463	0,27
622,907	0,27
623,352	0,27
623,796	0,27
624,24	0,27
624,684	0,27
625,128	0,27
625,572	0,27
626,016	0,27
626,461	0,27
626,905	0,27
627,349	0,27
627,793	0,27
628,236	0,27
628,68	0,27
629,124	0,27
629,568	0,27
630,012	0,27
630,456	0,27
630,9	0,27
631,343	0,27
631,787	0,27
632,231	0,27
632,674	0,27
633,118	0,27
633,562	0,27
634,005	0,27
634,449	0,27
634,892	0,27
635,336	0,27
635,779	0,27
636,223	0,27
636,666	0,27
637,109	0,27
637,553	0,27
637,996	0,27
638,439	0,27
638,883	0,27
639,326	0,27
639,769	0,26
640,212	0,26
640,655	0,26
641,099	0,26
641,542	0,26
641,985	0,26
642,428	0,26
642,871	0,26
643,314	0,26
643,757	0,26
644,2	0,26
644,643	0,26
645,085	0,26
645,528	0,26
645,971	0,26
646,414	0,26
646,857	0,26
647,299	0,26
647,742	0,26
648,185	0,26
648,627	0,26
649,07	0,26
649,513	0,26
649,955	0,26
650,398	0,26
650,84	0,26
651,283	0,26
651,725	0,26
652,168	0,26
652,61	0,26
653,052	0,26
653,495	0,26
653,937	0,21
654,379	0,17
654,821	0,17
655,264	0,17
655,706	0,17
656,148	0,17
656,59	0,17
657,032	0,17
657,474	0,17
657,916	0,17
658,358	0,17
658,8	0,2
659,242	0,26
659,684	0,26
660,126	0,26
660,568	0,26
661,01	0,26
661,452	0,26
661,894	0,26
662,335	0,26
662,777	0,26
663,219	0,26
663,661	0,26
664,102	0,26
664,544	0,26
664,985	0,26
665,427	0,26
665,869	0,26
666,31	0,26
666,752	0,26
667,193	0,26
667,634	0,26
668,076	0,26
668,517	0,26
668,959	0,26
669,4	0,26
669,841	0,26
670,282	0,25
670,724	0,25
671,165	0,25
671,606	0,25
672,047	0,25
672,488	0,25
672,929	0,25
673,37	0,25
673,811	0,25
674,252	0,25
674,693	0,25
675,134	0,25
675,575	0,25
676,016	0,25
676,457	0,25
676,898	0,25
677,339	0,25
677,78	0,25
678,22	0,25
678,661	0,25
679,102	0,25
679,542	0,25
679,983	0,25
680,424	0,25
680,864	0,25
681,305	0,25
681,745	0,25
682,186	0,25
682,626	0,25
683,067	0,25
683,507	0,25
683,948	0,25
684,388	0,25
684,828	0,25
685,269	0,25
685,709	0,25
686,149	0,25
686,589	0,25
687,029	0,25
687,47	0,25
687,91	0,25
688,35	0,25
688,79	0,24
689,23	0,24
689,67	0,24
690,11	0,24
690,55	0,24
690,99	0,24
691,43	0,24
691,87	0,24
692,31	0,24
692,749	0,24
693,189	0,24
693,629	0,24
694,069	0,24
694,508	0,24
694,948	0,24
695,388	0,24
695,827	0,24
696,267	0,24
696,706	0,24
697,146	0,24
697,586	0,24
698,025	0,24
698,464	0,24
698,904	0,25
699,343	0,25
699,783	0,25
700,222	0,25
700,661	0,25
701,101	0,25
701,54	0,24
701,979	0,24
702,418	0,24
702,857	0,24
703,297	0,24
703,736	0,24
704,175	0,24
704,614	0,24
705,053	0,24
705,492	0,24
705,931	0,24
706,37	0,24
706,809	0,24
707,248	0,24
707,687	0,24
708,125	0,24
708,564	0,24
709,003	0,24
709,442	0,24
709,88	0,23
710,319	0,24
710,758	0,23
711,196	0,23
711,635	0,23
712,074	0,24
712,512	0,24
712,951	0,23
713,389	0,23
713,828	0,23
714,266	0,23
714,705	0,23
715,143	0,23
715,581	0,23
716,02	0,23
716,458	0,23
716,896	0,23
717,334	0,23
717,773	0,23
718,211	0,23
718,649	0,23
719,087	0,23
719,525	0,23
719,963	0,23
720,401	0,23
720,839	0,23
721,277	0,23
721,715	0,23
722,153	0,23
722,591	0,23
723,029	0,23
723,467	0,23
723,905	0,23
724,342	0,23
724,78	0,23
725,218	0,23
725,656	0,23
726,093	0,23
726,531	0,23
726,969	0,23
727,406	0,23
727,844	0,23
728,281	0,23
728,719	0,23
729,156	0,23
729,594	0,23
730,031	0,23
730,469	0,23
730,906	0,23
731,343	0,23
731,781	0,23
732,218	0,22
732,655	0,22
733,092	0,22
733,53	0,22
733,967	0,22
734,404	0,22
734,841	0,22
735,278	0,22
735,715	0,22
736,152	0,22
736,589	0,22
737,026	0,22
737,463	0,22
737,9	0,22
738,337	0,22
738,774	0,22
739,211	0,22
739,647	0,22
740,084	0,22
740,521	0,21
740,958	0,21
741,394	0,21
741,831	0,21
742,268	0,21
742,704	0,21
743,141	0,21
743,577	0,21
744,014	0,21
744,45	0,21
744,887	0,21
745,323	0,21
745,76	0,21
746,196	0,21
746,632	0,21
747,069	0,21
747,505	0,21
747,941	0,21
748,378	0,21
748,814	0,21
749,25	0,21
749,686	0,21
750,122	0,21
750,558	0,21
750,994	0,21
751,43	0,21
751,866	0,21
752,302	0,22
752,738	0,22
753,174	0,22
753,61	0,22
754,046	0,22
754,482	0,22
754,918	0,22
755,354	0,22
755,789	0,22
756,225	0,22
756,661	0,22
757,096	0,22
757,532	0,22
757,968	0,22
758,403	0,21
758,839	0,21
759,274	0,21
759,71	0,21
760,145	0,21
760,581	0,2
761,016	0,2
761,452	0,2
761,887	0,2
762,322	0,19
762,758	0,19
763,193	0,19
763,628	0,18
764,063	0,18
764,499	0,17
764,934	0,17
765,369	0,16
765,804	0,16
766,239	0,16
766,674	0,15
767,109	0,15
767,544	0,14
767,979	0,13
768,414	0,13
768,849	0,12
769,284	0,12
769,719	0,11
770,154	0,11
770,588	0,1
771,023	0,1
771,458	0,09
771,893	0,08
772,327	0,07
772,762	0,07
773,197	0,06
773,631	0,06
774,066	0,05
774,5	0,05
774,935	0,04
775,369	0,03
775,804	0,02
776,238	0,01
776,673	0,01
777,107	-0
777,541	-0
777,976	-0,01
778,41	-0,02
778,844	-0,03
779,279	-0,03
779,713	-0,04
780,147	-0,04
780,581	-0,05
781,015	-0,05
781,449	-0,06
781,883	-0,07
782,317	-0,08
782,751	-0,09
783,185	-0,1
783,619	-0,1
784,053	-0,11
784,487	-0,11
784,921	-0,12
785,355	-0,13
785,789	-0,14
786,223	-0,15
786,656	-0,16
787,09	-0,17
787,524	-0,18
787,957	-0,2
788,391	-0,21
788,825	-0,23
789,258	-0,24
789,692	-0,26
790,125	-0,27
790,559	-0,29
790,992	-0,31
791,426	-0,33
791,859	-0,34
792,293	-0,37
792,726	-0,39
793,159	-0,41
793,593	-0,43
794,026	-0,45
794,459	-0,48
794,892	-0,51
795,326	-0,53
795,759	-0,57
796,192	-0,62
796,625	-0,66
797,058	-0,69
797,491	-0,73
797,924	-0,78
798,357	-0,83
798,79	-0,87
799,223	-0,92
799,656	-0,97
800,089	-1,02
800,522	-1,07
800,955	-1,11
801,387	-1,17
801,82	-1,23
802,253	-1,29
802,686	-1,37
803,118	-1,43
803,551	-1,48
803,984	-1,53
804,416	-1,57
804,849	-1,64
805,281	-1,83
805,714	-2,23
806,146	-2,57
806,579	-2,79
807,011	-2,93
807,444	-3,01
807,876	-3,07
808,308	-3,1
808,741	-3,13
809,173	-3,18
809,605	-3,2
810,037	-3,26
810,47	-3,16
810,902	-2,95
811,334	-2,79
811,766	-2,61
812,198	-2,32
812,63	-1,96
813,062	-1,8
813,494	-1,72
813,926	-1,63
814,358	-1,58
814,79	-1,5
815,222	-1,44
815,654	-1,39
816,086	-1,33
816,518	-1,27
816,949	-1,22
817,381	-1,18
817,813	-1,16
818,245	-1,12
818,676	-1,08
819,108	-1,04
819,54	-1,03
819,971	-1
820,403	-0,95
820,834	-0,94
821,266	-0,89
821,697	-0,86
822,129	-0,84
822,56	-0,82
822,991	-0,8
823,423	-0,77
823,854	-0,76
824,286	-0,73
824,717	-0,72
825,148	-0,7
825,579	-0,69
826,01	-0,68
826,442	-0,67
826,873	-0,65
827,304	-0,61
827,735	-0,6
828,166	-0,61
828,597	-0,61
829,028	-0,59
829,459	-0,6
829,89	-0,6
830,321	-0,55
830,752	-0,57
831,183	-0,55
831,613	-0,55
832,044	-0,55
832,475	-0,54
832,906	-0,55
833,336	-0,56
833,767	-0,56
834,198	-0,55
834,628	-0,53
835,059	-0,56
835,49	-0,56
835,92	-0,53
836,351	-0,53
836,781	-0,53
837,212	-0,54
837,642	-0,54
838,072	-0,51
838,503	-0,52
838,933	-0,5
839,364	-0,5
839,794	-0,49
840,224	-0,48
840,654	-0,52
841,085	-0,53
841,515	-0,5
841,945	-0,5
842,375	-0,45
842,805	-0,44
843,235	-0,42
843,665	-0,43
844,095	-0,43
844,525	-0,44
844,955	-0,44
845,385	-0,42
845,815	-0,41
846,245	-0,43
846,675	-0,44
847,105	-0,46
847,534	-0,46
847,964	-0,45
848,394	-0,44
848,824	-0,48
849,253	-0,47
849,683	-0,47
850,112	-0,48
850,542	-0,5
850,972	-0,51
851,401	-0,49
851,831	-0,47
852,26	-0,47
852,69	-0,51
853,119	-0,5
853,548	-0,5
853,978	-0,5
854,407	-0,48
854,836	-0,48
855,266	-0,47
855,695	-0,48
856,124	-0,48
856,553	-0,5
856,983	-0,51
857,412	-0,5
857,841	-0,5
858,27	-0,52
858,699	-0,53
859,128	-0,56
859,557	-0,57
859,986	-0,58
860,415	-0,56
860,844	-0,53
861,273	-0,54
861,702	-0,55
862,13	-0,53
862,559	-0,56
862,988	-0,53
863,417	-0,51
863,845	-0,5
864,274	-0,51
864,703	-0,5
865,131	-0,52
865,56	-0,54
865,989	-0,56
866,417	-0,53
866,846	-0,54
867,274	-0,53
867,703	-0,55
868,131	-0,57
868,559	-0,58
868,988	-0,6
869,416	-0,6
869,844	-0,6
870,273	-0,63
870,701	-0,6
871,129	-0,64
871,557	-0,65
871,986	-0,65
872,414	-0,66
872,842	-0,63
873,27	-0,61
873,698	-0,58
874,126	-0,61
874,554	-0,59
874,982	-0,58
875,41	-0,61
875,838	-0,56
876,266	-0,54
876,694	-0,54
877,122	-0,53
877,549	-0,58
877,977	-0,56
878,405	-0,59
878,833	-0,55
879,26	-0,53
879,688	-0,53
880,116	-0,51
880,543	-0,5
880,971	-0,49
881,399	-0,51
881,826	-0,51
882,254	-0,49
882,681	-0,53
883,109	-0,49
883,536	-0,5
883,963	-0,52
884,391	-0,51
884,818	-0,5
885,245	-0,54
885,673	-0,55
886,1	-0,53
886,527	-0,53
886,954	-0,49
887,381	-0,51
887,809	-0,52
888,236	-0,53
888,663	-0,54
889,09	-0,57
889,517	-0,59
889,944	-0,59
890,371	-0,57
890,798	-0,58
891,225	-0,58
891,652	-0,61
892,078	-0,58
892,505	-0,62
892,932	-0,57
893,359	-0,57
893,786	-0,58
894,212	-0,55
894,639	-0,56
895,066	-0,59
895,492	-0,53
895,919	-0,53
896,346	-0,53
896,772	-0,53
897,199	-0,5
897,625	-0,53
898,052	-0,5
898,478	-0,48
898,904	-0,5
899,331	-0,5
899,757	-0,52
900,183	-0,54
900,61	-0,52
901,036	-0,53
901,462	-0,53
901,888	-0,51
902,315	-0,5
902,741	-0,56
903,167	-0,55
903,593	-0,57
904,019	-0,55
904,445	-0,53
904,871	-0,56
905,297	-0,57
905,723	-0,55
906,149	-0,54
906,575	-0,56
907,001	-0,56
907,427	-0,52
907,852	-0,51
908,278	-0,52
908,704	-0,49
909,13	-0,49
909,555	-0,48
909,981	-0,49
910,407	-0,49
910,832	-0,49
911,258	-0,48
911,684	-0,48
912,109	-0,48
912,535	-0,5
912,96	-0,45
913,386	-0,49
913,811	-0,49
914,236	-0,5
914,662	-0,48
915,087	-0,51
915,512	-0,51
915,938	-0,53
916,363	-0,53
916,788	-0,54
917,213	-0,53
917,639	-0,58
918,064	-0,56
918,489	-0,55
918,914	-0,56
919,339	-0,58
919,764	-0,55
920,189	-0,55
920,614	-0,57
921,039	-0,57
921,464	-0,53
921,889	-0,56
922,314	-0,57
922,738	-0,61
923,163	-0,64
923,588	-0,63
924,013	-0,62
924,437	-0,62
924,862	-0,63
925,287	-0,59
925,711	-0,6
926,136	-0,62
926,561	-0,6
926,985	-0,59
927,41	-0,54
927,834	-0,52
928,259	-0,48
928,683	-0,46
929,108	-0,43
929,532	-0,45
929,956	-0,43
930,381	-0,41
930,805	-0,41
931,229	-0,41
931,653	-0,39
932,078	-0,39
932,502	-0,41
932,926	-0,42
933,35	-0,42
933,774	-0,43
934,198	-0,41
934,622	-0,41
935,046	-0,42
935,47	-0,42
935,894	-0,42
936,318	-0,42
936,742	-0,41
937,166	-0,41
937,59	-0,41
938,014	-0,44
938,437	-0,44
938,861	-0,45
939,285	-0,45
939,709	-0,46
940,132	-0,46
940,556	-0,46
940,98	-0,46
941,403	-0,46
941,827	-0,46
942,25	-0,47
942,674	-0,45
943,097	-0,45
943,521	-0,45
943,944	-0,47
944,368	-0,46
944,791	-0,44
945,214	-0,46
945,638	-0,47
946,061	-0,5
946,484	-0,5
946,907	-0,49
947,331	-0,49
947,754	-0,53
948,177	-0,51
948,6	-0,49
949,023	-0,5
949,446	-0,5
949,869	-0,48
950,292	-0,47
950,715	-0,43
951,138	-0,42
951,561	-0,4
951,984	-0,41
952,407	-0,39
952,83	-0,38
953,252	-0,34
953,675	-0,34
954,098	-0,35
954,521	-0,34
954,943	-0,34
955,366	-0,35
955,789	-0,33
956,211	-0,34
956,634	-0,34
957,056	-0,31
957,479	-0,33
957,902	-0,34
958,324	-0,34
958,746	-0,33
959,169	-0,34
959,591	-0,35
960,014	-0,36
960,436	-0,36
960,858	-0,36
961,281	-0,37
961,703	-0,38
962,125	-0,38
962,547	-0,37
962,969	-0,39
963,391	-0,4
963,814	-0,41
964,236	-0,39
964,658	-0,35
965,08	-0,36
965,502	-0,36
965,924	-0,33
966,346	-0,33
966,768	-0,31
967,189	-0,32
967,611	-0,31
968,033	-0,31
968,455	-0,29
968,877	-0,31
969,298	-0,32
969,72	-0,33
970,142	-0,33
970,563	-0,33
970,985	-0,32
971,407	-0,32
971,828	-0,3
972,25	-0,3
972,671	-0,28
973,093	-0,28
973,514	-0,26
973,936	-0,25
974,357	-0,23
974,778	-0,24
975,2	-0,24
975,621	-0,23
976,042	-0,22
976,464	-0,21
976,885	-0,19
977,306	-0,19
977,727	-0,19
978,148	-0,19
978,57	-0,17
978,991	-0,16
979,412	-0,14
979,833	-0,14
980,254	-0,12
980,675	-0,13
981,096	-0,12
981,517	-0,12
981,937	-0,12
982,358	-0,1
982,779	-0,09
983,2	-0,09
983,621	-0,09
984,042	-0,08
984,462	-0,07
984,883	-0,06
985,304	-0,05
985,724	-0,04
986,145	-0,04
986,565	-0,02
986,986	-0,02
987,407	-0,01
987,827	-0
988,248	0,01
988,668	0,01
989,088	0,01
989,509	0,02
989,929	0,03
990,35	0,04
990,77	0,05
991,19	0,05
991,61	0,06
992,031	0,07
992,451	0,07
992,871	0,08
993,291	0,08
993,711	0,09
994,131	0,09
994,551	0,1
994,971	0,1
995,391	0,1
995,811	0,11
996,231	0,11
996,651	0,11
997,071	0,11
997,491	0,12
997,911	0,12
998,331	0,12
998,75	0,13
999,17	0,13
999,59	0,13
1000,009	0,13
1000,429	0,14
1000,849	0,14
1001,268	0,14
1001,688	0,14
1002,107	0,14
1002,527	0,15
1002,946	0,15
1003,366	0,15
1003,785	0,15
1004,205	0,15
1004,624	0,15
1005,044	0,16
1005,463	0,16
1005,882	0,16
1006,301	0,16
1006,721	0,16
1007,14	0,16
1007,559	0,16
1007,978	0,16
1008,397	0,16
1008,816	0,16
1009,235	0,16
1009,655	0,16
1010,074	0,15
1010,492	0,15
1010,911	0,15
1011,33	0,15
1011,749	0,15
1012,168	0,15
1012,587	0,15
1013,006	0,15
1013,425	0,15
1013,843	0,15
1014,262	0,15
1014,681	0,15
1015,099	0,15
1015,518	0,15
1015,937	0,15
1016,355	0,15
1016,774	0,15
1017,192	0,15
1017,611	0,15
1018,029	0,15
1018,448	0,15
1018,866	0,15
1019,285	0,15
1019,703	0,15
1020,121	0,15
1020,54	0,15
1020,958	0,15
1021,376	0,15
1021,794	0,15
1022,213	0,15
1022,631	0,15
1023,049	0,15
1023,467	0,15
1023,885	0,15
1024,303	0,15
1024,721	0,15
1025,139	0,15
1025,557	0,15
1025,975	0,15
1026,393	0,15
1026,811	0,14
1027,229	0,14
1027,647	0,14
1028,065	0,14
1028,482	0,14
1028,9	0,14
1029,318	0,14
1029,735	0,14
1030,153	0,14
1030,571	0,14
1030,988	0,14
1031,406	0,14
1031,823	0,14
1032,241	0,14
1032,659	0,14
1033,076	0,15
1033,493	0,15
1033,911	0,15
1034,328	0,15
1034,746	0,15
1035,163	0,15
1035,58	0,14
1035,997	0,14
1036,415	0,15
1036,832	0,14
1037,249	0,14
1037,666	0,14
1038,083	0,14
1038,501	0,14
1038,918	0,14
1039,335	0,14
1039,752	0,14
1040,169	0,14
1040,586	0,14
1041,003	0,14
1041,419	0,14
1041,836	0,14
1042,253	0,14
1042,67	0,14
1043,087	0,14
1043,504	0,14
1043,92	0,14
1044,337	0,14
1044,754	0,14
1045,17	0,13
1045,587	0,13
1046,004	0,13
1046,42	0,13
1046,837	0,13
1047,253	0,13
1047,67	0,13
1048,086	0,13
1048,503	0,13
1048,919	0,13
1049,335	0,13
1049,752	0,13
1050,168	0,13
1050,584	0,13
1051,001	0,13
1051,417	0,13
1051,833	0,13
1052,249	0,13
1052,665	0,13
1053,081	0,13
1053,497	0,13
1053,914	0,13
1054,33	0,13
1054,746	0,13
1055,162	0,13
1055,578	0,13
1055,993	0,13
1056,409	0,13
1056,825	0,13
1057,241	0,13
1057,657	0,13
1058,073	0,13
1058,488	0,13
1058,904	0,13
1059,32	0,13
1059,736	0,13
1060,151	0,13
1060,567	0,13
1060,982	0,13
1061,398	0,13
1061,813	0,13
1062,229	0,13
1062,644	0,13
1063,06	0,13
1063,475	0,13
1063,891	0,13
1064,306	0,13
1064,721	0,13
1065,137	0,13
1065,552	0,13
1065,967	0,13
1066,382	0,13
1066,798	0,13
1067,213	0,13
1067,628	0,13
1068,043	0,13
1068,458	0,13
1068,873	0,13
1069,288	0,13
1069,703	0,13
1070,118	0,13
1070,533	0,14
1070,948	0,14
1071,363	0,14
1071,778	0,14
1072,193	0,14
1072,607	0,14
1073,022	0,14
1073,437	0,14
1073,852	0,14
1074,266	0,14
1074,681	0,14
1075,096	0,14
1075,51	0,14
1075,925	0,14
1076,339	0,14
1076,754	0,14
1077,168	0,14
1077,583	0,14
1077,997	0,14
1078,412	0,14
1078,826	0,14
1079,24	0,13
1079,655	0,13
1080,069	0,13
1080,483	0,13
1080,897	0,13
1081,312	0,13
1081,726	0,13
1082,14	0,13
1082,554	0,13
1082,968	0,13
1083,382	0,13
1083,796	0,13
1084,21	0,13
1084,624	0,13
1085,038	0,13
1085,452	0,13
1085,866	0,13
1086,28	0,13
1086,694	0,13
1087,108	0,13
1087,521	0,12
1087,935	0,12
1088,349	0,12
1088,763	0,12
1089,176	0,12
1089,59	0,12
1090,004	0,12
1090,417	0,12
1090,831	0,11
1091,244	0,11
1091,658	0,11
1092,071	0,11
1092,485	0,11
1092,898	0,11
1093,312	0,11
1093,725	0,1
1094,138	0,1
1094,552	0,1
1094,965	0,1
1095,378	0,1
1095,791	0,1
1096,205	0,1
1096,618	0,1
1097,031	0,1
1097,444	0,1
1097,857	0,1
1098,27	0,1
1098,683	0,1
1099,096	0,09
1099,509	0,09
1099,922	0,09
1100,335	0,09
1100,748	0,08
1101,161	0,08
1101,574	0,08
1101,986	0,08
1102,399	0,07
1102,812	0,07
1103,225	0,07
1103,637	0,07
1104,05	0,06
1104,463	0,07
1104,875	0,06
1105,288	0,06
1105,7	0,06
1106,113	0,06
1106,525	0,06
1106,938	0,05
1107,35	0,05
1107,763	0,05
1108,175	0,05
1108,588	0,05
1109	0,05
1109,412	0,04
1109,824	0,04
1110,237	0,05
1110,649	0,05
1111,061	0,06
