Data from 18C-808nm-8A_Absorbance__87__00087.txt Node

Date: Mon Jul 17 16:20:01 CEST 2023
User: Laser008
Spectrometer: MAYP115816
Trigger mode: 0
Integration Time (sec): 2,500000E-1
Scans to average: 10
Electric dark correction enabled: true
Nonlinearity correction enabled: true
Boxcar width: 5
XAxis mode: Wavelengths
Number of Pixels in Spectrum: 2068
>>>>>Begin Spectral Data<<<<<
198,914	-0,39
199,384	-0,12
199,855	-0,12
200,325	-0,08
200,796	-0,05
201,266	-0,02
201,737	-0,01
202,207	0
202,677	0
203,147	0,02
203,618	0,04
204,088	0,05
204,558	0,04
205,028	0,06
205,498	0,06
205,968	0,06
206,439	0,04
206,909	0,04
207,379	0,04
207,849	0,03
208,319	0,03
208,789	0,03
209,258	0,04
209,728	0,03
210,198	0,03
210,668	0,04
211,138	0,04
211,608	0,05
212,077	0,05
212,547	0,07
213,017	0,07
213,486	0,07
213,956	0,06
214,426	0,05
214,895	0,06
215,365	0,06
215,834	0,06
216,304	0,05
216,773	0,05
217,243	0,04
217,712	0,02
218,181	0,03
218,651	0,03
219,12	0,03
219,589	0,04
220,058	0,05
220,528	0,04
220,997	0,03
221,466	0,02
221,935	0,03
222,404	0,03
222,873	0,05
223,342	0,04
223,812	0,05
224,281	0,06
224,749	0,04
225,218	0,02
225,687	0,03
226,156	0,03
226,625	0,04
227,094	0,04
227,563	0,03
228,031	0,02
228,5	0,02
228,969	0,01
229,438	0
229,906	0,02
230,375	0,03
230,844	0,02
231,312	0,03
231,781	0,03
232,249	0,04
232,718	0,03
233,186	0,04
233,655	0,02
234,123	0,04
234,591	0,05
235,06	0,04
235,528	0,05
235,996	0,05
236,465	0,04
236,933	0,04
237,401	0,04
237,869	0,04
238,337	0,05
238,805	0,07
239,274	0,06
239,742	0,05
240,21	0,06
240,678	0,06
241,146	0,07
241,614	0,08
242,081	0,07
242,549	0,06
243,017	0,07
243,485	0,06
243,953	0,06
244,421	0,07
244,888	0,07
245,356	0,07
245,824	0,08
246,291	0,08
246,759	0,06
247,227	0,06
247,694	0,08
248,162	0,07
248,629	0,07
249,097	0,06
249,564	0,05
250,032	0,04
250,499	0,03
250,967	0,02
251,434	0,03
251,901	0,03
252,369	0,03
252,836	0,02
253,303	0,02
253,77	0,01
254,237	0,03
254,705	0,03
255,172	0,05
255,639	0,05
256,106	0,04
256,573	0,03
257,04	0,03
257,507	0,02
257,974	0,02
258,441	0,04
258,908	0,04
259,375	0,03
259,841	0,02
260,308	0,01
260,775	0,03
261,242	0,03
261,709	0,02
262,175	0,02
262,642	0,03
263,109	0,04
263,575	0,03
264,042	0,04
264,508	0,05
264,975	0,05
265,441	0,03
265,908	0,02
266,374	0,04
266,841	0,04
267,307	0,03
267,773	0,04
268,24	0,03
268,706	0,02
269,172	0,01
269,639	-0,01
270,105	0,01
270,571	0,02
271,037	0,01
271,503	0,01
271,969	0,02
272,435	0,03
272,902	0
273,368	-0
273,834	-0
274,3	-0
274,765	0,01
275,231	-0
275,697	-0
276,163	0
276,629	0,01
277,095	-0
277,56	-0
278,026	-0,01
278,492	-0
278,958	0
279,423	0
279,889	0,01
280,354	0,02
280,82	0,02
281,286	0
281,751	0,01
282,217	0,03
282,682	0,03
283,147	0,04
283,613	0,04
284,078	0,04
284,544	0,02
285,009	0,01
285,474	0
285,939	-0
286,405	0,02
286,87	0,01
287,335	0,01
287,8	0,02
288,265	0,03
288,73	0
289,195	-0,01
289,66	0,01
290,125	0,03
290,59	0,02
291,055	0,01
291,52	0
291,985	0
292,45	-0,01
292,915	-0,01
293,38	-0,02
293,844	-0
294,309	-0,01
294,774	-0,01
295,239	-0,03
295,703	-0,03
296,168	-0,02
296,632	-0,01
297,097	-0,01
297,562	0,01
298,026	0
298,491	0
298,955	0,01
299,419	0,02
299,884	0,02
300,348	0,03
300,813	0,04
301,277	0,04
301,741	0,05
302,205	0,06
302,67	0,06
303,134	0,06
303,598	0,08
304,062	0,08
304,526	0,08
304,99	0,08
305,454	0,09
305,919	0,08
306,383	0,07
306,847	0,06
307,31	0,06
307,774	0,05
308,238	0,04
308,702	0,03
309,166	0,01
309,63	0,01
310,094	0,03
310,557	0,02
311,021	0,02
311,485	0,01
311,948	0,02
312,412	0,02
312,876	0,02
313,339	0,02
313,803	0,01
314,266	0,02
314,73	0,02
315,193	0,01
315,657	0,01
316,12	0,01
316,584	0,02
317,047	0,02
317,51	0,03
317,973	0,03
318,437	0,04
318,9	0,05
319,363	0,05
319,826	0,05
320,29	0,06
320,753	0,06
321,216	0,06
321,679	0,06
322,142	0,06
322,605	0,04
323,068	0,04
323,531	0,04
323,994	0,04
324,457	0,04
324,92	0,05
325,382	0,05
325,845	0,06
326,308	0,05
326,771	0,05
327,233	0,06
327,696	0,06
328,159	0,07
328,622	0,07
329,084	0,07
329,547	0,08
330,009	0,07
330,472	0,08
330,934	0,09
331,397	0,1
331,859	0,11
332,322	0,1
332,784	0,11
333,246	0,11
333,709	0,11
334,171	0,11
334,633	0,11
335,096	0,11
335,558	0,11
336,02	0,09
336,482	0,09
336,944	0,09
337,406	0,1
337,868	0,09
338,331	0,09
338,793	0,09
339,255	0,1
339,717	0,09
340,178	0,1
340,64	0,1
341,102	0,11
341,564	0,11
342,026	0,11
342,488	0,11
342,949	0,11
343,411	0,12
343,873	0,12
344,335	0,12
344,796	0,13
345,258	0,13
345,719	0,14
346,181	0,15
346,643	0,15
347,104	0,15
347,566	0,16
348,027	0,16
348,488	0,17
348,95	0,17
349,411	0,17
349,873	0,17
350,334	0,17
350,795	0,18
351,256	0,18
351,718	0,18
352,179	0,18
352,64	0,18
353,101	0,18
353,562	0,18
354,023	0,18
354,484	0,18
354,945	0,18
355,406	0,18
355,867	0,18
356,328	0,18
356,789	0,18
357,25	0,18
357,711	0,18
358,172	0,18
358,633	0,18
359,093	0,18
359,554	0,18
360,015	0,18
360,476	0,18
360,936	0,19
361,397	0,19
361,858	0,19
362,318	0,19
362,779	0,19
363,239	0,19
363,7	0,19
364,16	0,19
364,621	0,19
365,081	0,19
365,541	0,19
366,002	0,19
366,462	0,19
366,922	0,19
367,383	0,19
367,843	0,18
368,303	0,19
368,763	0,18
369,223	0,19
369,684	0,19
370,144	0,19
370,604	0,19
371,064	0,19
371,524	0,19
371,984	0,19
372,444	0,19
372,904	0,19
373,363	0,19
373,823	0,19
374,283	0,19
374,743	0,19
375,203	0,19
375,663	0,18
376,122	0,18
376,582	0,18
377,042	0,18
377,501	0,18
377,961	0,18
378,42	0,18
378,88	0,18
379,34	0,18
379,799	0,18
380,259	0,18
380,718	0,18
381,177	0,18
381,637	0,18
382,096	0,18
382,555	0,18
383,015	0,18
383,474	0,18
383,933	0,18
384,393	0,18
384,852	0,18
385,311	0,18
385,77	0,18
386,229	0,18
386,688	0,18
387,147	0,18
387,606	0,18
388,065	0,18
388,524	0,18
388,983	0,18
389,442	0,18
389,901	0,18
390,36	0,18
390,819	0,18
391,277	0,18
391,736	0,18
392,195	0,18
392,654	0,18
393,112	0,18
393,571	0,18
394,03	0,18
394,488	0,18
394,947	0,18
395,405	0,18
395,864	0,18
396,322	0,18
396,781	0,18
397,239	0,18
397,698	0,18
398,156	0,18
398,614	0,18
399,073	0,18
399,531	0,18
399,989	0,18
400,447	0,18
400,905	0,18
401,364	0,18
401,822	0,18
402,28	0,18
402,738	0,18
403,196	0,18
403,654	0,18
404,112	0,18
404,57	0,18
405,028	0,18
405,486	0,18
405,944	0,18
406,402	0,18
406,859	0,18
407,317	0,18
407,775	0,18
408,233	0,18
408,691	0,18
409,148	0,18
409,606	0,18
410,064	0,18
410,521	0,18
410,979	0,18
411,436	0,18
411,894	0,18
412,351	0,18
412,809	0,18
413,266	0,18
413,724	0,18
414,181	0,18
414,638	0,18
415,096	0,18
415,553	0,18
416,01	0,18
416,467	0,18
416,925	0,18
417,382	0,18
417,839	0,18
418,296	0,18
418,753	0,18
419,21	0,18
419,667	0,18
420,124	0,18
420,581	0,18
421,038	0,18
421,495	0,18
421,952	0,18
422,409	0,18
422,866	0,18
423,322	0,18
423,779	0,18
424,236	0,18
424,693	0,18
425,149	0,18
425,606	0,18
426,063	0,18
426,519	0,18
426,976	0,18
427,433	0,18
427,889	0,18
428,346	0,18
428,802	0,18
429,258	0,18
429,715	0,18
430,171	0,17
430,628	0,17
431,084	0,17
431,54	0,17
431,997	0,17
432,453	0,17
432,909	0,17
433,365	0,17
433,821	0,17
434,277	0,17
434,734	0,17
435,19	0,17
435,646	0,17
436,102	0,17
436,558	0,17
437,014	0,17
437,47	0,17
437,925	0,17
438,381	0,17
438,837	0,17
439,293	0,17
439,749	0,17
440,205	0,17
440,66	0,17
441,116	0,17
441,572	0,17
442,027	0,17
442,483	0,17
442,939	0,17
443,394	0,17
443,85	0,17
444,305	0,17
444,761	0,17
445,216	0,17
445,672	0,17
446,127	0,17
446,582	0,17
447,038	0,17
447,493	0,17
447,948	0,17
448,403	0,17
448,859	0,17
449,314	0,17
449,769	0,17
450,224	0,17
450,679	0,17
451,134	0,17
451,589	0,17
452,044	0,17
452,499	0,17
452,954	0,17
453,409	0,17
453,864	0,17
454,319	0,17
454,774	0,17
455,229	0,17
455,684	0,17
456,138	0,17
456,593	0,17
457,048	0,17
457,503	0,17
457,957	0,17
458,412	0,17
458,866	0,17
459,321	0,17
459,776	0,17
460,23	0,17
460,685	0,17
461,139	0,17
461,593	0,17
462,048	0,17
462,502	0,17
462,957	0,17
463,411	0,17
463,865	0,17
464,319	0,17
464,774	0,17
465,228	0,17
465,682	0,17
466,136	0,17
466,59	0,17
467,044	0,17
467,499	0,17
467,953	0,17
468,407	0,17
468,861	0,17
469,315	0,17
469,768	0,17
470,222	0,17
470,676	0,17
471,13	0,17
471,584	0,17
472,038	0,17
472,491	0,17
472,945	0,17
473,399	0,17
473,852	0,17
474,306	0,17
474,76	0,17
475,213	0,17
475,667	0,17
476,12	0,17
476,574	0,17
477,027	0,17
477,481	0,17
477,934	0,17
478,388	0,17
478,841	0,17
479,294	0,17
479,748	0,17
480,201	0,17
480,654	0,17
481,107	0,17
481,561	0,17
482,014	0,17
482,467	0,17
482,92	0,17
483,373	0,17
483,826	0,17
484,279	0,17
484,732	0,17
485,185	0,17
485,638	0,17
486,091	0,17
486,544	0,17
486,997	0,17
487,449	0,17
487,902	0,18
488,355	0,18
488,808	0,18
489,26	0,18
489,713	0,18
490,166	0,18
490,618	0,18
491,071	0,18
491,523	0,18
491,976	0,18
492,429	0,18
492,881	0,18
493,333	0,18
493,786	0,18
494,238	0,18
494,691	0,18
495,143	0,18
495,595	0,18
496,048	0,18
496,5	0,18
496,952	0,18
497,404	0,18
497,856	0,19
498,309	0,19
498,761	0,19
499,213	0,19
499,665	0,19
500,117	0,19
500,569	0,19
501,021	0,19
501,473	0,19
501,925	0,19
502,377	0,19
502,828	0,19
503,28	0,19
503,732	0,2
504,184	0,2
504,636	0,2
505,087	0,2
505,539	0,2
505,991	0,2
506,442	0,2
506,894	0,2
507,345	0,2
507,797	0,2
508,249	0,2
508,7	0,2
509,151	0,2
509,603	0,21
510,054	0,21
510,506	0,21
510,957	0,21
511,408	0,21
511,86	0,21
512,311	0,21
512,762	0,21
513,213	0,21
513,665	0,21
514,116	0,21
514,567	0,21
515,018	0,22
515,469	0,22
515,92	0,22
516,371	0,22
516,822	0,22
517,273	0,22
517,724	0,22
518,175	0,22
518,626	0,22
519,076	0,22
519,527	0,22
519,978	0,22
520,429	0,22
520,88	0,23
521,33	0,23
521,781	0,23
522,232	0,23
522,682	0,23
523,133	0,23
523,583	0,23
524,034	0,23
524,484	0,23
524,935	0,23
525,385	0,23
525,836	0,23
526,286	0,23
526,736	0,24
527,187	0,24
527,637	0,24
528,087	0,24
528,538	0,24
528,988	0,24
529,438	0,24
529,888	0,24
530,338	0,24
530,788	0,24
531,238	0,24
531,688	0,24
532,139	0,24
532,589	0,24
533,038	0,24
533,488	0,24
533,938	0,24
534,388	0,24
534,838	0,25
535,288	0,25
535,738	0,25
536,187	0,25
536,637	0,24
537,087	0,24
537,537	0,24
537,986	0,24
538,436	0,24
538,885	0,24
539,335	0,24
539,785	0,24
540,234	0,24
540,684	0,24
541,133	0,24
541,582	0,24
542,032	0,24
542,481	0,24
542,931	0,24
543,38	0,24
543,829	0,24
544,278	0,24
544,728	0,24
545,177	0,24
545,626	0,24
546,075	0,24
546,524	0,25
546,973	0,25
547,422	0,25
547,871	0,25
548,32	0,25
548,769	0,25
549,218	0,25
549,667	0,25
550,116	0,25
550,565	0,25
551,014	0,25
551,463	0,25
551,911	0,25
552,36	0,25
552,809	0,25
553,258	0,26
553,706	0,26
554,155	0,26
554,603	0,26
555,052	0,26
555,501	0,26
555,949	0,26
556,398	0,26
556,846	0,26
557,294	0,26
557,743	0,26
558,191	0,26
558,64	0,26
559,088	0,26
559,536	0,26
559,985	0,26
560,433	0,26
560,881	0,26
561,329	0,26
561,777	0,26
562,225	0,26
562,674	0,26
563,122	0,26
563,57	0,26
564,018	0,26
564,466	0,26
564,914	0,26
565,362	0,26
565,809	0,26
566,257	0,26
566,705	0,26
567,153	0,26
567,601	0,26
568,048	0,26
568,496	0,26
568,944	0,26
569,392	0,26
569,839	0,26
570,287	0,26
570,734	0,26
571,182	0,26
571,63	0,26
572,077	0,26
572,525	0,26
572,972	0,26
573,419	0,26
573,867	0,26
574,314	0,26
574,761	0,26
575,209	0,26
575,656	0,26
576,103	0,26
576,551	0,26
576,998	0,26
577,445	0,26
577,892	0,26
578,339	0,26
578,786	0,26
579,233	0,26
579,68	0,26
580,127	0,26
580,574	0,26
581,021	0,26
581,468	0,26
581,915	0,26
582,362	0,26
582,809	0,26
583,255	0,26
583,702	0,26
584,149	0,26
584,596	0,26
585,042	0,26
585,489	0,26
585,936	0,26
586,382	0,26
586,829	0,26
587,275	0,26
587,722	0,26
588,168	0,26
588,615	0,26
589,061	0,26
589,508	0,26
589,954	0,26
590,4	0,26
590,847	0,26
591,293	0,26
591,739	0,26
592,185	0,26
592,632	0,26
593,078	0,26
593,524	0,26
593,97	0,26
594,416	0,26
594,862	0,26
595,308	0,26
595,754	0,26
596,2	0,26
596,646	0,26
597,092	0,26
597,538	0,26
597,984	0,26
598,43	0,26
598,876	0,26
599,321	0,26
599,767	0,26
600,213	0,26
600,659	0,26
601,104	0,26
601,55	0,26
601,995	0,26
602,441	0,26
602,887	0,26
603,332	0,26
603,778	0,26
604,223	0,26
604,668	0,26
605,114	0,26
605,559	0,26
606,005	0,26
606,45	0,26
606,895	0,26
607,341	0,26
607,786	0,26
608,231	0,26
608,676	0,26
609,121	0,25
609,566	0,25
610,012	0,25
610,457	0,25
610,902	0,25
611,347	0,24
611,792	0,24
612,237	0,24
612,682	0,24
613,127	0,24
613,571	0,24
614,016	0,25
614,461	0,25
614,906	0,25
615,351	0,25
615,795	0,25
616,24	0,25
616,685	0,25
617,129	0,25
617,574	0,25
618,019	0,25
618,463	0,25
618,908	0,25
619,352	0,25
619,797	0,25
620,241	0,25
620,686	0,25
621,13	0,25
621,574	0,25
622,019	0,25
622,463	0,25
622,907	0,25
623,352	0,25
623,796	0,25
624,24	0,25
624,684	0,25
625,128	0,25
625,572	0,25
626,016	0,25
626,461	0,25
626,905	0,25
627,349	0,25
627,793	0,25
628,236	0,25
628,68	0,25
629,124	0,25
629,568	0,25
630,012	0,25
630,456	0,25
630,9	0,25
631,343	0,25
631,787	0,25
632,231	0,25
632,674	0,25
633,118	0,25
633,562	0,25
634,005	0,25
634,449	0,25
634,892	0,25
635,336	0,25
635,779	0,25
636,223	0,25
636,666	0,25
637,109	0,25
637,553	0,25
637,996	0,25
638,439	0,25
638,883	0,25
639,326	0,25
639,769	0,25
640,212	0,25
640,655	0,25
641,099	0,25
641,542	0,25
641,985	0,25
642,428	0,25
642,871	0,25
643,314	0,25
643,757	0,25
644,2	0,25
644,643	0,25
645,085	0,25
645,528	0,25
645,971	0,25
646,414	0,25
646,857	0,25
647,299	0,25
647,742	0,25
648,185	0,25
648,627	0,25
649,07	0,25
649,513	0,24
649,955	0,24
650,398	0,24
650,84	0,25
651,283	0,25
651,725	0,25
652,168	0,25
652,61	0,25
653,052	0,25
653,495	0,25
653,937	0,2
654,379	0,16
654,821	0,16
655,264	0,16
655,706	0,16
656,148	0,16
656,59	0,16
657,032	0,16
657,474	0,16
657,916	0,16
658,358	0,16
658,8	0,2
659,242	0,24
659,684	0,25
660,126	0,25
660,568	0,25
661,01	0,25
661,452	0,24
661,894	0,24
662,335	0,24
662,777	0,24
663,219	0,24
663,661	0,24
664,102	0,24
664,544	0,24
664,985	0,24
665,427	0,24
665,869	0,24
666,31	0,24
666,752	0,24
667,193	0,24
667,634	0,24
668,076	0,24
668,517	0,24
668,959	0,24
669,4	0,24
669,841	0,24
670,282	0,24
670,724	0,24
671,165	0,24
671,606	0,24
672,047	0,24
672,488	0,24
672,929	0,24
673,37	0,24
673,811	0,24
674,252	0,24
674,693	0,24
675,134	0,24
675,575	0,24
676,016	0,24
676,457	0,24
676,898	0,24
677,339	0,24
677,78	0,24
678,22	0,24
678,661	0,24
679,102	0,24
679,542	0,24
679,983	0,24
680,424	0,24
680,864	0,24
681,305	0,24
681,745	0,24
682,186	0,24
682,626	0,24
683,067	0,24
683,507	0,24
683,948	0,24
684,388	0,24
684,828	0,24
685,269	0,24
685,709	0,24
686,149	0,24
686,589	0,24
687,029	0,24
687,47	0,24
687,91	0,24
688,35	0,24
688,79	0,24
689,23	0,24
689,67	0,24
690,11	0,23
690,55	0,23
690,99	0,23
691,43	0,23
691,87	0,23
692,31	0,23
692,749	0,23
693,189	0,23
693,629	0,23
694,069	0,23
694,508	0,23
694,948	0,23
695,388	0,23
695,827	0,23
696,267	0,23
696,706	0,23
697,146	0,23
697,586	0,23
698,025	0,23
698,464	0,23
698,904	0,23
699,343	0,23
699,783	0,23
700,222	0,23
700,661	0,23
701,101	0,23
701,54	0,23
701,979	0,23
702,418	0,23
702,857	0,23
703,297	0,23
703,736	0,23
704,175	0,23
704,614	0,23
705,053	0,23
705,492	0,23
705,931	0,23
706,37	0,23
706,809	0,23
707,248	0,23
707,687	0,23
708,125	0,23
708,564	0,23
709,003	0,23
709,442	0,23
709,88	0,23
710,319	0,23
710,758	0,23
711,196	0,23
711,635	0,23
712,074	0,23
712,512	0,23
712,951	0,23
713,389	0,22
713,828	0,22
714,266	0,22
714,705	0,22
715,143	0,22
715,581	0,22
716,02	0,22
716,458	0,22
716,896	0,22
717,334	0,22
717,773	0,22
718,211	0,22
718,649	0,22
719,087	0,22
719,525	0,22
719,963	0,22
720,401	0,22
720,839	0,22
721,277	0,22
721,715	0,22
722,153	0,22
722,591	0,22
723,029	0,22
723,467	0,22
723,905	0,22
724,342	0,22
724,78	0,22
725,218	0,22
725,656	0,22
726,093	0,22
726,531	0,22
726,969	0,22
727,406	0,22
727,844	0,22
728,281	0,22
728,719	0,22
729,156	0,22
729,594	0,21
730,031	0,21
730,469	0,21
730,906	0,21
731,343	0,21
731,781	0,21
732,218	0,21
732,655	0,21
733,092	0,21
733,53	0,21
733,967	0,21
734,404	0,21
734,841	0,21
735,278	0,21
735,715	0,21
736,152	0,21
736,589	0,21
737,026	0,21
737,463	0,21
737,9	0,21
738,337	0,2
738,774	0,2
739,211	0,2
739,647	0,2
740,084	0,2
740,521	0,2
740,958	0,2
741,394	0,2
741,831	0,2
742,268	0,2
742,704	0,2
743,141	0,2
743,577	0,2
744,014	0,2
744,45	0,2
744,887	0,2
745,323	0,2
745,76	0,2
746,196	0,19
746,632	0,19
747,069	0,19
747,505	0,19
747,941	0,19
748,378	0,19
748,814	0,19
749,25	0,19
749,686	0,19
750,122	0,2
750,558	0,2
750,994	0,2
751,43	0,2
751,866	0,2
752,302	0,2
752,738	0,2
753,174	0,2
753,61	0,21
754,046	0,21
754,482	0,21
754,918	0,21
755,354	0,21
755,789	0,21
756,225	0,21
756,661	0,21
757,096	0,21
757,532	0,21
757,968	0,21
758,403	0,2
758,839	0,2
759,274	0,2
759,71	0,2
760,145	0,2
760,581	0,2
761,016	0,19
761,452	0,19
761,887	0,19
762,322	0,19
762,758	0,19
763,193	0,18
763,628	0,18
764,063	0,18
764,499	0,17
764,934	0,17
765,369	0,17
765,804	0,17
766,239	0,17
766,674	0,16
767,109	0,16
767,544	0,16
767,979	0,15
768,414	0,15
768,849	0,15
769,284	0,15
769,719	0,15
770,154	0,14
770,588	0,14
771,023	0,14
771,458	0,13
771,893	0,13
772,327	0,12
772,762	0,12
773,197	0,11
773,631	0,11
774,066	0,1
774,5	0,1
774,935	0,09
775,369	0,09
775,804	0,08
776,238	0,08
776,673	0,07
777,107	0,07
777,541	0,07
777,976	0,06
778,41	0,06
778,844	0,06
779,279	0,06
779,713	0,06
780,147	0,05
780,581	0,05
781,015	0,04
781,449	0,04
781,883	0,04
782,317	0,02
782,751	0,01
783,185	0
783,619	0
784,053	-0,01
784,487	-0,02
784,921	-0,03
785,355	-0,04
785,789	-0,06
786,223	-0,07
786,656	-0,09
787,09	-0,1
787,524	-0,11
787,957	-0,13
788,391	-0,15
788,825	-0,17
789,258	-0,19
789,692	-0,21
790,125	-0,23
790,559	-0,25
790,992	-0,27
791,426	-0,3
791,859	-0,32
792,293	-0,36
792,726	-0,38
793,159	-0,41
793,593	-0,44
794,026	-0,47
794,459	-0,5
794,892	-0,54
795,326	-0,58
795,759	-0,63
796,192	-0,68
796,625	-0,74
797,058	-0,78
797,491	-0,83
797,924	-0,89
798,357	-0,95
798,79	-1
799,223	-1,05
799,656	-1,11
800,089	-1,17
800,522	-1,22
800,955	-1,27
801,387	-1,33
801,82	-1,39
802,253	-1,46
802,686	-1,54
803,118	-1,61
803,551	-1,68
803,984	-1,79
804,416	-2,04
804,849	-2,38
805,281	-2,56
805,714	-2,71
806,146	-2,89
806,579	-3,03
807,011	-3,09
807,444	-3,08
807,876	-3,1
808,308	-3,12
808,741	-3,14
809,173	-3,17
809,605	-3,11
810,037	-3,1
810,47	-2,92
810,902	-2,63
811,334	-2,27
811,766	-1,96
812,198	-1,83
812,63	-1,73
813,062	-1,66
813,494	-1,6
813,926	-1,52
814,358	-1,47
814,79	-1,39
815,222	-1,34
815,654	-1,29
816,086	-1,23
816,518	-1,17
816,949	-1,12
817,381	-1,07
817,813	-1,05
818,245	-1,01
818,676	-0,97
819,108	-0,93
819,54	-0,91
819,971	-0,88
820,403	-0,82
820,834	-0,8
821,266	-0,75
821,697	-0,73
822,129	-0,71
822,56	-0,67
822,991	-0,65
823,423	-0,62
823,854	-0,6
824,286	-0,57
824,717	-0,56
825,148	-0,53
825,579	-0,51
826,01	-0,49
826,442	-0,49
826,873	-0,47
827,304	-0,42
827,735	-0,41
828,166	-0,4
828,597	-0,38
829,028	-0,38
829,459	-0,37
829,89	-0,36
830,321	-0,33
830,752	-0,33
831,183	-0,3
831,613	-0,28
832,044	-0,29
832,475	-0,27
832,906	-0,27
833,336	-0,28
833,767	-0,28
834,198	-0,28
834,628	-0,26
835,059	-0,27
835,49	-0,28
835,92	-0,26
836,351	-0,26
836,781	-0,25
837,212	-0,27
837,642	-0,27
838,072	-0,25
838,503	-0,25
838,933	-0,23
839,364	-0,24
839,794	-0,22
840,224	-0,22
840,654	-0,23
841,085	-0,25
841,515	-0,24
841,945	-0,24
842,375	-0,2
842,805	-0,18
843,235	-0,18
843,665	-0,18
844,095	-0,17
844,525	-0,17
844,955	-0,17
845,385	-0,17
845,815	-0,15
846,245	-0,16
846,675	-0,16
847,105	-0,18
847,534	-0,19
847,964	-0,16
848,394	-0,16
848,824	-0,19
849,253	-0,19
849,683	-0,19
850,112	-0,19
850,542	-0,24
850,972	-0,24
851,401	-0,2
851,831	-0,18
852,26	-0,18
852,69	-0,22
853,119	-0,2
853,548	-0,2
853,978	-0,19
854,407	-0,19
854,836	-0,17
855,266	-0,15
855,695	-0,17
856,124	-0,19
856,553	-0,19
856,983	-0,21
857,412	-0,21
857,841	-0,23
858,27	-0,22
858,699	-0,23
859,128	-0,24
859,557	-0,25
859,986	-0,25
860,415	-0,22
860,844	-0,2
861,273	-0,2
861,702	-0,21
862,13	-0,17
862,559	-0,19
862,988	-0,17
863,417	-0,16
863,845	-0,15
864,274	-0,15
864,703	-0,17
865,131	-0,17
865,56	-0,17
865,989	-0,19
866,417	-0,16
866,846	-0,17
867,274	-0,14
867,703	-0,16
868,131	-0,19
868,559	-0,19
868,988	-0,21
869,416	-0,19
869,844	-0,19
870,273	-0,22
870,701	-0,2
871,129	-0,25
871,557	-0,27
871,986	-0,28
872,414	-0,29
872,842	-0,26
873,27	-0,26
873,698	-0,24
874,126	-0,27
874,554	-0,25
874,982	-0,24
875,41	-0,27
875,838	-0,2
876,266	-0,17
876,694	-0,18
877,122	-0,18
877,549	-0,2
877,977	-0,16
878,405	-0,16
878,833	-0,14
879,26	-0,13
879,688	-0,13
880,116	-0,13
880,543	-0,13
880,971	-0,14
881,399	-0,13
881,826	-0,12
882,254	-0,12
882,681	-0,14
883,109	-0,13
883,536	-0,15
883,963	-0,16
884,391	-0,14
884,818	-0,11
885,245	-0,13
885,673	-0,16
886,1	-0,15
886,527	-0,17
886,954	-0,15
887,381	-0,18
887,809	-0,18
888,236	-0,19
888,663	-0,19
889,09	-0,22
889,517	-0,24
889,944	-0,25
890,371	-0,24
890,798	-0,24
891,225	-0,24
891,652	-0,27
892,078	-0,23
892,505	-0,26
892,932	-0,21
893,359	-0,23
893,786	-0,24
894,212	-0,21
894,639	-0,23
895,066	-0,23
895,492	-0,19
895,919	-0,17
896,346	-0,18
896,772	-0,18
897,199	-0,14
897,625	-0,18
898,052	-0,13
898,478	-0,11
898,904	-0,14
899,331	-0,14
899,757	-0,17
900,183	-0,19
900,61	-0,17
901,036	-0,16
901,462	-0,17
901,888	-0,15
902,315	-0,15
902,741	-0,21
903,167	-0,2
903,593	-0,21
904,019	-0,17
904,445	-0,16
904,871	-0,19
905,297	-0,2
905,723	-0,2
906,149	-0,18
906,575	-0,19
907,001	-0,18
907,427	-0,14
907,852	-0,13
908,278	-0,1
908,704	-0,1
909,13	-0,05
909,555	-0,06
909,981	-0,06
910,407	-0,07
910,832	-0,09
911,258	-0,11
911,684	-0,13
912,109	-0,13
912,535	-0,14
912,96	-0,12
913,386	-0,16
913,811	-0,18
914,236	-0,16
914,662	-0,15
915,087	-0,18
915,512	-0,17
915,938	-0,17
916,363	-0,16
916,788	-0,19
917,213	-0,18
917,639	-0,22
918,064	-0,22
918,489	-0,23
918,914	-0,25
919,339	-0,26
919,764	-0,22
920,189	-0,2
920,614	-0,24
921,039	-0,22
921,464	-0,19
921,889	-0,21
922,314	-0,22
922,738	-0,24
923,163	-0,22
923,588	-0,21
924,013	-0,21
924,437	-0,21
924,862	-0,25
925,287	-0,2
925,711	-0,22
926,136	-0,22
926,561	-0,21
926,985	-0,19
927,41	-0,16
927,834	-0,17
928,259	-0,13
928,683	-0,11
929,108	-0,1
929,532	-0,12
929,956	-0,12
930,381	-0,12
930,805	-0,14
931,229	-0,13
931,653	-0,13
932,078	-0,13
932,502	-0,14
932,926	-0,17
933,35	-0,17
933,774	-0,15
934,198	-0,12
934,622	-0,11
935,046	-0,12
935,47	-0,11
935,894	-0,1
936,318	-0,11
936,742	-0,1
937,166	-0,11
937,59	-0,1
938,014	-0,12
938,437	-0,14
938,861	-0,17
939,285	-0,19
939,709	-0,18
940,132	-0,18
940,556	-0,19
940,98	-0,18
941,403	-0,18
941,827	-0,2
942,25	-0,21
942,674	-0,21
943,097	-0,2
943,521	-0,19
943,944	-0,19
944,368	-0,18
944,791	-0,17
945,214	-0,18
945,638	-0,18
946,061	-0,2
946,484	-0,17
946,907	-0,16
947,331	-0,15
947,754	-0,2
948,177	-0,16
948,6	-0,15
949,023	-0,14
949,446	-0,14
949,869	-0,12
950,292	-0,13
950,715	-0,09
951,138	-0,08
951,561	-0,06
951,984	-0,04
952,407	-0,03
952,83	-0,03
953,252	-0
953,675	-0
954,098	-0,02
954,521	-0,01
954,943	0,01
955,366	-0,01
955,789	0
956,211	-0,01
956,634	-0,03
957,056	0,01
957,479	0
957,902	-0,01
958,324	-0,02
958,746	-0,02
959,169	-0,04
959,591	-0,05
960,014	-0,06
960,436	-0,06
960,858	-0,07
961,281	-0,06
961,703	-0,09
962,125	-0,09
962,547	-0,07
962,969	-0,08
963,391	-0,07
963,814	-0,07
964,236	-0,08
964,658	-0,06
965,08	-0,06
965,502	-0,07
965,924	-0,06
966,346	-0,06
966,768	-0,06
967,189	-0,09
967,611	-0,09
968,033	-0,09
968,455	-0,09
968,877	-0,09
969,298	-0,11
969,72	-0,11
970,142	-0,1
970,563	-0,11
970,985	-0,1
971,407	-0,08
971,828	-0,06
972,25	-0,06
972,671	-0,04
973,093	-0,04
973,514	-0,03
973,936	-0,01
974,357	-0,01
974,778	-0,02
975,2	-0
975,621	-0
976,042	0,01
976,464	0,01
976,885	0,02
977,306	0,01
977,727	0,01
978,148	0,01
978,57	0,01
978,991	0,02
979,412	0,03
979,833	0,04
980,254	0,06
980,675	0,04
981,096	0,05
981,517	0,06
981,937	0,06
982,358	0,08
982,779	0,09
983,2	0,09
983,621	0,09
984,042	0,09
984,462	0,08
984,883	0,08
985,304	0,09
985,724	0,09
986,145	0,08
986,565	0,09
986,986	0,08
987,407	0,08
987,827	0,09
988,248	0,09
988,668	0,09
989,088	0,1
989,509	0,1
989,929	0,1
990,35	0,11
990,77	0,11
991,19	0,11
991,61	0,12
992,031	0,12
992,451	0,12
992,871	0,12
993,291	0,12
993,711	0,12
994,131	0,12
994,551	0,12
994,971	0,12
995,391	0,12
995,811	0,12
996,231	0,12
996,651	0,12
997,071	0,12
997,491	0,12
997,911	0,12
998,331	0,12
998,75	0,12
999,17	0,12
999,59	0,12
1000,009	0,12
1000,429	0,12
1000,849	0,12
1001,268	0,13
1001,688	0,13
1002,107	0,13
1002,527	0,13
1002,946	0,13
1003,366	0,13
1003,785	0,13
1004,205	0,13
1004,624	0,13
1005,044	0,13
1005,463	0,13
1005,882	0,13
1006,301	0,13
1006,721	0,13
1007,14	0,13
1007,559	0,13
1007,978	0,13
1008,397	0,13
1008,816	0,13
1009,235	0,13
1009,655	0,13
1010,074	0,13
1010,492	0,13
1010,911	0,12
1011,33	0,12
1011,749	0,12
1012,168	0,12
1012,587	0,12
1013,006	0,12
1013,425	0,12
1013,843	0,12
1014,262	0,12
1014,681	0,12
1015,099	0,12
1015,518	0,12
1015,937	0,12
1016,355	0,12
1016,774	0,12
1017,192	0,12
1017,611	0,12
1018,029	0,12
1018,448	0,12
1018,866	0,12
1019,285	0,12
1019,703	0,12
1020,121	0,12
1020,54	0,12
1020,958	0,12
1021,376	0,12
1021,794	0,12
1022,213	0,12
1022,631	0,12
1023,049	0,12
1023,467	0,12
1023,885	0,12
1024,303	0,12
1024,721	0,12
1025,139	0,12
1025,557	0,12
1025,975	0,12
1026,393	0,12
1026,811	0,12
1027,229	0,12
1027,647	0,12
1028,065	0,12
1028,482	0,12
1028,9	0,12
1029,318	0,12
1029,735	0,12
1030,153	0,12
1030,571	0,12
1030,988	0,12
1031,406	0,12
1031,823	0,12
1032,241	0,12
1032,659	0,12
1033,076	0,12
1033,493	0,12
1033,911	0,12
1034,328	0,12
1034,746	0,12
1035,163	0,12
1035,58	0,12
1035,997	0,12
1036,415	0,12
1036,832	0,12
1037,249	0,12
1037,666	0,12
1038,083	0,12
1038,501	0,12
1038,918	0,12
1039,335	0,12
1039,752	0,12
1040,169	0,12
1040,586	0,12
1041,003	0,12
1041,419	0,12
1041,836	0,12
1042,253	0,12
1042,67	0,12
1043,087	0,12
1043,504	0,12
1043,92	0,12
1044,337	0,12
1044,754	0,12
1045,17	0,12
1045,587	0,12
1046,004	0,12
1046,42	0,11
1046,837	0,12
1047,253	0,12
1047,67	0,12
1048,086	0,12
1048,503	0,12
1048,919	0,12
1049,335	0,12
1049,752	0,12
1050,168	0,12
1050,584	0,11
1051,001	0,11
1051,417	0,11
1051,833	0,11
1052,249	0,11
1052,665	0,11
1053,081	0,11
1053,497	0,11
1053,914	0,11
1054,33	0,11
1054,746	0,11
1055,162	0,11
1055,578	0,11
1055,993	0,11
1056,409	0,11
1056,825	0,11
1057,241	0,11
1057,657	0,11
1058,073	0,11
1058,488	0,11
1058,904	0,11
1059,32	0,11
1059,736	0,11
1060,151	0,11
1060,567	0,11
1060,982	0,11
1061,398	0,11
1061,813	0,11
1062,229	0,11
1062,644	0,11
1063,06	0,11
1063,475	0,11
1063,891	0,11
1064,306	0,11
1064,721	0,11
1065,137	0,11
1065,552	0,11
1065,967	0,11
1066,382	0,11
1066,798	0,11
1067,213	0,11
1067,628	0,11
1068,043	0,11
1068,458	0,11
1068,873	0,11
1069,288	0,11
1069,703	0,11
1070,118	0,11
1070,533	0,11
1070,948	0,11
1071,363	0,11
1071,778	0,11
1072,193	0,11
1072,607	0,11
1073,022	0,11
1073,437	0,11
1073,852	0,11
1074,266	0,11
1074,681	0,11
1075,096	0,11
1075,51	0,11
1075,925	0,11
1076,339	0,11
1076,754	0,11
1077,168	0,11
1077,583	0,11
1077,997	0,11
1078,412	0,11
1078,826	0,11
1079,24	0,11
1079,655	0,11
1080,069	0,11
1080,483	0,11
1080,897	0,11
1081,312	0,11
1081,726	0,11
1082,14	0,11
1082,554	0,11
1082,968	0,11
1083,382	0,11
1083,796	0,11
1084,21	0,11
1084,624	0,11
1085,038	0,11
1085,452	0,11
1085,866	0,11
1086,28	0,11
1086,694	0,11
1087,108	0,11
1087,521	0,1
1087,935	0,1
1088,349	0,1
1088,763	0,1
1089,176	0,1
1089,59	0,1
1090,004	0,1
1090,417	0,1
1090,831	0,1
1091,244	0,1
1091,658	0,1
1092,071	0,1
1092,485	0,1
1092,898	0,09
1093,312	0,09
1093,725	0,09
1094,138	0,09
1094,552	0,09
1094,965	0,09
1095,378	0,09
1095,791	0,09
1096,205	0,09
1096,618	0,09
1097,031	0,09
1097,444	0,09
1097,857	0,09
1098,27	0,09
1098,683	0,09
1099,096	0,09
1099,509	0,09
1099,922	0,09
1100,335	0,09
1100,748	0,09
1101,161	0,09
1101,574	0,08
1101,986	0,08
1102,399	0,08
1102,812	0,08
1103,225	0,08
1103,637	0,08
1104,05	0,08
1104,463	0,08
1104,875	0,08
1105,288	0,08
1105,7	0,08
1106,113	0,08
1106,525	0,08
1106,938	0,08
1107,35	0,08
1107,763	0,08
1108,175	0,08
1108,588	0,07
1109	0,07
1109,412	0,07
1109,824	0,07
1110,237	0,07
1110,649	0,08
1111,061	0,08
