Data from 18C-808nm-8A_Absorbance__1337__01337.txt Node

Date: Mon Jul 17 17:12:05 CEST 2023
User: Laser008
Spectrometer: MAYP115816
Trigger mode: 0
Integration Time (sec): 2,500000E-1
Scans to average: 10
Electric dark correction enabled: true
Nonlinearity correction enabled: true
Boxcar width: 5
XAxis mode: Wavelengths
Number of Pixels in Spectrum: 2068
>>>>>Begin Spectral Data<<<<<
198,914	-0,61
199,384	-0,41
199,855	-0,32
200,325	-0,24
200,796	-0,22
201,266	-0,18
201,737	-0,17
202,207	-0,17
202,677	-0,17
203,147	-0,15
203,618	-0,12
204,088	-0,11
204,558	-0,1
205,028	-0,1
205,498	-0,11
205,968	-0,11
206,439	-0,13
206,909	-0,13
207,379	-0,13
207,849	-0,13
208,319	-0,14
208,789	-0,15
209,258	-0,14
209,728	-0,16
210,198	-0,16
210,668	-0,15
211,138	-0,15
211,608	-0,14
212,077	-0,14
212,547	-0,14
213,017	-0,14
213,486	-0,14
213,956	-0,13
214,426	-0,15
214,895	-0,13
215,365	-0,14
215,834	-0,14
216,304	-0,15
216,773	-0,15
217,243	-0,17
217,712	-0,18
218,181	-0,18
218,651	-0,18
219,12	-0,19
219,589	-0,18
220,058	-0,18
220,528	-0,19
220,997	-0,2
221,466	-0,21
221,935	-0,21
222,404	-0,2
222,873	-0,18
223,342	-0,18
223,812	-0,18
224,281	-0,18
224,749	-0,18
225,218	-0,2
225,687	-0,2
226,156	-0,18
226,625	-0,17
227,094	-0,18
227,563	-0,18
228,031	-0,19
228,5	-0,19
228,969	-0,2
229,438	-0,19
229,906	-0,18
230,375	-0,17
230,844	-0,17
231,312	-0,17
231,781	-0,18
232,249	-0,17
232,718	-0,17
233,186	-0,16
233,655	-0,17
234,123	-0,16
234,591	-0,16
235,06	-0,17
235,528	-0,17
235,996	-0,16
236,465	-0,16
236,933	-0,16
237,401	-0,16
237,869	-0,15
238,337	-0,15
238,805	-0,15
239,274	-0,14
239,742	-0,13
240,21	-0,13
240,678	-0,13
241,146	-0,13
241,614	-0,13
242,081	-0,13
242,549	-0,12
243,017	-0,13
243,485	-0,13
243,953	-0,13
244,421	-0,13
244,888	-0,14
245,356	-0,14
245,824	-0,13
246,291	-0,13
246,759	-0,13
247,227	-0,13
247,694	-0,13
248,162	-0,12
248,629	-0,11
249,097	-0,11
249,564	-0,12
250,032	-0,12
250,499	-0,12
250,967	-0,13
251,434	-0,13
251,901	-0,13
252,369	-0,13
252,836	-0,14
253,303	-0,15
253,77	-0,17
254,237	-0,17
254,705	-0,16
255,172	-0,15
255,639	-0,15
256,106	-0,16
256,573	-0,17
257,04	-0,17
257,507	-0,17
257,974	-0,18
258,441	-0,16
258,908	-0,17
259,375	-0,17
259,841	-0,18
260,308	-0,18
260,775	-0,18
261,242	-0,17
261,709	-0,18
262,175	-0,18
262,642	-0,19
263,109	-0,17
263,575	-0,19
264,042	-0,17
264,508	-0,17
264,975	-0,19
265,441	-0,2
265,908	-0,21
266,374	-0,2
266,841	-0,2
267,307	-0,21
267,773	-0,2
268,24	-0,2
268,706	-0,21
269,172	-0,22
269,639	-0,23
270,105	-0,21
270,571	-0,22
271,037	-0,22
271,503	-0,23
271,969	-0,23
272,435	-0,23
272,902	-0,25
273,368	-0,26
273,834	-0,25
274,3	-0,26
274,765	-0,26
275,231	-0,26
275,697	-0,25
276,163	-0,24
276,629	-0,24
277,095	-0,24
277,56	-0,23
278,026	-0,22
278,492	-0,21
278,958	-0,21
279,423	-0,21
279,889	-0,21
280,354	-0,21
280,82	-0,21
281,286	-0,23
281,751	-0,23
282,217	-0,22
282,682	-0,23
283,147	-0,23
283,613	-0,24
284,078	-0,24
284,544	-0,25
285,009	-0,25
285,474	-0,25
285,939	-0,26
286,405	-0,25
286,87	-0,24
287,335	-0,24
287,8	-0,23
288,265	-0,22
288,73	-0,23
289,195	-0,25
289,66	-0,25
290,125	-0,24
290,59	-0,23
291,055	-0,22
291,52	-0,23
291,985	-0,23
292,45	-0,25
292,915	-0,25
293,38	-0,25
293,844	-0,23
294,309	-0,21
294,774	-0,2
295,239	-0,21
295,703	-0,23
296,168	-0,21
296,632	-0,2
297,097	-0,18
297,562	-0,17
298,026	-0,17
298,491	-0,18
298,955	-0,17
299,419	-0,16
299,884	-0,17
300,348	-0,16
300,813	-0,15
301,277	-0,16
301,741	-0,16
302,205	-0,17
302,67	-0,16
303,134	-0,15
303,598	-0,15
304,062	-0,15
304,526	-0,15
304,99	-0,15
305,454	-0,15
305,919	-0,14
306,383	-0,14
306,847	-0,13
307,31	-0,14
307,774	-0,15
308,238	-0,15
308,702	-0,14
309,166	-0,16
309,63	-0,16
310,094	-0,15
310,557	-0,14
311,021	-0,14
311,485	-0,14
311,948	-0,15
312,412	-0,14
312,876	-0,13
313,339	-0,14
313,803	-0,14
314,266	-0,13
314,73	-0,13
315,193	-0,13
315,657	-0,12
316,12	-0,12
316,584	-0,11
317,047	-0,11
317,51	-0,1
317,973	-0,1
318,437	-0,08
318,9	-0,07
319,363	-0,07
319,826	-0,06
320,29	-0,07
320,753	-0,07
321,216	-0,06
321,679	-0,06
322,142	-0,06
322,605	-0,07
323,068	-0,07
323,531	-0,07
323,994	-0,07
324,457	-0,06
324,92	-0,06
325,382	-0,06
325,845	-0,05
326,308	-0,04
326,771	-0,04
327,233	-0,04
327,696	-0,03
328,159	-0,03
328,622	-0,02
329,084	-0,02
329,547	-0,02
330,009	-0,02
330,472	-0
330,934	-0,01
331,397	-0,01
331,859	-0
332,322	-0,01
332,784	-0
333,246	0
333,709	0
334,171	0
334,633	0,01
335,096	0,01
335,558	0,01
336,02	0,02
336,482	0,01
336,944	0,03
337,406	0,04
337,868	0,05
338,331	0,05
338,793	0,06
339,255	0,06
339,717	0,07
340,178	0,08
340,64	0,09
341,102	0,09
341,564	0,1
342,026	0,11
342,488	0,11
342,949	0,12
343,411	0,14
343,873	0,15
344,335	0,18
344,796	0,21
345,258	0,24
345,719	0,28
346,181	0,31
346,643	0,34
347,104	0,36
347,566	0,38
348,027	0,4
348,488	0,42
348,95	0,43
349,411	0,44
349,873	0,46
350,334	0,47
350,795	0,48
351,256	0,49
351,718	0,49
352,179	0,5
352,64	0,5
353,101	0,5
353,562	0,5
354,023	0,5
354,484	0,51
354,945	0,51
355,406	0,51
355,867	0,51
356,328	0,51
356,789	0,51
357,25	0,51
357,711	0,51
358,172	0,51
358,633	0,52
359,093	0,52
359,554	0,52
360,015	0,52
360,476	0,52
360,936	0,52
361,397	0,52
361,858	0,52
362,318	0,52
362,779	0,52
363,239	0,52
363,7	0,52
364,16	0,52
364,621	0,52
365,081	0,52
365,541	0,52
366,002	0,52
366,462	0,52
366,922	0,52
367,383	0,52
367,843	0,52
368,303	0,52
368,763	0,52
369,223	0,52
369,684	0,52
370,144	0,52
370,604	0,52
371,064	0,52
371,524	0,52
371,984	0,52
372,444	0,52
372,904	0,52
373,363	0,52
373,823	0,52
374,283	0,52
374,743	0,52
375,203	0,52
375,663	0,52
376,122	0,52
376,582	0,52
377,042	0,52
377,501	0,52
377,961	0,52
378,42	0,52
378,88	0,52
379,34	0,52
379,799	0,52
380,259	0,52
380,718	0,52
381,177	0,52
381,637	0,51
382,096	0,51
382,555	0,51
383,015	0,51
383,474	0,51
383,933	0,51
384,393	0,51
384,852	0,51
385,311	0,51
385,77	0,51
386,229	0,51
386,688	0,51
387,147	0,51
387,606	0,51
388,065	0,51
388,524	0,51
388,983	0,51
389,442	0,51
389,901	0,51
390,36	0,51
390,819	0,51
391,277	0,51
391,736	0,51
392,195	0,51
392,654	0,51
393,112	0,51
393,571	0,51
394,03	0,51
394,488	0,51
394,947	0,51
395,405	0,51
395,864	0,51
396,322	0,51
396,781	0,51
397,239	0,5
397,698	0,5
398,156	0,5
398,614	0,5
399,073	0,5
399,531	0,5
399,989	0,5
400,447	0,5
400,905	0,5
401,364	0,5
401,822	0,5
402,28	0,5
402,738	0,5
403,196	0,5
403,654	0,5
404,112	0,5
404,57	0,5
405,028	0,5
405,486	0,5
405,944	0,5
406,402	0,5
406,859	0,5
407,317	0,5
407,775	0,5
408,233	0,5
408,691	0,5
409,148	0,5
409,606	0,5
410,064	0,5
410,521	0,5
410,979	0,5
411,436	0,5
411,894	0,5
412,351	0,5
412,809	0,5
413,266	0,5
413,724	0,5
414,181	0,49
414,638	0,49
415,096	0,49
415,553	0,49
416,01	0,49
416,467	0,49
416,925	0,49
417,382	0,49
417,839	0,49
418,296	0,49
418,753	0,49
419,21	0,49
419,667	0,49
420,124	0,49
420,581	0,49
421,038	0,49
421,495	0,49
421,952	0,49
422,409	0,49
422,866	0,49
423,322	0,49
423,779	0,49
424,236	0,49
424,693	0,49
425,149	0,49
425,606	0,49
426,063	0,49
426,519	0,49
426,976	0,49
427,433	0,49
427,889	0,49
428,346	0,49
428,802	0,49
429,258	0,49
429,715	0,49
430,171	0,49
430,628	0,49
431,084	0,49
431,54	0,49
431,997	0,49
432,453	0,49
432,909	0,49
433,365	0,49
433,821	0,49
434,277	0,49
434,734	0,49
435,19	0,49
435,646	0,49
436,102	0,49
436,558	0,49
437,014	0,49
437,47	0,49
437,925	0,49
438,381	0,49
438,837	0,49
439,293	0,49
439,749	0,49
440,205	0,49
440,66	0,49
441,116	0,49
441,572	0,49
442,027	0,49
442,483	0,49
442,939	0,49
443,394	0,49
443,85	0,49
444,305	0,49
444,761	0,49
445,216	0,49
445,672	0,49
446,127	0,49
446,582	0,49
447,038	0,49
447,493	0,49
447,948	0,49
448,403	0,49
448,859	0,49
449,314	0,49
449,769	0,49
450,224	0,49
450,679	0,49
451,134	0,49
451,589	0,49
452,044	0,49
452,499	0,49
452,954	0,49
453,409	0,49
453,864	0,49
454,319	0,49
454,774	0,49
455,229	0,49
455,684	0,49
456,138	0,49
456,593	0,49
457,048	0,49
457,503	0,49
457,957	0,49
458,412	0,49
458,866	0,49
459,321	0,49
459,776	0,49
460,23	0,49
460,685	0,49
461,139	0,49
461,593	0,49
462,048	0,5
462,502	0,5
462,957	0,5
463,411	0,5
463,865	0,5
464,319	0,5
464,774	0,5
465,228	0,5
465,682	0,5
466,136	0,5
466,59	0,5
467,044	0,5
467,499	0,5
467,953	0,5
468,407	0,5
468,861	0,5
469,315	0,5
469,768	0,5
470,222	0,5
470,676	0,51
471,13	0,51
471,584	0,51
472,038	0,51
472,491	0,51
472,945	0,51
473,399	0,51
473,852	0,51
474,306	0,51
474,76	0,51
475,213	0,51
475,667	0,51
476,12	0,51
476,574	0,51
477,027	0,51
477,481	0,51
477,934	0,52
478,388	0,52
478,841	0,52
479,294	0,52
479,748	0,52
480,201	0,52
480,654	0,52
481,107	0,52
481,561	0,53
482,014	0,53
482,467	0,53
482,92	0,53
483,373	0,53
483,826	0,53
484,279	0,53
484,732	0,53
485,185	0,54
485,638	0,54
486,091	0,54
486,544	0,54
486,997	0,54
487,449	0,54
487,902	0,54
488,355	0,55
488,808	0,55
489,26	0,55
489,713	0,55
490,166	0,55
490,618	0,55
491,071	0,56
491,523	0,56
491,976	0,56
492,429	0,56
492,881	0,56
493,333	0,57
493,786	0,57
494,238	0,57
494,691	0,57
495,143	0,58
495,595	0,58
496,048	0,58
496,5	0,58
496,952	0,59
497,404	0,59
497,856	0,59
498,309	0,59
498,761	0,6
499,213	0,6
499,665	0,6
500,117	0,61
500,569	0,61
501,021	0,61
501,473	0,61
501,925	0,62
502,377	0,62
502,828	0,62
503,28	0,63
503,732	0,63
504,184	0,63
504,636	0,63
505,087	0,64
505,539	0,64
505,991	0,64
506,442	0,65
506,894	0,65
507,345	0,65
507,797	0,65
508,249	0,66
508,7	0,66
509,151	0,66
509,603	0,67
510,054	0,67
510,506	0,67
510,957	0,67
511,408	0,68
511,86	0,68
512,311	0,68
512,762	0,68
513,213	0,69
513,665	0,69
514,116	0,69
514,567	0,69
515,018	0,7
515,469	0,7
515,92	0,7
516,371	0,7
516,822	0,71
517,273	0,71
517,724	0,71
518,175	0,71
518,626	0,72
519,076	0,72
519,527	0,72
519,978	0,72
520,429	0,72
520,88	0,72
521,33	0,73
521,781	0,73
522,232	0,73
522,682	0,73
523,133	0,73
523,583	0,73
524,034	0,73
524,484	0,73
524,935	0,74
525,385	0,74
525,836	0,74
526,286	0,74
526,736	0,74
527,187	0,74
527,637	0,74
528,087	0,74
528,538	0,74
528,988	0,73
529,438	0,73
529,888	0,73
530,338	0,73
530,788	0,73
531,238	0,73
531,688	0,73
532,139	0,73
532,589	0,73
533,038	0,73
533,488	0,73
533,938	0,73
534,388	0,72
534,838	0,72
535,288	0,72
535,738	0,72
536,187	0,72
536,637	0,71
537,087	0,71
537,537	0,71
537,986	0,71
538,436	0,7
538,885	0,7
539,335	0,7
539,785	0,69
540,234	0,69
540,684	0,69
541,133	0,69
541,582	0,68
542,032	0,68
542,481	0,68
542,931	0,67
543,38	0,67
543,829	0,67
544,278	0,66
544,728	0,66
545,177	0,66
545,626	0,65
546,075	0,65
546,524	0,65
546,973	0,65
547,422	0,64
547,871	0,64
548,32	0,64
548,769	0,64
549,218	0,64
549,667	0,63
550,116	0,63
550,565	0,63
551,014	0,63
551,463	0,62
551,911	0,62
552,36	0,62
552,809	0,62
553,258	0,61
553,706	0,61
554,155	0,61
554,603	0,6
555,052	0,6
555,501	0,6
555,949	0,6
556,398	0,59
556,846	0,59
557,294	0,59
557,743	0,58
558,191	0,58
558,64	0,58
559,088	0,57
559,536	0,57
559,985	0,57
560,433	0,57
560,881	0,56
561,329	0,56
561,777	0,56
562,225	0,55
562,674	0,55
563,122	0,55
563,57	0,55
564,018	0,54
564,466	0,54
564,914	0,54
565,362	0,54
565,809	0,53
566,257	0,53
566,705	0,53
567,153	0,52
567,601	0,52
568,048	0,52
568,496	0,52
568,944	0,51
569,392	0,51
569,839	0,51
570,287	0,51
570,734	0,5
571,182	0,5
571,63	0,5
572,077	0,5
572,525	0,49
572,972	0,49
573,419	0,49
573,867	0,49
574,314	0,48
574,761	0,48
575,209	0,48
575,656	0,48
576,103	0,48
576,551	0,48
576,998	0,47
577,445	0,47
577,892	0,47
578,339	0,47
578,786	0,47
579,233	0,47
579,68	0,46
580,127	0,46
580,574	0,46
581,021	0,46
581,468	0,46
581,915	0,45
582,362	0,45
582,809	0,45
583,255	0,45
583,702	0,45
584,149	0,45
584,596	0,44
585,042	0,44
585,489	0,44
585,936	0,44
586,382	0,44
586,829	0,44
587,275	0,44
587,722	0,44
588,168	0,43
588,615	0,43
589,061	0,43
589,508	0,43
589,954	0,43
590,4	0,43
590,847	0,43
591,293	0,43
591,739	0,42
592,185	0,42
592,632	0,42
593,078	0,42
593,524	0,42
593,97	0,42
594,416	0,42
594,862	0,42
595,308	0,42
595,754	0,42
596,2	0,41
596,646	0,41
597,092	0,41
597,538	0,41
597,984	0,41
598,43	0,41
598,876	0,41
599,321	0,41
599,767	0,41
600,213	0,41
600,659	0,4
601,104	0,4
601,55	0,4
601,995	0,4
602,441	0,4
602,887	0,4
603,332	0,4
603,778	0,4
604,223	0,4
604,668	0,4
605,114	0,4
605,559	0,4
606,005	0,4
606,45	0,4
606,895	0,39
607,341	0,39
607,786	0,39
608,231	0,39
608,676	0,39
609,121	0,38
609,566	0,38
610,012	0,38
610,457	0,37
610,902	0,37
611,347	0,37
611,792	0,37
612,237	0,37
612,682	0,37
613,127	0,37
613,571	0,37
614,016	0,37
614,461	0,37
614,906	0,37
615,351	0,37
615,795	0,37
616,24	0,37
616,685	0,37
617,129	0,37
617,574	0,37
618,019	0,37
618,463	0,37
618,908	0,37
619,352	0,37
619,797	0,37
620,241	0,37
620,686	0,37
621,13	0,37
621,574	0,37
622,019	0,37
622,463	0,37
622,907	0,37
623,352	0,37
623,796	0,37
624,24	0,37
624,684	0,37
625,128	0,37
625,572	0,37
626,016	0,37
626,461	0,37
626,905	0,37
627,349	0,37
627,793	0,36
628,236	0,36
628,68	0,36
629,124	0,36
629,568	0,36
630,012	0,36
630,456	0,36
630,9	0,36
631,343	0,36
631,787	0,36
632,231	0,36
632,674	0,36
633,118	0,36
633,562	0,36
634,005	0,36
634,449	0,36
634,892	0,36
635,336	0,36
635,779	0,36
636,223	0,36
636,666	0,36
637,109	0,36
637,553	0,36
637,996	0,36
638,439	0,36
638,883	0,36
639,326	0,36
639,769	0,35
640,212	0,35
640,655	0,35
641,099	0,35
641,542	0,35
641,985	0,35
642,428	0,35
642,871	0,35
643,314	0,35
643,757	0,35
644,2	0,35
644,643	0,35
645,085	0,35
645,528	0,35
645,971	0,35
646,414	0,35
646,857	0,35
647,299	0,35
647,742	0,35
648,185	0,35
648,627	0,35
649,07	0,35
649,513	0,35
649,955	0,35
650,398	0,35
650,84	0,35
651,283	0,35
651,725	0,35
652,168	0,35
652,61	0,35
653,052	0,35
653,495	0,34
653,937	0,27
654,379	0,21
654,821	0,22
655,264	0,22
655,706	0,22
656,148	0,22
656,59	0,22
657,032	0,22
657,474	0,22
657,916	0,22
658,358	0,21
658,8	0,27
659,242	0,34
659,684	0,34
660,126	0,34
660,568	0,34
661,01	0,34
661,452	0,34
661,894	0,34
662,335	0,34
662,777	0,34
663,219	0,34
663,661	0,34
664,102	0,34
664,544	0,34
664,985	0,34
665,427	0,34
665,869	0,34
666,31	0,34
666,752	0,34
667,193	0,34
667,634	0,34
668,076	0,34
668,517	0,34
668,959	0,34
669,4	0,34
669,841	0,34
670,282	0,34
670,724	0,34
671,165	0,34
671,606	0,34
672,047	0,34
672,488	0,34
672,929	0,34
673,37	0,34
673,811	0,34
674,252	0,34
674,693	0,34
675,134	0,34
675,575	0,34
676,016	0,34
676,457	0,34
676,898	0,33
677,339	0,33
677,78	0,33
678,22	0,33
678,661	0,33
679,102	0,33
679,542	0,33
679,983	0,33
680,424	0,33
680,864	0,34
681,305	0,34
681,745	0,33
682,186	0,34
682,626	0,34
683,067	0,33
683,507	0,33
683,948	0,33
684,388	0,33
684,828	0,33
685,269	0,33
685,709	0,33
686,149	0,33
686,589	0,33
687,029	0,33
687,47	0,33
687,91	0,33
688,35	0,33
688,79	0,32
689,23	0,32
689,67	0,32
690,11	0,32
690,55	0,32
690,99	0,32
691,43	0,32
691,87	0,32
692,31	0,32
692,749	0,32
693,189	0,32
693,629	0,32
694,069	0,32
694,508	0,32
694,948	0,32
695,388	0,32
695,827	0,32
696,267	0,32
696,706	0,32
697,146	0,32
697,586	0,32
698,025	0,33
698,464	0,33
698,904	0,33
699,343	0,33
699,783	0,33
700,222	0,33
700,661	0,33
701,101	0,33
701,54	0,33
701,979	0,33
702,418	0,33
702,857	0,33
703,297	0,33
703,736	0,32
704,175	0,32
704,614	0,32
705,053	0,32
705,492	0,32
705,931	0,32
706,37	0,32
706,809	0,32
707,248	0,32
707,687	0,32
708,125	0,32
708,564	0,32
709,003	0,32
709,442	0,32
709,88	0,32
710,319	0,32
710,758	0,32
711,196	0,32
711,635	0,32
712,074	0,31
712,512	0,31
712,951	0,31
713,389	0,31
713,828	0,31
714,266	0,31
714,705	0,31
715,143	0,31
715,581	0,31
716,02	0,31
716,458	0,31
716,896	0,31
717,334	0,31
717,773	0,31
718,211	0,31
718,649	0,31
719,087	0,31
719,525	0,31
719,963	0,31
720,401	0,31
720,839	0,31
721,277	0,31
721,715	0,31
722,153	0,31
722,591	0,31
723,029	0,31
723,467	0,31
723,905	0,31
724,342	0,31
724,78	0,31
725,218	0,31
725,656	0,31
726,093	0,31
726,531	0,31
726,969	0,31
727,406	0,31
727,844	0,31
728,281	0,31
728,719	0,31
729,156	0,31
729,594	0,31
730,031	0,31
730,469	0,31
730,906	0,31
731,343	0,3
731,781	0,3
732,218	0,3
732,655	0,3
733,092	0,3
733,53	0,3
733,967	0,3
734,404	0,3
734,841	0,3
735,278	0,3
735,715	0,3
736,152	0,3
736,589	0,3
737,026	0,3
737,463	0,3
737,9	0,3
738,337	0,3
738,774	0,3
739,211	0,3
739,647	0,3
740,084	0,3
740,521	0,3
740,958	0,3
741,394	0,3
741,831	0,3
742,268	0,29
742,704	0,29
743,141	0,29
743,577	0,29
744,014	0,29
744,45	0,29
744,887	0,29
745,323	0,28
745,76	0,28
746,196	0,28
746,632	0,28
747,069	0,28
747,505	0,28
747,941	0,28
748,378	0,28
748,814	0,28
749,25	0,29
749,686	0,29
750,122	0,29
750,558	0,29
750,994	0,29
751,43	0,29
751,866	0,3
752,302	0,3
752,738	0,3
753,174	0,3
753,61	0,3
754,046	0,3
754,482	0,3
754,918	0,3
755,354	0,3
755,789	0,3
756,225	0,3
756,661	0,3
757,096	0,3
757,532	0,3
757,968	0,29
758,403	0,29
758,839	0,29
759,274	0,29
759,71	0,28
760,145	0,28
760,581	0,28
761,016	0,27
761,452	0,27
761,887	0,27
762,322	0,26
762,758	0,26
763,193	0,26
763,628	0,25
764,063	0,25
764,499	0,25
764,934	0,24
765,369	0,24
765,804	0,23
766,239	0,23
766,674	0,22
767,109	0,22
767,544	0,21
767,979	0,2
768,414	0,19
768,849	0,19
769,284	0,18
769,719	0,17
770,154	0,16
770,588	0,16
771,023	0,15
771,458	0,14
771,893	0,13
772,327	0,12
772,762	0,11
773,197	0,1
773,631	0,1
774,066	0,09
774,5	0,08
774,935	0,07
775,369	0,06
775,804	0,06
776,238	0,05
776,673	0,04
777,107	0,03
777,541	0,03
777,976	0,02
778,41	0,02
778,844	0,01
779,279	0
779,713	-0
780,147	-0,01
780,581	-0,02
781,015	-0,03
781,449	-0,04
781,883	-0,04
782,317	-0,05
782,751	-0,06
783,185	-0,07
783,619	-0,08
784,053	-0,09
784,487	-0,09
784,921	-0,1
785,355	-0,1
785,789	-0,11
786,223	-0,12
786,656	-0,14
787,09	-0,15
787,524	-0,16
787,957	-0,17
788,391	-0,19
788,825	-0,2
789,258	-0,21
789,692	-0,22
790,125	-0,24
790,559	-0,25
790,992	-0,27
791,426	-0,29
791,859	-0,31
792,293	-0,34
792,726	-0,35
793,159	-0,37
793,593	-0,39
794,026	-0,41
794,459	-0,44
794,892	-0,47
795,326	-0,49
795,759	-0,53
796,192	-0,57
796,625	-0,61
797,058	-0,64
797,491	-0,68
797,924	-0,72
798,357	-0,77
798,79	-0,81
799,223	-0,85
799,656	-0,91
800,089	-0,95
800,522	-1
800,955	-1,04
801,387	-1,1
801,82	-1,15
802,253	-1,21
802,686	-1,29
803,118	-1,35
803,551	-1,4
803,984	-1,44
804,416	-1,48
804,849	-1,51
805,281	-1,6
805,714	-1,93
806,146	-2,41
806,579	-2,68
807,011	-2,85
807,444	-2,95
807,876	-3,05
808,308	-3,09
808,741	-3,12
809,173	-3,17
809,605	-3,19
810,037	-3,27
810,47	-3,19
810,902	-3,01
811,334	-2,86
811,766	-2,72
812,198	-2,5
812,63	-2,08
813,062	-1,82
813,494	-1,71
813,926	-1,62
814,358	-1,57
814,79	-1,49
815,222	-1,43
815,654	-1,38
816,086	-1,31
816,518	-1,26
816,949	-1,21
817,381	-1,16
817,813	-1,15
818,245	-1,11
818,676	-1,06
819,108	-1,03
819,54	-1,01
819,971	-0,99
820,403	-0,94
820,834	-0,93
821,266	-0,88
821,697	-0,86
822,129	-0,84
822,56	-0,82
822,991	-0,8
823,423	-0,77
823,854	-0,76
824,286	-0,73
824,717	-0,72
825,148	-0,7
825,579	-0,69
826,01	-0,68
826,442	-0,67
826,873	-0,65
827,304	-0,61
827,735	-0,6
828,166	-0,61
828,597	-0,6
829,028	-0,6
829,459	-0,6
829,89	-0,61
830,321	-0,56
830,752	-0,57
831,183	-0,56
831,613	-0,55
832,044	-0,56
832,475	-0,55
832,906	-0,56
833,336	-0,56
833,767	-0,57
834,198	-0,56
834,628	-0,54
835,059	-0,57
835,49	-0,58
835,92	-0,55
836,351	-0,55
836,781	-0,55
837,212	-0,56
837,642	-0,56
838,072	-0,55
838,503	-0,55
838,933	-0,52
839,364	-0,52
839,794	-0,5
840,224	-0,49
840,654	-0,54
841,085	-0,55
841,515	-0,52
841,945	-0,52
842,375	-0,48
842,805	-0,47
843,235	-0,46
843,665	-0,47
844,095	-0,46
844,525	-0,48
844,955	-0,48
845,385	-0,46
845,815	-0,44
846,245	-0,47
846,675	-0,48
847,105	-0,5
847,534	-0,5
847,964	-0,48
848,394	-0,46
848,824	-0,49
849,253	-0,49
849,683	-0,49
850,112	-0,49
850,542	-0,52
850,972	-0,52
851,401	-0,5
851,831	-0,48
852,26	-0,49
852,69	-0,53
853,119	-0,53
853,548	-0,53
853,978	-0,54
854,407	-0,52
854,836	-0,53
855,266	-0,52
855,695	-0,54
856,124	-0,55
856,553	-0,56
856,983	-0,57
857,412	-0,56
857,841	-0,57
858,27	-0,56
858,699	-0,56
859,128	-0,59
859,557	-0,6
859,986	-0,6
860,415	-0,58
860,844	-0,56
861,273	-0,56
861,702	-0,56
862,13	-0,55
862,559	-0,56
862,988	-0,53
863,417	-0,53
863,845	-0,53
864,274	-0,53
864,703	-0,53
865,131	-0,53
865,56	-0,54
865,989	-0,57
866,417	-0,55
866,846	-0,56
867,274	-0,55
867,703	-0,58
868,131	-0,6
868,559	-0,59
868,988	-0,61
869,416	-0,6
869,844	-0,61
870,273	-0,64
870,701	-0,62
871,129	-0,64
871,557	-0,66
871,986	-0,67
872,414	-0,67
872,842	-0,63
873,27	-0,62
873,698	-0,59
874,126	-0,63
874,554	-0,61
874,982	-0,61
875,41	-0,63
875,838	-0,59
876,266	-0,57
876,694	-0,58
877,122	-0,57
877,549	-0,64
877,977	-0,6
878,405	-0,62
878,833	-0,6
879,26	-0,58
879,688	-0,58
880,116	-0,55
880,543	-0,54
880,971	-0,53
881,399	-0,55
881,826	-0,56
882,254	-0,54
882,681	-0,59
883,109	-0,54
883,536	-0,55
883,963	-0,57
884,391	-0,56
884,818	-0,54
885,245	-0,58
885,673	-0,59
886,1	-0,57
886,527	-0,56
886,954	-0,52
887,381	-0,53
887,809	-0,54
888,236	-0,55
888,663	-0,55
889,09	-0,6
889,517	-0,61
889,944	-0,61
890,371	-0,6
890,798	-0,59
891,225	-0,6
891,652	-0,63
892,078	-0,61
892,505	-0,63
892,932	-0,59
893,359	-0,6
893,786	-0,6
894,212	-0,57
894,639	-0,58
895,066	-0,61
895,492	-0,56
895,919	-0,56
896,346	-0,56
896,772	-0,55
897,199	-0,53
897,625	-0,55
898,052	-0,52
898,478	-0,5
898,904	-0,52
899,331	-0,52
899,757	-0,53
900,183	-0,54
900,61	-0,53
901,036	-0,53
901,462	-0,54
901,888	-0,54
902,315	-0,53
902,741	-0,57
903,167	-0,56
903,593	-0,59
904,019	-0,58
904,445	-0,55
904,871	-0,58
905,297	-0,62
905,723	-0,61
906,149	-0,6
906,575	-0,6
907,001	-0,6
907,427	-0,58
907,852	-0,57
908,278	-0,58
908,704	-0,55
909,13	-0,54
909,555	-0,54
909,981	-0,53
910,407	-0,53
910,832	-0,52
911,258	-0,52
911,684	-0,52
912,109	-0,52
912,535	-0,54
912,96	-0,49
913,386	-0,54
913,811	-0,54
914,236	-0,54
914,662	-0,52
915,087	-0,56
915,512	-0,56
915,938	-0,58
916,363	-0,56
916,788	-0,58
917,213	-0,56
917,639	-0,61
918,064	-0,59
918,489	-0,6
918,914	-0,59
919,339	-0,61
919,764	-0,57
920,189	-0,57
920,614	-0,58
921,039	-0,6
921,464	-0,55
921,889	-0,57
922,314	-0,58
922,738	-0,61
923,163	-0,61
923,588	-0,61
924,013	-0,6
924,437	-0,61
924,862	-0,62
925,287	-0,59
925,711	-0,6
926,136	-0,62
926,561	-0,6
926,985	-0,58
927,41	-0,56
927,834	-0,55
928,259	-0,52
928,683	-0,51
929,108	-0,48
929,532	-0,49
929,956	-0,48
930,381	-0,46
930,805	-0,47
931,229	-0,46
931,653	-0,45
932,078	-0,45
932,502	-0,46
932,926	-0,46
933,35	-0,46
933,774	-0,46
934,198	-0,44
934,622	-0,43
935,046	-0,44
935,47	-0,44
935,894	-0,44
936,318	-0,44
936,742	-0,43
937,166	-0,43
937,59	-0,43
938,014	-0,45
938,437	-0,45
938,861	-0,48
939,285	-0,49
939,709	-0,48
940,132	-0,49
940,556	-0,49
940,98	-0,49
941,403	-0,47
941,827	-0,48
942,25	-0,49
942,674	-0,47
943,097	-0,47
943,521	-0,46
943,944	-0,47
944,368	-0,46
944,791	-0,45
945,214	-0,47
945,638	-0,48
946,061	-0,51
946,484	-0,52
946,907	-0,5
947,331	-0,5
947,754	-0,54
948,177	-0,51
948,6	-0,51
949,023	-0,51
949,446	-0,5
949,869	-0,48
950,292	-0,49
950,715	-0,46
951,138	-0,45
951,561	-0,42
951,984	-0,43
952,407	-0,42
952,83	-0,41
953,252	-0,36
953,675	-0,36
954,098	-0,37
954,521	-0,36
954,943	-0,34
955,366	-0,35
955,789	-0,33
956,211	-0,37
956,634	-0,37
957,056	-0,35
957,479	-0,36
957,902	-0,39
958,324	-0,39
958,746	-0,37
959,169	-0,38
959,591	-0,39
960,014	-0,39
960,436	-0,39
960,858	-0,38
961,281	-0,38
961,703	-0,39
962,125	-0,38
962,547	-0,36
962,969	-0,37
963,391	-0,37
963,814	-0,39
964,236	-0,39
964,658	-0,35
965,08	-0,36
965,502	-0,34
965,924	-0,32
966,346	-0,33
966,768	-0,32
967,189	-0,35
967,611	-0,34
968,033	-0,33
968,455	-0,31
968,877	-0,31
969,298	-0,33
969,72	-0,34
970,142	-0,34
970,563	-0,35
970,985	-0,34
971,407	-0,32
971,828	-0,3
972,25	-0,3
972,671	-0,28
973,093	-0,28
973,514	-0,27
973,936	-0,25
974,357	-0,23
974,778	-0,23
975,2	-0,23
975,621	-0,21
976,042	-0,2
976,464	-0,19
976,885	-0,18
977,306	-0,18
977,727	-0,18
978,148	-0,17
978,57	-0,16
978,991	-0,14
979,412	-0,13
979,833	-0,13
980,254	-0,13
980,675	-0,13
981,096	-0,12
981,517	-0,1
981,937	-0,1
982,358	-0,09
982,779	-0,07
983,2	-0,08
983,621	-0,08
984,042	-0,06
984,462	-0,05
984,883	-0,04
985,304	-0,02
985,724	-0,01
986,145	-0,01
986,565	0,01
986,986	0,01
987,407	0,02
987,827	0,04
988,248	0,05
988,668	0,05
989,088	0,06
989,509	0,07
989,929	0,08
990,35	0,09
990,77	0,1
991,19	0,11
991,61	0,12
992,031	0,13
992,451	0,13
992,871	0,14
993,291	0,15
993,711	0,15
994,131	0,16
994,551	0,16
994,971	0,17
995,391	0,17
995,811	0,18
996,231	0,18
996,651	0,19
997,071	0,19
997,491	0,2
997,911	0,2
998,331	0,21
998,75	0,21
999,17	0,22
999,59	0,23
1000,009	0,23
1000,429	0,23
1000,849	0,23
1001,268	0,24
1001,688	0,24
1002,107	0,24
1002,527	0,25
1002,946	0,25
1003,366	0,25
1003,785	0,25
1004,205	0,25
1004,624	0,26
1005,044	0,26
1005,463	0,26
1005,882	0,26
1006,301	0,26
1006,721	0,26
1007,14	0,26
1007,559	0,26
1007,978	0,26
1008,397	0,26
1008,816	0,26
1009,235	0,26
1009,655	0,26
1010,074	0,26
1010,492	0,26
1010,911	0,26
1011,33	0,25
1011,749	0,25
1012,168	0,25
1012,587	0,25
1013,006	0,25
1013,425	0,25
1013,843	0,25
1014,262	0,25
1014,681	0,25
1015,099	0,25
1015,518	0,25
1015,937	0,25
1016,355	0,25
1016,774	0,25
1017,192	0,25
1017,611	0,25
1018,029	0,25
1018,448	0,25
1018,866	0,25
1019,285	0,25
1019,703	0,25
1020,121	0,25
1020,54	0,25
1020,958	0,25
1021,376	0,25
1021,794	0,25
1022,213	0,25
1022,631	0,25
1023,049	0,25
1023,467	0,25
1023,885	0,25
1024,303	0,25
1024,721	0,25
1025,139	0,25
1025,557	0,25
1025,975	0,25
1026,393	0,25
1026,811	0,25
1027,229	0,25
1027,647	0,25
1028,065	0,25
1028,482	0,25
1028,9	0,25
1029,318	0,25
1029,735	0,25
1030,153	0,24
1030,571	0,24
1030,988	0,24
1031,406	0,24
1031,823	0,24
1032,241	0,24
1032,659	0,24
1033,076	0,24
1033,493	0,25
1033,911	0,24
1034,328	0,25
1034,746	0,25
1035,163	0,25
1035,58	0,24
1035,997	0,24
1036,415	0,24
1036,832	0,24
1037,249	0,24
1037,666	0,24
1038,083	0,24
1038,501	0,24
1038,918	0,24
1039,335	0,24
1039,752	0,24
1040,169	0,24
1040,586	0,24
1041,003	0,24
1041,419	0,24
1041,836	0,24
1042,253	0,24
1042,67	0,24
1043,087	0,24
1043,504	0,24
1043,92	0,24
1044,337	0,24
1044,754	0,24
1045,17	0,23
1045,587	0,23
1046,004	0,23
1046,42	0,23
1046,837	0,23
1047,253	0,23
1047,67	0,23
1048,086	0,23
1048,503	0,23
1048,919	0,23
1049,335	0,23
1049,752	0,23
1050,168	0,23
1050,584	0,23
1051,001	0,23
1051,417	0,23
1051,833	0,23
1052,249	0,23
1052,665	0,23
1053,081	0,23
1053,497	0,24
1053,914	0,24
1054,33	0,24
1054,746	0,24
1055,162	0,24
1055,578	0,24
1055,993	0,24
1056,409	0,24
1056,825	0,24
1057,241	0,24
1057,657	0,24
1058,073	0,24
1058,488	0,24
1058,904	0,24
1059,32	0,24
1059,736	0,24
1060,151	0,24
1060,567	0,24
1060,982	0,24
1061,398	0,24
1061,813	0,24
1062,229	0,24
1062,644	0,24
1063,06	0,24
1063,475	0,24
1063,891	0,24
1064,306	0,24
1064,721	0,24
1065,137	0,24
1065,552	0,24
1065,967	0,24
1066,382	0,24
1066,798	0,24
1067,213	0,24
1067,628	0,24
1068,043	0,24
1068,458	0,24
1068,873	0,24
1069,288	0,24
1069,703	0,24
1070,118	0,24
1070,533	0,24
1070,948	0,24
1071,363	0,24
1071,778	0,24
1072,193	0,24
1072,607	0,24
1073,022	0,24
1073,437	0,24
1073,852	0,25
1074,266	0,25
1074,681	0,25
1075,096	0,25
1075,51	0,25
1075,925	0,25
1076,339	0,25
1076,754	0,25
1077,168	0,25
1077,583	0,24
1077,997	0,24
1078,412	0,24
1078,826	0,24
1079,24	0,24
1079,655	0,24
1080,069	0,24
1080,483	0,24
1080,897	0,24
1081,312	0,24
1081,726	0,24
1082,14	0,24
1082,554	0,23
1082,968	0,23
1083,382	0,23
1083,796	0,23
1084,21	0,23
1084,624	0,23
1085,038	0,23
1085,452	0,23
1085,866	0,23
1086,28	0,23
1086,694	0,23
1087,108	0,23
1087,521	0,23
1087,935	0,22
1088,349	0,22
1088,763	0,22
1089,176	0,22
1089,59	0,22
1090,004	0,22
1090,417	0,21
1090,831	0,21
1091,244	0,21
1091,658	0,21
1092,071	0,21
1092,485	0,2
1092,898	0,2
1093,312	0,2
1093,725	0,2
1094,138	0,2
1094,552	0,2
1094,965	0,19
1095,378	0,19
1095,791	0,19
1096,205	0,19
1096,618	0,19
1097,031	0,19
1097,444	0,19
1097,857	0,18
1098,27	0,18
1098,683	0,18
1099,096	0,18
1099,509	0,18
1099,922	0,17
1100,335	0,17
1100,748	0,17
1101,161	0,16
1101,574	0,16
1101,986	0,16
1102,399	0,15
1102,812	0,15
1103,225	0,14
1103,637	0,14
1104,05	0,14
1104,463	0,14
1104,875	0,14
1105,288	0,14
1105,7	0,14
1106,113	0,13
1106,525	0,13
1106,938	0,13
1107,35	0,12
1107,763	0,12
1108,175	0,12
1108,588	0,12
1109	0,11
1109,412	0,11
1109,824	0,1
1110,237	0,1
1110,649	0,1
1111,061	0,09
