Data from 18C-808nm-8A_Absorbance__1236__01236.txt Node

Date: Mon Jul 17 17:07:53 CEST 2023
User: Laser008
Spectrometer: MAYP115816
Trigger mode: 0
Integration Time (sec): 2,500000E-1
Scans to average: 10
Electric dark correction enabled: true
Nonlinearity correction enabled: true
Boxcar width: 5
XAxis mode: Wavelengths
Number of Pixels in Spectrum: 2068
>>>>>Begin Spectral Data<<<<<
198,914	-0,63
199,384	-0,43
199,855	-0,33
200,325	-0,27
200,796	-0,24
201,266	-0,2
201,737	-0,19
202,207	-0,18
202,677	-0,17
203,147	-0,16
203,618	-0,14
204,088	-0,13
204,558	-0,12
205,028	-0,11
205,498	-0,11
205,968	-0,11
206,439	-0,13
206,909	-0,12
207,379	-0,13
207,849	-0,13
208,319	-0,14
208,789	-0,14
209,258	-0,14
209,728	-0,16
210,198	-0,15
210,668	-0,15
211,138	-0,14
211,608	-0,13
212,077	-0,13
212,547	-0,12
213,017	-0,12
213,486	-0,13
213,956	-0,13
214,426	-0,13
214,895	-0,13
215,365	-0,14
215,834	-0,15
216,304	-0,16
216,773	-0,16
217,243	-0,18
217,712	-0,19
218,181	-0,19
218,651	-0,19
219,12	-0,18
219,589	-0,19
220,058	-0,18
220,528	-0,19
220,997	-0,19
221,466	-0,2
221,935	-0,21
222,404	-0,2
222,873	-0,19
223,342	-0,19
223,812	-0,18
224,281	-0,18
224,749	-0,18
225,218	-0,2
225,687	-0,19
226,156	-0,18
226,625	-0,16
227,094	-0,16
227,563	-0,17
228,031	-0,19
228,5	-0,19
228,969	-0,2
229,438	-0,19
229,906	-0,18
230,375	-0,19
230,844	-0,19
231,312	-0,19
231,781	-0,19
232,249	-0,19
232,718	-0,19
233,186	-0,17
233,655	-0,18
234,123	-0,17
234,591	-0,17
235,06	-0,17
235,528	-0,17
235,996	-0,17
236,465	-0,16
236,933	-0,16
237,401	-0,15
237,869	-0,15
238,337	-0,15
238,805	-0,13
239,274	-0,13
239,742	-0,13
240,21	-0,13
240,678	-0,13
241,146	-0,12
241,614	-0,13
242,081	-0,12
242,549	-0,13
243,017	-0,13
243,485	-0,13
243,953	-0,13
244,421	-0,12
244,888	-0,12
245,356	-0,11
245,824	-0,11
246,291	-0,11
246,759	-0,12
247,227	-0,12
247,694	-0,11
248,162	-0,1
248,629	-0,1
249,097	-0,11
249,564	-0,12
250,032	-0,13
250,499	-0,13
250,967	-0,14
251,434	-0,14
251,901	-0,13
252,369	-0,14
252,836	-0,15
253,303	-0,17
253,77	-0,18
254,237	-0,17
254,705	-0,17
255,172	-0,16
255,639	-0,16
256,106	-0,17
256,573	-0,17
257,04	-0,17
257,507	-0,17
257,974	-0,18
258,441	-0,16
258,908	-0,16
259,375	-0,17
259,841	-0,17
260,308	-0,18
260,775	-0,18
261,242	-0,17
261,709	-0,17
262,175	-0,19
262,642	-0,18
263,109	-0,18
263,575	-0,19
264,042	-0,18
264,508	-0,17
264,975	-0,19
265,441	-0,2
265,908	-0,2
266,374	-0,2
266,841	-0,2
267,307	-0,19
267,773	-0,19
268,24	-0,19
268,706	-0,2
269,172	-0,21
269,639	-0,23
270,105	-0,22
270,571	-0,22
271,037	-0,22
271,503	-0,23
271,969	-0,23
272,435	-0,24
272,902	-0,25
273,368	-0,26
273,834	-0,26
274,3	-0,26
274,765	-0,25
275,231	-0,25
275,697	-0,24
276,163	-0,24
276,629	-0,24
277,095	-0,24
277,56	-0,23
278,026	-0,23
278,492	-0,21
278,958	-0,21
279,423	-0,21
279,889	-0,21
280,354	-0,21
280,82	-0,21
281,286	-0,23
281,751	-0,22
282,217	-0,22
282,682	-0,21
283,147	-0,21
283,613	-0,22
284,078	-0,22
284,544	-0,23
285,009	-0,24
285,474	-0,24
285,939	-0,24
286,405	-0,24
286,87	-0,23
287,335	-0,23
287,8	-0,23
288,265	-0,22
288,73	-0,23
289,195	-0,25
289,66	-0,24
290,125	-0,22
290,59	-0,22
291,055	-0,21
291,52	-0,21
291,985	-0,22
292,45	-0,24
292,915	-0,24
293,38	-0,24
293,844	-0,22
294,309	-0,21
294,774	-0,2
295,239	-0,21
295,703	-0,21
296,168	-0,21
296,632	-0,2
297,097	-0,18
297,562	-0,17
298,026	-0,17
298,491	-0,18
298,955	-0,17
299,419	-0,16
299,884	-0,16
300,348	-0,16
300,813	-0,16
301,277	-0,16
301,741	-0,16
302,205	-0,16
302,67	-0,15
303,134	-0,15
303,598	-0,15
304,062	-0,14
304,526	-0,15
304,99	-0,16
305,454	-0,15
305,919	-0,15
306,383	-0,15
306,847	-0,15
307,31	-0,17
307,774	-0,18
308,238	-0,17
308,702	-0,16
309,166	-0,18
309,63	-0,17
310,094	-0,14
310,557	-0,14
311,021	-0,14
311,485	-0,14
311,948	-0,14
312,412	-0,12
312,876	-0,12
313,339	-0,13
313,803	-0,14
314,266	-0,13
314,73	-0,13
315,193	-0,14
315,657	-0,14
316,12	-0,13
316,584	-0,12
317,047	-0,12
317,51	-0,11
317,973	-0,11
318,437	-0,1
318,9	-0,09
319,363	-0,08
319,826	-0,08
320,29	-0,08
320,753	-0,08
321,216	-0,08
321,679	-0,08
322,142	-0,08
322,605	-0,1
323,068	-0,09
323,531	-0,09
323,994	-0,08
324,457	-0,09
324,92	-0,08
325,382	-0,08
325,845	-0,08
326,308	-0,07
326,771	-0,07
327,233	-0,06
327,696	-0,05
328,159	-0,05
328,622	-0,04
329,084	-0,04
329,547	-0,03
330,009	-0,03
330,472	-0,01
330,934	-0,01
331,397	-0,01
331,859	0
332,322	0
332,784	0,01
333,246	0,02
333,709	0,01
334,171	0,02
334,633	0,02
335,096	0,02
335,558	0,02
336,02	0,01
336,482	0,02
336,944	0,02
337,406	0,03
337,868	0,03
338,331	0,03
338,793	0,04
339,255	0,05
339,717	0,05
340,178	0,06
340,64	0,07
341,102	0,08
341,564	0,08
342,026	0,1
342,488	0,1
342,949	0,11
343,411	0,14
343,873	0,16
344,335	0,18
344,796	0,21
345,258	0,23
345,719	0,27
346,181	0,3
346,643	0,32
347,104	0,34
347,566	0,36
348,027	0,38
348,488	0,39
348,95	0,4
349,411	0,42
349,873	0,43
350,334	0,44
350,795	0,45
351,256	0,46
351,718	0,46
352,179	0,47
352,64	0,47
353,101	0,47
353,562	0,47
354,023	0,47
354,484	0,47
354,945	0,48
355,406	0,48
355,867	0,48
356,328	0,48
356,789	0,48
357,25	0,48
357,711	0,48
358,172	0,48
358,633	0,49
359,093	0,49
359,554	0,49
360,015	0,49
360,476	0,49
360,936	0,49
361,397	0,49
361,858	0,49
362,318	0,49
362,779	0,49
363,239	0,49
363,7	0,49
364,16	0,49
364,621	0,49
365,081	0,49
365,541	0,49
366,002	0,49
366,462	0,49
366,922	0,49
367,383	0,49
367,843	0,49
368,303	0,49
368,763	0,49
369,223	0,49
369,684	0,49
370,144	0,49
370,604	0,49
371,064	0,49
371,524	0,49
371,984	0,49
372,444	0,49
372,904	0,49
373,363	0,49
373,823	0,49
374,283	0,49
374,743	0,49
375,203	0,49
375,663	0,49
376,122	0,49
376,582	0,49
377,042	0,49
377,501	0,49
377,961	0,49
378,42	0,49
378,88	0,48
379,34	0,48
379,799	0,48
380,259	0,48
380,718	0,48
381,177	0,48
381,637	0,48
382,096	0,48
382,555	0,48
383,015	0,48
383,474	0,48
383,933	0,48
384,393	0,48
384,852	0,48
385,311	0,48
385,77	0,48
386,229	0,48
386,688	0,48
387,147	0,48
387,606	0,48
388,065	0,48
388,524	0,48
388,983	0,48
389,442	0,48
389,901	0,48
390,36	0,48
390,819	0,48
391,277	0,48
391,736	0,48
392,195	0,48
392,654	0,47
393,112	0,47
393,571	0,47
394,03	0,47
394,488	0,47
394,947	0,47
395,405	0,47
395,864	0,47
396,322	0,47
396,781	0,47
397,239	0,47
397,698	0,47
398,156	0,47
398,614	0,47
399,073	0,47
399,531	0,47
399,989	0,47
400,447	0,47
400,905	0,47
401,364	0,47
401,822	0,47
402,28	0,47
402,738	0,47
403,196	0,47
403,654	0,47
404,112	0,47
404,57	0,47
405,028	0,47
405,486	0,47
405,944	0,47
406,402	0,47
406,859	0,47
407,317	0,47
407,775	0,47
408,233	0,47
408,691	0,47
409,148	0,47
409,606	0,47
410,064	0,47
410,521	0,47
410,979	0,47
411,436	0,47
411,894	0,47
412,351	0,47
412,809	0,47
413,266	0,47
413,724	0,46
414,181	0,46
414,638	0,46
415,096	0,46
415,553	0,46
416,01	0,46
416,467	0,46
416,925	0,46
417,382	0,46
417,839	0,46
418,296	0,46
418,753	0,46
419,21	0,46
419,667	0,46
420,124	0,46
420,581	0,46
421,038	0,46
421,495	0,46
421,952	0,46
422,409	0,46
422,866	0,46
423,322	0,46
423,779	0,46
424,236	0,46
424,693	0,46
425,149	0,46
425,606	0,46
426,063	0,46
426,519	0,46
426,976	0,46
427,433	0,46
427,889	0,46
428,346	0,46
428,802	0,46
429,258	0,46
429,715	0,46
430,171	0,46
430,628	0,46
431,084	0,46
431,54	0,46
431,997	0,46
432,453	0,46
432,909	0,46
433,365	0,46
433,821	0,46
434,277	0,46
434,734	0,46
435,19	0,46
435,646	0,46
436,102	0,46
436,558	0,46
437,014	0,46
437,47	0,46
437,925	0,46
438,381	0,46
438,837	0,46
439,293	0,46
439,749	0,46
440,205	0,46
440,66	0,46
441,116	0,46
441,572	0,46
442,027	0,46
442,483	0,46
442,939	0,46
443,394	0,46
443,85	0,46
444,305	0,46
444,761	0,46
445,216	0,46
445,672	0,46
446,127	0,46
446,582	0,46
447,038	0,46
447,493	0,46
447,948	0,46
448,403	0,46
448,859	0,46
449,314	0,46
449,769	0,46
450,224	0,46
450,679	0,46
451,134	0,46
451,589	0,46
452,044	0,46
452,499	0,46
452,954	0,46
453,409	0,46
453,864	0,46
454,319	0,46
454,774	0,46
455,229	0,46
455,684	0,46
456,138	0,46
456,593	0,46
457,048	0,46
457,503	0,46
457,957	0,46
458,412	0,46
458,866	0,46
459,321	0,46
459,776	0,46
460,23	0,46
460,685	0,46
461,139	0,46
461,593	0,46
462,048	0,46
462,502	0,46
462,957	0,47
463,411	0,47
463,865	0,47
464,319	0,47
464,774	0,47
465,228	0,47
465,682	0,47
466,136	0,47
466,59	0,47
467,044	0,47
467,499	0,47
467,953	0,47
468,407	0,47
468,861	0,47
469,315	0,47
469,768	0,47
470,222	0,47
470,676	0,47
471,13	0,47
471,584	0,47
472,038	0,47
472,491	0,47
472,945	0,47
473,399	0,48
473,852	0,48
474,306	0,48
474,76	0,48
475,213	0,48
475,667	0,48
476,12	0,48
476,574	0,48
477,027	0,48
477,481	0,48
477,934	0,48
478,388	0,48
478,841	0,48
479,294	0,49
479,748	0,49
480,201	0,49
480,654	0,49
481,107	0,49
481,561	0,49
482,014	0,49
482,467	0,49
482,92	0,49
483,373	0,49
483,826	0,5
484,279	0,5
484,732	0,5
485,185	0,5
485,638	0,5
486,091	0,5
486,544	0,5
486,997	0,5
487,449	0,51
487,902	0,51
488,355	0,51
488,808	0,51
489,26	0,51
489,713	0,51
490,166	0,52
490,618	0,52
491,071	0,52
491,523	0,52
491,976	0,52
492,429	0,52
492,881	0,53
493,333	0,53
493,786	0,53
494,238	0,53
494,691	0,53
495,143	0,54
495,595	0,54
496,048	0,54
496,5	0,54
496,952	0,55
497,404	0,55
497,856	0,55
498,309	0,55
498,761	0,56
499,213	0,56
499,665	0,56
500,117	0,56
500,569	0,57
501,021	0,57
501,473	0,57
501,925	0,57
502,377	0,58
502,828	0,58
503,28	0,58
503,732	0,58
504,184	0,59
504,636	0,59
505,087	0,59
505,539	0,59
505,991	0,6
506,442	0,6
506,894	0,6
507,345	0,6
507,797	0,61
508,249	0,61
508,7	0,61
509,151	0,62
509,603	0,62
510,054	0,62
510,506	0,62
510,957	0,63
511,408	0,63
511,86	0,63
512,311	0,63
512,762	0,64
513,213	0,64
513,665	0,64
514,116	0,64
514,567	0,64
515,018	0,65
515,469	0,65
515,92	0,65
516,371	0,65
516,822	0,66
517,273	0,66
517,724	0,66
518,175	0,66
518,626	0,66
519,076	0,67
519,527	0,67
519,978	0,67
520,429	0,67
520,88	0,67
521,33	0,67
521,781	0,67
522,232	0,68
522,682	0,68
523,133	0,68
523,583	0,68
524,034	0,68
524,484	0,68
524,935	0,68
525,385	0,68
525,836	0,68
526,286	0,68
526,736	0,68
527,187	0,68
527,637	0,68
528,087	0,68
528,538	0,68
528,988	0,68
529,438	0,68
529,888	0,68
530,338	0,68
530,788	0,68
531,238	0,68
531,688	0,68
532,139	0,68
532,589	0,68
533,038	0,68
533,488	0,68
533,938	0,68
534,388	0,68
534,838	0,67
535,288	0,67
535,738	0,67
536,187	0,67
536,637	0,67
537,087	0,66
537,537	0,66
537,986	0,66
538,436	0,66
538,885	0,65
539,335	0,65
539,785	0,65
540,234	0,64
540,684	0,64
541,133	0,64
541,582	0,64
542,032	0,63
542,481	0,63
542,931	0,63
543,38	0,63
543,829	0,62
544,278	0,62
544,728	0,62
545,177	0,61
545,626	0,61
546,075	0,61
546,524	0,61
546,973	0,6
547,422	0,6
547,871	0,6
548,32	0,6
548,769	0,6
549,218	0,6
549,667	0,6
550,116	0,59
550,565	0,59
551,014	0,59
551,463	0,59
551,911	0,59
552,36	0,58
552,809	0,58
553,258	0,58
553,706	0,58
554,155	0,57
554,603	0,57
555,052	0,57
555,501	0,57
555,949	0,56
556,398	0,56
556,846	0,56
557,294	0,56
557,743	0,55
558,191	0,55
558,64	0,55
559,088	0,54
559,536	0,54
559,985	0,54
560,433	0,54
560,881	0,53
561,329	0,53
561,777	0,53
562,225	0,53
562,674	0,52
563,122	0,52
563,57	0,52
564,018	0,52
564,466	0,52
564,914	0,51
565,362	0,51
565,809	0,51
566,257	0,51
566,705	0,5
567,153	0,5
567,601	0,5
568,048	0,5
568,496	0,49
568,944	0,49
569,392	0,49
569,839	0,49
570,287	0,48
570,734	0,48
571,182	0,48
571,63	0,48
572,077	0,48
572,525	0,47
572,972	0,47
573,419	0,47
573,867	0,47
574,314	0,47
574,761	0,46
575,209	0,46
575,656	0,46
576,103	0,46
576,551	0,46
576,998	0,46
577,445	0,45
577,892	0,45
578,339	0,45
578,786	0,45
579,233	0,45
579,68	0,45
580,127	0,45
580,574	0,44
581,021	0,44
581,468	0,44
581,915	0,44
582,362	0,44
582,809	0,44
583,255	0,43
583,702	0,43
584,149	0,43
584,596	0,43
585,042	0,43
585,489	0,43
585,936	0,43
586,382	0,42
586,829	0,42
587,275	0,42
587,722	0,42
588,168	0,42
588,615	0,42
589,061	0,42
589,508	0,42
589,954	0,42
590,4	0,42
590,847	0,41
591,293	0,41
591,739	0,41
592,185	0,41
592,632	0,41
593,078	0,41
593,524	0,41
593,97	0,41
594,416	0,41
594,862	0,41
595,308	0,41
595,754	0,41
596,2	0,4
596,646	0,4
597,092	0,4
597,538	0,4
597,984	0,4
598,43	0,4
598,876	0,4
599,321	0,4
599,767	0,4
600,213	0,4
600,659	0,4
601,104	0,39
601,55	0,39
601,995	0,39
602,441	0,39
602,887	0,39
603,332	0,39
603,778	0,39
604,223	0,39
604,668	0,39
605,114	0,39
605,559	0,39
606,005	0,39
606,45	0,39
606,895	0,39
607,341	0,39
607,786	0,39
608,231	0,38
608,676	0,38
609,121	0,38
609,566	0,37
610,012	0,37
610,457	0,37
610,902	0,37
611,347	0,36
611,792	0,36
612,237	0,36
612,682	0,36
613,127	0,36
613,571	0,36
614,016	0,36
614,461	0,37
614,906	0,37
615,351	0,37
615,795	0,37
616,24	0,37
616,685	0,37
617,129	0,37
617,574	0,37
618,019	0,37
618,463	0,37
618,908	0,37
619,352	0,37
619,797	0,37
620,241	0,37
620,686	0,37
621,13	0,37
621,574	0,37
622,019	0,36
622,463	0,36
622,907	0,36
623,352	0,36
623,796	0,36
624,24	0,36
624,684	0,36
625,128	0,36
625,572	0,36
626,016	0,36
626,461	0,36
626,905	0,36
627,349	0,36
627,793	0,36
628,236	0,36
628,68	0,36
629,124	0,36
629,568	0,36
630,012	0,36
630,456	0,36
630,9	0,36
631,343	0,36
631,787	0,36
632,231	0,36
632,674	0,36
633,118	0,36
633,562	0,36
634,005	0,36
634,449	0,36
634,892	0,36
635,336	0,36
635,779	0,36
636,223	0,36
636,666	0,35
637,109	0,35
637,553	0,35
637,996	0,35
638,439	0,35
638,883	0,35
639,326	0,35
639,769	0,35
640,212	0,35
640,655	0,35
641,099	0,35
641,542	0,35
641,985	0,35
642,428	0,35
642,871	0,35
643,314	0,35
643,757	0,35
644,2	0,35
644,643	0,35
645,085	0,35
645,528	0,35
645,971	0,35
646,414	0,35
646,857	0,35
647,299	0,35
647,742	0,35
648,185	0,35
648,627	0,34
649,07	0,34
649,513	0,34
649,955	0,34
650,398	0,34
650,84	0,34
651,283	0,34
651,725	0,34
652,168	0,34
652,61	0,34
653,052	0,34
653,495	0,34
653,937	0,27
654,379	0,21
654,821	0,22
655,264	0,22
655,706	0,22
656,148	0,22
656,59	0,22
657,032	0,22
657,474	0,22
657,916	0,22
658,358	0,21
658,8	0,27
659,242	0,34
659,684	0,34
660,126	0,34
660,568	0,34
661,01	0,34
661,452	0,34
661,894	0,34
662,335	0,34
662,777	0,34
663,219	0,34
663,661	0,34
664,102	0,34
664,544	0,34
664,985	0,34
665,427	0,34
665,869	0,34
666,31	0,34
666,752	0,34
667,193	0,34
667,634	0,34
668,076	0,34
668,517	0,34
668,959	0,34
669,4	0,34
669,841	0,34
670,282	0,34
670,724	0,34
671,165	0,34
671,606	0,34
672,047	0,34
672,488	0,34
672,929	0,34
673,37	0,34
673,811	0,34
674,252	0,34
674,693	0,33
675,134	0,33
675,575	0,33
676,016	0,33
676,457	0,33
676,898	0,33
677,339	0,33
677,78	0,33
678,22	0,33
678,661	0,33
679,102	0,33
679,542	0,33
679,983	0,33
680,424	0,33
680,864	0,33
681,305	0,33
681,745	0,33
682,186	0,33
682,626	0,33
683,067	0,33
683,507	0,33
683,948	0,33
684,388	0,33
684,828	0,33
685,269	0,33
685,709	0,33
686,149	0,33
686,589	0,33
687,029	0,33
687,47	0,32
687,91	0,32
688,35	0,32
688,79	0,32
689,23	0,32
689,67	0,32
690,11	0,32
690,55	0,32
690,99	0,32
691,43	0,32
691,87	0,32
692,31	0,32
692,749	0,32
693,189	0,32
693,629	0,32
694,069	0,32
694,508	0,32
694,948	0,32
695,388	0,32
695,827	0,32
696,267	0,32
696,706	0,32
697,146	0,32
697,586	0,32
698,025	0,32
698,464	0,32
698,904	0,33
699,343	0,33
699,783	0,33
700,222	0,33
700,661	0,33
701,101	0,32
701,54	0,32
701,979	0,32
702,418	0,32
702,857	0,32
703,297	0,32
703,736	0,32
704,175	0,32
704,614	0,32
705,053	0,32
705,492	0,32
705,931	0,32
706,37	0,32
706,809	0,32
707,248	0,32
707,687	0,32
708,125	0,31
708,564	0,31
709,003	0,31
709,442	0,31
709,88	0,31
710,319	0,31
710,758	0,31
711,196	0,31
711,635	0,31
712,074	0,31
712,512	0,31
712,951	0,31
713,389	0,31
713,828	0,31
714,266	0,31
714,705	0,31
715,143	0,31
715,581	0,31
716,02	0,31
716,458	0,31
716,896	0,31
717,334	0,31
717,773	0,3
718,211	0,3
718,649	0,3
719,087	0,31
719,525	0,31
719,963	0,31
720,401	0,31
720,839	0,31
721,277	0,31
721,715	0,31
722,153	0,31
722,591	0,31
723,029	0,31
723,467	0,31
723,905	0,31
724,342	0,31
724,78	0,31
725,218	0,31
725,656	0,31
726,093	0,31
726,531	0,31
726,969	0,31
727,406	0,31
727,844	0,31
728,281	0,31
728,719	0,31
729,156	0,31
729,594	0,3
730,031	0,3
730,469	0,3
730,906	0,3
731,343	0,3
731,781	0,3
732,218	0,3
732,655	0,3
733,092	0,3
733,53	0,3
733,967	0,3
734,404	0,3
734,841	0,3
735,278	0,3
735,715	0,3
736,152	0,3
736,589	0,3
737,026	0,3
737,463	0,3
737,9	0,3
738,337	0,3
738,774	0,3
739,211	0,3
739,647	0,29
740,084	0,29
740,521	0,29
740,958	0,29
741,394	0,29
741,831	0,29
742,268	0,29
742,704	0,29
743,141	0,29
743,577	0,29
744,014	0,29
744,45	0,29
744,887	0,28
745,323	0,28
745,76	0,28
746,196	0,28
746,632	0,28
747,069	0,28
747,505	0,28
747,941	0,28
748,378	0,28
748,814	0,28
749,25	0,28
749,686	0,28
750,122	0,29
750,558	0,29
750,994	0,29
751,43	0,29
751,866	0,29
752,302	0,29
752,738	0,29
753,174	0,3
753,61	0,3
754,046	0,3
754,482	0,3
754,918	0,3
755,354	0,3
755,789	0,3
756,225	0,3
756,661	0,3
757,096	0,3
757,532	0,29
757,968	0,29
758,403	0,29
758,839	0,29
759,274	0,29
759,71	0,28
760,145	0,28
760,581	0,27
761,016	0,27
761,452	0,27
761,887	0,27
762,322	0,26
762,758	0,26
763,193	0,26
763,628	0,25
764,063	0,25
764,499	0,24
764,934	0,24
765,369	0,23
765,804	0,23
766,239	0,22
766,674	0,22
767,109	0,21
767,544	0,2
767,979	0,2
768,414	0,19
768,849	0,18
769,284	0,18
769,719	0,17
770,154	0,16
770,588	0,15
771,023	0,14
771,458	0,13
771,893	0,13
772,327	0,11
772,762	0,1
773,197	0,1
773,631	0,09
774,066	0,08
774,5	0,07
774,935	0,06
775,369	0,06
775,804	0,05
776,238	0,04
776,673	0,04
777,107	0,03
777,541	0,03
777,976	0,02
778,41	0,01
778,844	0
779,279	-0,01
779,713	-0,02
780,147	-0,02
780,581	-0,03
781,015	-0,04
781,449	-0,05
781,883	-0,06
782,317	-0,07
782,751	-0,08
783,185	-0,08
783,619	-0,09
784,053	-0,1
784,487	-0,11
784,921	-0,11
785,355	-0,12
785,789	-0,13
786,223	-0,13
786,656	-0,14
787,09	-0,16
787,524	-0,16
787,957	-0,17
788,391	-0,18
788,825	-0,2
789,258	-0,21
789,692	-0,23
790,125	-0,24
790,559	-0,26
790,992	-0,27
791,426	-0,3
791,859	-0,31
792,293	-0,34
792,726	-0,36
793,159	-0,38
793,593	-0,4
794,026	-0,42
794,459	-0,44
794,892	-0,47
795,326	-0,5
795,759	-0,53
796,192	-0,58
796,625	-0,62
797,058	-0,65
797,491	-0,69
797,924	-0,73
798,357	-0,78
798,79	-0,82
799,223	-0,87
799,656	-0,92
800,089	-0,97
800,522	-1,02
800,955	-1,06
801,387	-1,11
801,82	-1,17
802,253	-1,23
802,686	-1,31
803,118	-1,36
803,551	-1,41
803,984	-1,46
804,416	-1,5
804,849	-1,53
805,281	-1,64
805,714	-1,96
806,146	-2,43
806,579	-2,7
807,011	-2,86
807,444	-2,96
807,876	-3,05
808,308	-3,09
808,741	-3,12
809,173	-3,17
809,605	-3,19
810,037	-3,27
810,47	-3,19
810,902	-2,99
811,334	-2,85
811,766	-2,7
812,198	-2,47
812,63	-2,05
813,062	-1,82
813,494	-1,72
813,926	-1,63
814,358	-1,58
814,79	-1,5
815,222	-1,44
815,654	-1,39
816,086	-1,32
816,518	-1,27
816,949	-1,21
817,381	-1,17
817,813	-1,15
818,245	-1,11
818,676	-1,07
819,108	-1,03
819,54	-1,02
819,971	-1
820,403	-0,94
820,834	-0,92
821,266	-0,88
821,697	-0,86
822,129	-0,85
822,56	-0,82
822,991	-0,79
823,423	-0,77
823,854	-0,76
824,286	-0,73
824,717	-0,72
825,148	-0,7
825,579	-0,7
826,01	-0,69
826,442	-0,68
826,873	-0,66
827,304	-0,63
827,735	-0,62
828,166	-0,63
828,597	-0,62
829,028	-0,62
829,459	-0,62
829,89	-0,63
830,321	-0,58
830,752	-0,58
831,183	-0,57
831,613	-0,56
832,044	-0,55
832,475	-0,54
832,906	-0,55
833,336	-0,55
833,767	-0,56
834,198	-0,55
834,628	-0,52
835,059	-0,55
835,49	-0,56
835,92	-0,54
836,351	-0,54
836,781	-0,54
837,212	-0,56
837,642	-0,56
838,072	-0,53
838,503	-0,54
838,933	-0,51
839,364	-0,52
839,794	-0,5
840,224	-0,49
840,654	-0,53
841,085	-0,54
841,515	-0,51
841,945	-0,51
842,375	-0,47
842,805	-0,46
843,235	-0,45
843,665	-0,46
844,095	-0,45
844,525	-0,47
844,955	-0,48
845,385	-0,44
845,815	-0,42
846,245	-0,44
846,675	-0,45
847,105	-0,46
847,534	-0,46
847,964	-0,45
848,394	-0,44
848,824	-0,47
849,253	-0,47
849,683	-0,47
850,112	-0,49
850,542	-0,53
850,972	-0,54
851,401	-0,53
851,831	-0,51
852,26	-0,52
852,69	-0,56
853,119	-0,55
853,548	-0,55
853,978	-0,55
854,407	-0,53
854,836	-0,53
855,266	-0,51
855,695	-0,53
856,124	-0,53
856,553	-0,54
856,983	-0,56
857,412	-0,55
857,841	-0,57
858,27	-0,57
858,699	-0,58
859,128	-0,61
859,557	-0,62
859,986	-0,63
860,415	-0,6
860,844	-0,58
861,273	-0,59
861,702	-0,59
862,13	-0,57
862,559	-0,59
862,988	-0,56
863,417	-0,55
863,845	-0,54
864,274	-0,55
864,703	-0,54
865,131	-0,54
865,56	-0,55
865,989	-0,57
866,417	-0,54
866,846	-0,54
867,274	-0,54
867,703	-0,57
868,131	-0,59
868,559	-0,59
868,988	-0,61
869,416	-0,62
869,844	-0,63
870,273	-0,66
870,701	-0,64
871,129	-0,67
871,557	-0,69
871,986	-0,69
872,414	-0,69
872,842	-0,65
873,27	-0,63
873,698	-0,6
874,126	-0,62
874,554	-0,6
874,982	-0,6
875,41	-0,62
875,838	-0,57
876,266	-0,55
876,694	-0,55
877,122	-0,54
877,549	-0,6
877,977	-0,57
878,405	-0,6
878,833	-0,57
879,26	-0,55
879,688	-0,55
880,116	-0,53
880,543	-0,52
880,971	-0,51
881,399	-0,54
881,826	-0,55
882,254	-0,54
882,681	-0,57
883,109	-0,54
883,536	-0,55
883,963	-0,57
884,391	-0,55
884,818	-0,54
885,245	-0,58
885,673	-0,59
886,1	-0,57
886,527	-0,56
886,954	-0,52
887,381	-0,55
887,809	-0,56
888,236	-0,58
888,663	-0,58
889,09	-0,62
889,517	-0,64
889,944	-0,63
890,371	-0,62
890,798	-0,62
891,225	-0,63
891,652	-0,66
892,078	-0,63
892,505	-0,65
892,932	-0,61
893,359	-0,62
893,786	-0,61
894,212	-0,58
894,639	-0,59
895,066	-0,62
895,492	-0,57
895,919	-0,57
896,346	-0,56
896,772	-0,56
897,199	-0,53
897,625	-0,56
898,052	-0,52
898,478	-0,5
898,904	-0,52
899,331	-0,52
899,757	-0,52
900,183	-0,54
900,61	-0,52
901,036	-0,53
901,462	-0,53
901,888	-0,53
902,315	-0,52
902,741	-0,57
903,167	-0,57
903,593	-0,6
904,019	-0,58
904,445	-0,56
904,871	-0,58
905,297	-0,6
905,723	-0,59
906,149	-0,58
906,575	-0,59
907,001	-0,58
907,427	-0,55
907,852	-0,54
908,278	-0,55
908,704	-0,53
909,13	-0,52
909,555	-0,52
909,981	-0,51
910,407	-0,51
910,832	-0,51
911,258	-0,51
911,684	-0,51
912,109	-0,52
912,535	-0,53
912,96	-0,49
913,386	-0,52
913,811	-0,52
914,236	-0,53
914,662	-0,51
915,087	-0,56
915,512	-0,55
915,938	-0,56
916,363	-0,56
916,788	-0,57
917,213	-0,55
917,639	-0,61
918,064	-0,59
918,489	-0,59
918,914	-0,6
919,339	-0,62
919,764	-0,59
920,189	-0,59
920,614	-0,61
921,039	-0,62
921,464	-0,58
921,889	-0,6
922,314	-0,61
922,738	-0,64
923,163	-0,65
923,588	-0,64
924,013	-0,63
924,437	-0,62
924,862	-0,63
925,287	-0,59
925,711	-0,6
926,136	-0,62
926,561	-0,6
926,985	-0,59
927,41	-0,56
927,834	-0,53
928,259	-0,5
928,683	-0,48
929,108	-0,46
929,532	-0,48
929,956	-0,46
930,381	-0,45
930,805	-0,45
931,229	-0,45
931,653	-0,43
932,078	-0,43
932,502	-0,44
932,926	-0,45
933,35	-0,45
933,774	-0,44
934,198	-0,42
934,622	-0,41
935,046	-0,42
935,47	-0,42
935,894	-0,42
936,318	-0,42
936,742	-0,42
937,166	-0,43
937,59	-0,43
938,014	-0,45
938,437	-0,45
938,861	-0,48
939,285	-0,49
939,709	-0,48
940,132	-0,48
940,556	-0,49
940,98	-0,49
941,403	-0,47
941,827	-0,48
942,25	-0,48
942,674	-0,48
943,097	-0,47
943,521	-0,47
943,944	-0,48
944,368	-0,47
944,791	-0,46
945,214	-0,48
945,638	-0,49
946,061	-0,52
946,484	-0,52
946,907	-0,51
947,331	-0,51
947,754	-0,56
948,177	-0,53
948,6	-0,52
949,023	-0,53
949,446	-0,53
949,869	-0,5
950,292	-0,49
950,715	-0,47
951,138	-0,45
951,561	-0,43
951,984	-0,42
952,407	-0,41
952,83	-0,39
953,252	-0,35
953,675	-0,34
954,098	-0,35
954,521	-0,35
954,943	-0,34
955,366	-0,35
955,789	-0,34
956,211	-0,36
956,634	-0,37
957,056	-0,34
957,479	-0,35
957,902	-0,38
958,324	-0,38
958,746	-0,36
959,169	-0,37
959,591	-0,38
960,014	-0,39
960,436	-0,39
960,858	-0,38
961,281	-0,37
961,703	-0,38
962,125	-0,38
962,547	-0,37
962,969	-0,37
963,391	-0,38
963,814	-0,39
964,236	-0,37
964,658	-0,34
965,08	-0,35
965,502	-0,35
965,924	-0,33
966,346	-0,33
966,768	-0,32
967,189	-0,34
967,611	-0,33
968,033	-0,33
968,455	-0,31
968,877	-0,33
969,298	-0,34
969,72	-0,35
970,142	-0,34
970,563	-0,34
970,985	-0,32
971,407	-0,31
971,828	-0,29
972,25	-0,29
972,671	-0,28
973,093	-0,28
973,514	-0,26
973,936	-0,24
974,357	-0,22
974,778	-0,23
975,2	-0,23
975,621	-0,23
976,042	-0,21
976,464	-0,2
976,885	-0,19
977,306	-0,17
977,727	-0,17
978,148	-0,17
978,57	-0,16
978,991	-0,15
979,412	-0,12
979,833	-0,12
980,254	-0,11
980,675	-0,12
981,096	-0,11
981,517	-0,1
981,937	-0,1
982,358	-0,09
982,779	-0,07
983,2	-0,07
983,621	-0,07
984,042	-0,06
984,462	-0,05
984,883	-0,03
985,304	-0,02
985,724	-0,01
986,145	-0
986,565	0,01
986,986	0,02
987,407	0,02
987,827	0,04
988,248	0,05
988,668	0,05
989,088	0,06
989,509	0,07
989,929	0,08
990,35	0,09
990,77	0,1
991,19	0,1
991,61	0,11
992,031	0,12
992,451	0,13
992,871	0,14
993,291	0,14
993,711	0,15
994,131	0,16
994,551	0,16
994,971	0,17
995,391	0,17
995,811	0,18
996,231	0,18
996,651	0,19
997,071	0,19
997,491	0,2
997,911	0,2
998,331	0,21
998,75	0,21
999,17	0,21
999,59	0,22
1000,009	0,22
1000,429	0,22
1000,849	0,23
1001,268	0,23
1001,688	0,23
1002,107	0,23
1002,527	0,24
1002,946	0,24
1003,366	0,24
1003,785	0,24
1004,205	0,24
1004,624	0,25
1005,044	0,25
1005,463	0,25
1005,882	0,25
1006,301	0,25
1006,721	0,25
1007,14	0,25
1007,559	0,25
1007,978	0,25
1008,397	0,25
1008,816	0,25
1009,235	0,25
1009,655	0,25
1010,074	0,25
1010,492	0,25
1010,911	0,25
1011,33	0,25
1011,749	0,24
1012,168	0,24
1012,587	0,24
1013,006	0,24
1013,425	0,24
1013,843	0,24
1014,262	0,24
1014,681	0,24
1015,099	0,24
1015,518	0,24
1015,937	0,24
1016,355	0,24
1016,774	0,24
1017,192	0,24
1017,611	0,24
1018,029	0,24
1018,448	0,24
1018,866	0,24
1019,285	0,24
1019,703	0,24
1020,121	0,24
1020,54	0,24
1020,958	0,25
1021,376	0,25
1021,794	0,25
1022,213	0,25
1022,631	0,25
1023,049	0,25
1023,467	0,25
1023,885	0,24
1024,303	0,24
1024,721	0,24
1025,139	0,24
1025,557	0,24
1025,975	0,24
1026,393	0,24
1026,811	0,24
1027,229	0,24
1027,647	0,24
1028,065	0,24
1028,482	0,24
1028,9	0,24
1029,318	0,24
1029,735	0,24
1030,153	0,24
1030,571	0,24
1030,988	0,24
1031,406	0,24
1031,823	0,24
1032,241	0,24
1032,659	0,24
1033,076	0,24
1033,493	0,24
1033,911	0,24
1034,328	0,24
1034,746	0,24
1035,163	0,24
1035,58	0,24
1035,997	0,24
1036,415	0,24
1036,832	0,24
1037,249	0,24
1037,666	0,23
1038,083	0,23
1038,501	0,23
1038,918	0,23
1039,335	0,23
1039,752	0,23
1040,169	0,23
1040,586	0,23
1041,003	0,23
1041,419	0,23
1041,836	0,23
1042,253	0,23
1042,67	0,23
1043,087	0,23
1043,504	0,23
1043,92	0,23
1044,337	0,23
1044,754	0,23
1045,17	0,23
1045,587	0,23
1046,004	0,22
1046,42	0,22
1046,837	0,22
1047,253	0,22
1047,67	0,22
1048,086	0,22
1048,503	0,22
1048,919	0,22
1049,335	0,22
1049,752	0,22
1050,168	0,22
1050,584	0,22
1051,001	0,22
1051,417	0,22
1051,833	0,22
1052,249	0,22
1052,665	0,22
1053,081	0,22
1053,497	0,23
1053,914	0,23
1054,33	0,23
1054,746	0,23
1055,162	0,23
1055,578	0,23
1055,993	0,23
1056,409	0,23
1056,825	0,23
1057,241	0,23
1057,657	0,23
1058,073	0,23
1058,488	0,23
1058,904	0,23
1059,32	0,23
1059,736	0,23
1060,151	0,23
1060,567	0,23
1060,982	0,23
1061,398	0,23
1061,813	0,23
1062,229	0,23
1062,644	0,23
1063,06	0,23
1063,475	0,23
1063,891	0,23
1064,306	0,23
1064,721	0,23
1065,137	0,23
1065,552	0,23
1065,967	0,23
1066,382	0,23
1066,798	0,23
1067,213	0,23
1067,628	0,23
1068,043	0,23
1068,458	0,23
1068,873	0,23
1069,288	0,23
1069,703	0,23
1070,118	0,23
1070,533	0,23
1070,948	0,23
1071,363	0,23
1071,778	0,23
1072,193	0,23
1072,607	0,23
1073,022	0,23
1073,437	0,24
1073,852	0,24
1074,266	0,24
1074,681	0,24
1075,096	0,24
1075,51	0,24
1075,925	0,24
1076,339	0,24
1076,754	0,24
1077,168	0,24
1077,583	0,23
1077,997	0,23
1078,412	0,23
1078,826	0,23
1079,24	0,23
1079,655	0,23
1080,069	0,23
1080,483	0,23
1080,897	0,23
1081,312	0,23
1081,726	0,23
1082,14	0,22
1082,554	0,22
1082,968	0,22
1083,382	0,22
1083,796	0,22
1084,21	0,22
1084,624	0,22
1085,038	0,22
1085,452	0,22
1085,866	0,22
1086,28	0,22
1086,694	0,22
1087,108	0,22
1087,521	0,21
1087,935	0,21
1088,349	0,21
1088,763	0,21
1089,176	0,21
1089,59	0,21
1090,004	0,21
1090,417	0,2
1090,831	0,2
1091,244	0,2
1091,658	0,2
1092,071	0,2
1092,485	0,2
1092,898	0,2
1093,312	0,19
1093,725	0,19
1094,138	0,19
1094,552	0,19
1094,965	0,19
1095,378	0,19
1095,791	0,19
1096,205	0,19
1096,618	0,19
1097,031	0,19
1097,444	0,19
1097,857	0,18
1098,27	0,18
1098,683	0,18
1099,096	0,18
1099,509	0,18
1099,922	0,17
1100,335	0,17
1100,748	0,16
1101,161	0,16
1101,574	0,16
1101,986	0,15
1102,399	0,15
1102,812	0,15
1103,225	0,15
1103,637	0,14
1104,05	0,14
1104,463	0,14
1104,875	0,13
1105,288	0,14
1105,7	0,13
1106,113	0,13
1106,525	0,13
1106,938	0,13
1107,35	0,12
1107,763	0,12
1108,175	0,11
1108,588	0,11
1109	0,11
1109,412	0,11
1109,824	0,1
1110,237	0,11
1110,649	0,1
1111,061	0,08
