Data from 18C-808nm-8A_Absorbance__807__00807.txt Node

Date: Mon Jul 17 16:50:01 CEST 2023
User: Laser008
Spectrometer: MAYP115816
Trigger mode: 0
Integration Time (sec): 2,500000E-1
Scans to average: 10
Electric dark correction enabled: true
Nonlinearity correction enabled: true
Boxcar width: 5
XAxis mode: Wavelengths
Number of Pixels in Spectrum: 2068
>>>>>Begin Spectral Data<<<<<
198,914	-0,73
199,384	-0,51
199,855	-0,38
200,325	-0,3
200,796	-0,27
201,266	-0,23
201,737	-0,21
202,207	-0,2
202,677	-0,19
203,147	-0,18
203,618	-0,15
204,088	-0,14
204,558	-0,12
205,028	-0,12
205,498	-0,13
205,968	-0,13
206,439	-0,14
206,909	-0,13
207,379	-0,14
207,849	-0,14
208,319	-0,15
208,789	-0,15
209,258	-0,14
209,728	-0,16
210,198	-0,15
210,668	-0,15
211,138	-0,14
211,608	-0,14
212,077	-0,15
212,547	-0,15
213,017	-0,16
213,486	-0,15
213,956	-0,16
214,426	-0,18
214,895	-0,18
215,365	-0,18
215,834	-0,18
216,304	-0,19
216,773	-0,19
217,243	-0,19
217,712	-0,2
218,181	-0,2
218,651	-0,19
219,12	-0,19
219,589	-0,19
220,058	-0,18
220,528	-0,19
220,997	-0,2
221,466	-0,2
221,935	-0,21
222,404	-0,2
222,873	-0,2
223,342	-0,19
223,812	-0,19
224,281	-0,19
224,749	-0,19
225,218	-0,21
225,687	-0,2
226,156	-0,19
226,625	-0,18
227,094	-0,18
227,563	-0,18
228,031	-0,2
228,5	-0,2
228,969	-0,2
229,438	-0,2
229,906	-0,19
230,375	-0,19
230,844	-0,19
231,312	-0,19
231,781	-0,2
232,249	-0,2
232,718	-0,2
233,186	-0,18
233,655	-0,19
234,123	-0,18
234,591	-0,19
235,06	-0,18
235,528	-0,19
235,996	-0,18
236,465	-0,18
236,933	-0,18
237,401	-0,17
237,869	-0,17
238,337	-0,17
238,805	-0,17
239,274	-0,16
239,742	-0,16
240,21	-0,16
240,678	-0,16
241,146	-0,15
241,614	-0,15
242,081	-0,14
242,549	-0,14
243,017	-0,15
243,485	-0,15
243,953	-0,14
244,421	-0,14
244,888	-0,14
245,356	-0,14
245,824	-0,13
246,291	-0,14
246,759	-0,14
247,227	-0,15
247,694	-0,14
248,162	-0,13
248,629	-0,12
249,097	-0,13
249,564	-0,12
250,032	-0,13
250,499	-0,14
250,967	-0,15
251,434	-0,15
251,901	-0,15
252,369	-0,16
252,836	-0,17
253,303	-0,19
253,77	-0,2
254,237	-0,19
254,705	-0,2
255,172	-0,19
255,639	-0,2
256,106	-0,2
256,573	-0,2
257,04	-0,2
257,507	-0,2
257,974	-0,2
258,441	-0,18
258,908	-0,19
259,375	-0,2
259,841	-0,2
260,308	-0,21
260,775	-0,2
261,242	-0,19
261,709	-0,19
262,175	-0,21
262,642	-0,21
263,109	-0,2
263,575	-0,22
264,042	-0,19
264,508	-0,19
264,975	-0,21
265,441	-0,21
265,908	-0,21
266,374	-0,2
266,841	-0,21
267,307	-0,21
267,773	-0,19
268,24	-0,19
268,706	-0,19
269,172	-0,2
269,639	-0,21
270,105	-0,18
270,571	-0,19
271,037	-0,2
271,503	-0,21
271,969	-0,2
272,435	-0,2
272,902	-0,22
273,368	-0,23
273,834	-0,22
274,3	-0,23
274,765	-0,24
275,231	-0,24
275,697	-0,24
276,163	-0,23
276,629	-0,22
277,095	-0,23
277,56	-0,22
278,026	-0,24
278,492	-0,22
278,958	-0,22
279,423	-0,22
279,889	-0,21
280,354	-0,22
280,82	-0,22
281,286	-0,24
281,751	-0,24
282,217	-0,23
282,682	-0,23
283,147	-0,22
283,613	-0,23
284,078	-0,23
284,544	-0,25
285,009	-0,25
285,474	-0,25
285,939	-0,25
286,405	-0,24
286,87	-0,23
287,335	-0,22
287,8	-0,22
288,265	-0,2
288,73	-0,22
289,195	-0,23
289,66	-0,22
290,125	-0,21
290,59	-0,21
291,055	-0,21
291,52	-0,22
291,985	-0,22
292,45	-0,23
292,915	-0,23
293,38	-0,24
293,844	-0,23
294,309	-0,22
294,774	-0,21
295,239	-0,23
295,703	-0,23
296,168	-0,22
296,632	-0,21
297,097	-0,2
297,562	-0,19
298,026	-0,19
298,491	-0,19
298,955	-0,19
299,419	-0,18
299,884	-0,18
300,348	-0,17
300,813	-0,17
301,277	-0,18
301,741	-0,17
302,205	-0,17
302,67	-0,17
303,134	-0,17
303,598	-0,17
304,062	-0,16
304,526	-0,17
304,99	-0,17
305,454	-0,17
305,919	-0,16
306,383	-0,16
306,847	-0,16
307,31	-0,17
307,774	-0,18
308,238	-0,17
308,702	-0,17
309,166	-0,18
309,63	-0,17
310,094	-0,15
310,557	-0,14
311,021	-0,14
311,485	-0,14
311,948	-0,14
312,412	-0,13
312,876	-0,13
313,339	-0,14
313,803	-0,14
314,266	-0,15
314,73	-0,15
315,193	-0,15
315,657	-0,15
316,12	-0,15
316,584	-0,14
317,047	-0,14
317,51	-0,13
317,973	-0,13
318,437	-0,12
318,9	-0,11
319,363	-0,1
319,826	-0,09
320,29	-0,1
320,753	-0,11
321,216	-0,1
321,679	-0,1
322,142	-0,1
322,605	-0,12
323,068	-0,12
323,531	-0,11
323,994	-0,1
324,457	-0,11
324,92	-0,1
325,382	-0,09
325,845	-0,08
326,308	-0,08
326,771	-0,08
327,233	-0,08
327,696	-0,07
328,159	-0,06
328,622	-0,05
329,084	-0,06
329,547	-0,05
330,009	-0,05
330,472	-0,04
330,934	-0,04
331,397	-0,04
331,859	-0,02
332,322	-0,02
332,784	-0,02
333,246	-0,02
333,709	-0,02
334,171	-0,01
334,633	-0,01
335,096	-0,01
335,558	-0,01
336,02	-0,01
336,482	-0,01
336,944	-0
337,406	0
337,868	0,01
338,331	0,01
338,793	0,01
339,255	0,02
339,717	0,02
340,178	0,02
340,64	0,03
341,102	0,03
341,564	0,04
342,026	0,04
342,488	0,05
342,949	0,05
343,411	0,07
343,873	0,09
344,335	0,11
344,796	0,13
345,258	0,16
345,719	0,18
346,181	0,2
346,643	0,22
347,104	0,23
347,566	0,25
348,027	0,26
348,488	0,27
348,95	0,28
349,411	0,29
349,873	0,3
350,334	0,3
350,795	0,31
351,256	0,32
351,718	0,32
352,179	0,32
352,64	0,32
353,101	0,33
353,562	0,33
354,023	0,33
354,484	0,33
354,945	0,33
355,406	0,33
355,867	0,33
356,328	0,33
356,789	0,33
357,25	0,33
357,711	0,33
358,172	0,33
358,633	0,33
359,093	0,33
359,554	0,34
360,015	0,34
360,476	0,34
360,936	0,34
361,397	0,34
361,858	0,34
362,318	0,34
362,779	0,34
363,239	0,34
363,7	0,34
364,16	0,34
364,621	0,34
365,081	0,34
365,541	0,34
366,002	0,34
366,462	0,34
366,922	0,34
367,383	0,34
367,843	0,34
368,303	0,34
368,763	0,34
369,223	0,34
369,684	0,34
370,144	0,34
370,604	0,34
371,064	0,34
371,524	0,34
371,984	0,34
372,444	0,34
372,904	0,34
373,363	0,34
373,823	0,34
374,283	0,33
374,743	0,33
375,203	0,33
375,663	0,33
376,122	0,33
376,582	0,33
377,042	0,33
377,501	0,33
377,961	0,33
378,42	0,33
378,88	0,33
379,34	0,33
379,799	0,33
380,259	0,33
380,718	0,33
381,177	0,33
381,637	0,33
382,096	0,33
382,555	0,33
383,015	0,33
383,474	0,33
383,933	0,33
384,393	0,33
384,852	0,33
385,311	0,33
385,77	0,33
386,229	0,33
386,688	0,33
387,147	0,33
387,606	0,33
388,065	0,33
388,524	0,33
388,983	0,33
389,442	0,33
389,901	0,33
390,36	0,33
390,819	0,33
391,277	0,33
391,736	0,33
392,195	0,33
392,654	0,33
393,112	0,33
393,571	0,33
394,03	0,33
394,488	0,33
394,947	0,33
395,405	0,33
395,864	0,33
396,322	0,33
396,781	0,33
397,239	0,33
397,698	0,33
398,156	0,32
398,614	0,32
399,073	0,32
399,531	0,32
399,989	0,32
400,447	0,32
400,905	0,32
401,364	0,32
401,822	0,32
402,28	0,32
402,738	0,32
403,196	0,32
403,654	0,32
404,112	0,32
404,57	0,32
405,028	0,32
405,486	0,32
405,944	0,32
406,402	0,32
406,859	0,32
407,317	0,32
407,775	0,32
408,233	0,32
408,691	0,32
409,148	0,32
409,606	0,32
410,064	0,32
410,521	0,32
410,979	0,32
411,436	0,32
411,894	0,32
412,351	0,32
412,809	0,32
413,266	0,32
413,724	0,32
414,181	0,32
414,638	0,32
415,096	0,32
415,553	0,32
416,01	0,32
416,467	0,32
416,925	0,32
417,382	0,32
417,839	0,32
418,296	0,32
418,753	0,32
419,21	0,31
419,667	0,31
420,124	0,31
420,581	0,31
421,038	0,31
421,495	0,31
421,952	0,31
422,409	0,31
422,866	0,31
423,322	0,31
423,779	0,31
424,236	0,31
424,693	0,32
425,149	0,31
425,606	0,31
426,063	0,32
426,519	0,31
426,976	0,31
427,433	0,31
427,889	0,31
428,346	0,31
428,802	0,31
429,258	0,31
429,715	0,31
430,171	0,31
430,628	0,31
431,084	0,31
431,54	0,31
431,997	0,31
432,453	0,31
432,909	0,31
433,365	0,31
433,821	0,31
434,277	0,31
434,734	0,31
435,19	0,31
435,646	0,31
436,102	0,31
436,558	0,31
437,014	0,31
437,47	0,31
437,925	0,31
438,381	0,31
438,837	0,31
439,293	0,31
439,749	0,31
440,205	0,31
440,66	0,31
441,116	0,31
441,572	0,31
442,027	0,31
442,483	0,31
442,939	0,31
443,394	0,31
443,85	0,31
444,305	0,31
444,761	0,31
445,216	0,31
445,672	0,31
446,127	0,31
446,582	0,31
447,038	0,31
447,493	0,31
447,948	0,31
448,403	0,31
448,859	0,31
449,314	0,31
449,769	0,31
450,224	0,31
450,679	0,31
451,134	0,31
451,589	0,31
452,044	0,31
452,499	0,31
452,954	0,31
453,409	0,31
453,864	0,31
454,319	0,31
454,774	0,31
455,229	0,31
455,684	0,31
456,138	0,31
456,593	0,31
457,048	0,31
457,503	0,31
457,957	0,31
458,412	0,31
458,866	0,31
459,321	0,31
459,776	0,31
460,23	0,31
460,685	0,31
461,139	0,31
461,593	0,31
462,048	0,31
462,502	0,31
462,957	0,31
463,411	0,31
463,865	0,31
464,319	0,31
464,774	0,31
465,228	0,31
465,682	0,31
466,136	0,31
466,59	0,32
467,044	0,32
467,499	0,32
467,953	0,32
468,407	0,32
468,861	0,32
469,315	0,32
469,768	0,32
470,222	0,32
470,676	0,32
471,13	0,32
471,584	0,32
472,038	0,32
472,491	0,32
472,945	0,32
473,399	0,32
473,852	0,32
474,306	0,32
474,76	0,32
475,213	0,32
475,667	0,32
476,12	0,32
476,574	0,32
477,027	0,32
477,481	0,32
477,934	0,32
478,388	0,32
478,841	0,32
479,294	0,32
479,748	0,32
480,201	0,33
480,654	0,33
481,107	0,33
481,561	0,33
482,014	0,33
482,467	0,33
482,92	0,33
483,373	0,33
483,826	0,33
484,279	0,33
484,732	0,33
485,185	0,33
485,638	0,33
486,091	0,33
486,544	0,33
486,997	0,34
487,449	0,34
487,902	0,34
488,355	0,34
488,808	0,34
489,26	0,34
489,713	0,34
490,166	0,34
490,618	0,35
491,071	0,35
491,523	0,35
491,976	0,35
492,429	0,35
492,881	0,35
493,333	0,35
493,786	0,35
494,238	0,36
494,691	0,36
495,143	0,36
495,595	0,36
496,048	0,36
496,5	0,36
496,952	0,36
497,404	0,37
497,856	0,37
498,309	0,37
498,761	0,37
499,213	0,37
499,665	0,37
500,117	0,38
500,569	0,38
501,021	0,38
501,473	0,38
501,925	0,38
502,377	0,39
502,828	0,39
503,28	0,39
503,732	0,39
504,184	0,39
504,636	0,4
505,087	0,4
505,539	0,4
505,991	0,4
506,442	0,4
506,894	0,4
507,345	0,41
507,797	0,41
508,249	0,41
508,7	0,41
509,151	0,41
509,603	0,42
510,054	0,42
510,506	0,42
510,957	0,42
511,408	0,42
511,86	0,42
512,311	0,43
512,762	0,43
513,213	0,43
513,665	0,43
514,116	0,43
514,567	0,43
515,018	0,43
515,469	0,44
515,92	0,44
516,371	0,44
516,822	0,44
517,273	0,44
517,724	0,44
518,175	0,45
518,626	0,45
519,076	0,45
519,527	0,45
519,978	0,45
520,429	0,45
520,88	0,45
521,33	0,45
521,781	0,46
522,232	0,46
522,682	0,46
523,133	0,46
523,583	0,46
524,034	0,46
524,484	0,46
524,935	0,46
525,385	0,46
525,836	0,46
526,286	0,46
526,736	0,46
527,187	0,46
527,637	0,46
528,087	0,46
528,538	0,46
528,988	0,46
529,438	0,46
529,888	0,46
530,338	0,46
530,788	0,46
531,238	0,46
531,688	0,46
532,139	0,46
532,589	0,46
533,038	0,46
533,488	0,46
533,938	0,46
534,388	0,46
534,838	0,46
535,288	0,46
535,738	0,46
536,187	0,46
536,637	0,46
537,087	0,46
537,537	0,45
537,986	0,45
538,436	0,45
538,885	0,45
539,335	0,45
539,785	0,45
540,234	0,44
540,684	0,44
541,133	0,44
541,582	0,44
542,032	0,44
542,481	0,44
542,931	0,43
543,38	0,43
543,829	0,43
544,278	0,43
544,728	0,43
545,177	0,42
545,626	0,42
546,075	0,42
546,524	0,42
546,973	0,42
547,422	0,42
547,871	0,42
548,32	0,42
548,769	0,42
549,218	0,42
549,667	0,42
550,116	0,42
550,565	0,41
551,014	0,41
551,463	0,41
551,911	0,41
552,36	0,41
552,809	0,41
553,258	0,41
553,706	0,41
554,155	0,4
554,603	0,4
555,052	0,4
555,501	0,4
555,949	0,4
556,398	0,4
556,846	0,4
557,294	0,4
557,743	0,39
558,191	0,39
558,64	0,39
559,088	0,39
559,536	0,39
559,985	0,39
560,433	0,38
560,881	0,38
561,329	0,38
561,777	0,38
562,225	0,38
562,674	0,38
563,122	0,38
563,57	0,38
564,018	0,37
564,466	0,37
564,914	0,37
565,362	0,37
565,809	0,37
566,257	0,37
566,705	0,36
567,153	0,36
567,601	0,36
568,048	0,36
568,496	0,36
568,944	0,36
569,392	0,36
569,839	0,36
570,287	0,35
570,734	0,35
571,182	0,35
571,63	0,35
572,077	0,35
572,525	0,35
572,972	0,35
573,419	0,35
573,867	0,34
574,314	0,34
574,761	0,34
575,209	0,34
575,656	0,34
576,103	0,34
576,551	0,34
576,998	0,34
577,445	0,34
577,892	0,34
578,339	0,34
578,786	0,34
579,233	0,33
579,68	0,33
580,127	0,33
580,574	0,33
581,021	0,33
581,468	0,33
581,915	0,33
582,362	0,33
582,809	0,33
583,255	0,33
583,702	0,32
584,149	0,32
584,596	0,32
585,042	0,32
585,489	0,32
585,936	0,32
586,382	0,32
586,829	0,32
587,275	0,32
587,722	0,32
588,168	0,32
588,615	0,32
589,061	0,32
589,508	0,32
589,954	0,31
590,4	0,31
590,847	0,31
591,293	0,31
591,739	0,31
592,185	0,31
592,632	0,31
593,078	0,31
593,524	0,31
593,97	0,31
594,416	0,31
594,862	0,31
595,308	0,31
595,754	0,31
596,2	0,31
596,646	0,31
597,092	0,31
597,538	0,31
597,984	0,31
598,43	0,31
598,876	0,31
599,321	0,3
599,767	0,3
600,213	0,3
600,659	0,3
601,104	0,3
601,55	0,3
601,995	0,3
602,441	0,3
602,887	0,3
603,332	0,3
603,778	0,3
604,223	0,3
604,668	0,3
605,114	0,3
605,559	0,3
606,005	0,3
606,45	0,3
606,895	0,3
607,341	0,3
607,786	0,3
608,231	0,3
608,676	0,29
609,121	0,29
609,566	0,29
610,012	0,29
610,457	0,28
610,902	0,28
611,347	0,28
611,792	0,28
612,237	0,28
612,682	0,28
613,127	0,28
613,571	0,28
614,016	0,28
614,461	0,28
614,906	0,28
615,351	0,28
615,795	0,28
616,24	0,28
616,685	0,28
617,129	0,29
617,574	0,29
618,019	0,29
618,463	0,29
618,908	0,29
619,352	0,29
619,797	0,29
620,241	0,29
620,686	0,29
621,13	0,29
621,574	0,29
622,019	0,28
622,463	0,28
622,907	0,28
623,352	0,28
623,796	0,28
624,24	0,28
624,684	0,28
625,128	0,28
625,572	0,28
626,016	0,28
626,461	0,28
626,905	0,28
627,349	0,28
627,793	0,28
628,236	0,28
628,68	0,28
629,124	0,28
629,568	0,28
630,012	0,28
630,456	0,28
630,9	0,28
631,343	0,28
631,787	0,28
632,231	0,28
632,674	0,28
633,118	0,28
633,562	0,28
634,005	0,28
634,449	0,28
634,892	0,28
635,336	0,28
635,779	0,28
636,223	0,28
636,666	0,28
637,109	0,28
637,553	0,28
637,996	0,28
638,439	0,28
638,883	0,28
639,326	0,28
639,769	0,28
640,212	0,28
640,655	0,28
641,099	0,28
641,542	0,28
641,985	0,28
642,428	0,28
642,871	0,28
643,314	0,28
643,757	0,28
644,2	0,28
644,643	0,28
645,085	0,28
645,528	0,28
645,971	0,27
646,414	0,27
646,857	0,27
647,299	0,27
647,742	0,27
648,185	0,27
648,627	0,27
649,07	0,27
649,513	0,27
649,955	0,27
650,398	0,27
650,84	0,27
651,283	0,27
651,725	0,27
652,168	0,27
652,61	0,27
653,052	0,27
653,495	0,27
653,937	0,21
654,379	0,17
654,821	0,18
655,264	0,18
655,706	0,18
656,148	0,18
656,59	0,18
657,032	0,18
657,474	0,18
657,916	0,18
658,358	0,17
658,8	0,21
659,242	0,27
659,684	0,27
660,126	0,27
660,568	0,27
661,01	0,27
661,452	0,27
661,894	0,27
662,335	0,27
662,777	0,27
663,219	0,27
663,661	0,27
664,102	0,27
664,544	0,27
664,985	0,27
665,427	0,27
665,869	0,27
666,31	0,27
666,752	0,27
667,193	0,27
667,634	0,27
668,076	0,27
668,517	0,27
668,959	0,27
669,4	0,27
669,841	0,27
670,282	0,27
670,724	0,27
671,165	0,27
671,606	0,27
672,047	0,27
672,488	0,27
672,929	0,27
673,37	0,27
673,811	0,27
674,252	0,27
674,693	0,27
675,134	0,27
675,575	0,27
676,016	0,27
676,457	0,27
676,898	0,27
677,339	0,27
677,78	0,27
678,22	0,27
678,661	0,27
679,102	0,27
679,542	0,27
679,983	0,27
680,424	0,27
680,864	0,27
681,305	0,27
681,745	0,27
682,186	0,27
682,626	0,27
683,067	0,27
683,507	0,27
683,948	0,27
684,388	0,27
684,828	0,27
685,269	0,26
685,709	0,26
686,149	0,26
686,589	0,26
687,029	0,26
687,47	0,26
687,91	0,26
688,35	0,26
688,79	0,26
689,23	0,26
689,67	0,26
690,11	0,26
690,55	0,26
690,99	0,26
691,43	0,25
691,87	0,25
692,31	0,25
692,749	0,25
693,189	0,25
693,629	0,25
694,069	0,25
694,508	0,25
694,948	0,25
695,388	0,25
695,827	0,25
696,267	0,25
696,706	0,25
697,146	0,26
697,586	0,26
698,025	0,26
698,464	0,26
698,904	0,26
699,343	0,26
699,783	0,26
700,222	0,26
700,661	0,26
701,101	0,26
701,54	0,26
701,979	0,26
702,418	0,26
702,857	0,26
703,297	0,26
703,736	0,26
704,175	0,26
704,614	0,26
705,053	0,26
705,492	0,25
705,931	0,25
706,37	0,25
706,809	0,25
707,248	0,25
707,687	0,25
708,125	0,25
708,564	0,25
709,003	0,25
709,442	0,25
709,88	0,25
710,319	0,25
710,758	0,25
711,196	0,25
711,635	0,25
712,074	0,25
712,512	0,25
712,951	0,25
713,389	0,25
713,828	0,25
714,266	0,25
714,705	0,25
715,143	0,24
715,581	0,24
716,02	0,24
716,458	0,24
716,896	0,24
717,334	0,24
717,773	0,24
718,211	0,24
718,649	0,24
719,087	0,24
719,525	0,24
719,963	0,24
720,401	0,24
720,839	0,24
721,277	0,24
721,715	0,24
722,153	0,24
722,591	0,24
723,029	0,24
723,467	0,24
723,905	0,24
724,342	0,24
724,78	0,24
725,218	0,24
725,656	0,24
726,093	0,24
726,531	0,24
726,969	0,24
727,406	0,24
727,844	0,24
728,281	0,24
728,719	0,24
729,156	0,24
729,594	0,24
730,031	0,24
730,469	0,24
730,906	0,24
731,343	0,24
731,781	0,24
732,218	0,24
732,655	0,24
733,092	0,24
733,53	0,24
733,967	0,24
734,404	0,24
734,841	0,24
735,278	0,24
735,715	0,24
736,152	0,23
736,589	0,23
737,026	0,23
737,463	0,23
737,9	0,23
738,337	0,23
738,774	0,23
739,211	0,23
739,647	0,23
740,084	0,23
740,521	0,23
740,958	0,23
741,394	0,23
741,831	0,23
742,268	0,23
742,704	0,23
743,141	0,23
743,577	0,22
744,014	0,22
744,45	0,22
744,887	0,22
745,323	0,22
745,76	0,22
746,196	0,22
746,632	0,22
747,069	0,22
747,505	0,22
747,941	0,22
748,378	0,22
748,814	0,22
749,25	0,22
749,686	0,22
750,122	0,22
750,558	0,22
750,994	0,23
751,43	0,23
751,866	0,23
752,302	0,23
752,738	0,23
753,174	0,23
753,61	0,23
754,046	0,23
754,482	0,23
754,918	0,23
755,354	0,23
755,789	0,23
756,225	0,23
756,661	0,23
757,096	0,23
757,532	0,23
757,968	0,23
758,403	0,23
758,839	0,22
759,274	0,22
759,71	0,22
760,145	0,22
760,581	0,21
761,016	0,21
761,452	0,21
761,887	0,21
762,322	0,2
762,758	0,2
763,193	0,2
763,628	0,19
764,063	0,19
764,499	0,18
764,934	0,18
765,369	0,18
765,804	0,17
766,239	0,17
766,674	0,16
767,109	0,16
767,544	0,15
767,979	0,14
768,414	0,13
768,849	0,13
769,284	0,12
769,719	0,12
770,154	0,11
770,588	0,11
771,023	0,1
771,458	0,09
771,893	0,08
772,327	0,07
772,762	0,07
773,197	0,06
773,631	0,06
774,066	0,05
774,5	0,04
774,935	0,04
775,369	0,03
775,804	0,02
776,238	0,02
776,673	0,01
777,107	0
777,541	-0
777,976	-0,01
778,41	-0,01
778,844	-0,03
779,279	-0,03
779,713	-0,04
780,147	-0,05
780,581	-0,05
781,015	-0,06
781,449	-0,07
781,883	-0,08
782,317	-0,09
782,751	-0,09
783,185	-0,11
783,619	-0,11
784,053	-0,12
784,487	-0,13
784,921	-0,13
785,355	-0,14
785,789	-0,14
786,223	-0,15
786,656	-0,16
787,09	-0,18
787,524	-0,19
787,957	-0,2
788,391	-0,22
788,825	-0,23
789,258	-0,24
789,692	-0,26
790,125	-0,28
790,559	-0,29
790,992	-0,31
791,426	-0,33
791,859	-0,35
792,293	-0,38
792,726	-0,39
793,159	-0,41
793,593	-0,43
794,026	-0,45
794,459	-0,48
794,892	-0,51
795,326	-0,54
795,759	-0,58
796,192	-0,62
796,625	-0,67
797,058	-0,69
797,491	-0,74
797,924	-0,78
798,357	-0,83
798,79	-0,87
799,223	-0,92
799,656	-0,98
800,089	-1,03
800,522	-1,07
800,955	-1,11
801,387	-1,17
801,82	-1,22
802,253	-1,29
802,686	-1,37
803,118	-1,43
803,551	-1,48
803,984	-1,53
804,416	-1,57
804,849	-1,63
805,281	-1,82
805,714	-2,23
806,146	-2,57
806,579	-2,79
807,011	-2,93
807,444	-3,01
807,876	-3,07
808,308	-3,1
808,741	-3,13
809,173	-3,18
809,605	-3,2
810,037	-3,27
810,47	-3,16
810,902	-2,95
811,334	-2,79
811,766	-2,62
812,198	-2,32
812,63	-1,96
813,062	-1,8
813,494	-1,72
813,926	-1,63
814,358	-1,58
814,79	-1,5
815,222	-1,44
815,654	-1,39
816,086	-1,33
816,518	-1,27
816,949	-1,22
817,381	-1,17
817,813	-1,15
818,245	-1,11
818,676	-1,07
819,108	-1,04
819,54	-1,02
819,971	-1
820,403	-0,94
820,834	-0,93
821,266	-0,89
821,697	-0,86
822,129	-0,85
822,56	-0,82
822,991	-0,8
823,423	-0,77
823,854	-0,77
824,286	-0,74
824,717	-0,73
825,148	-0,71
825,579	-0,69
826,01	-0,68
826,442	-0,67
826,873	-0,65
827,304	-0,62
827,735	-0,61
828,166	-0,61
828,597	-0,61
829,028	-0,6
829,459	-0,61
829,89	-0,6
830,321	-0,57
830,752	-0,57
831,183	-0,56
831,613	-0,55
832,044	-0,56
832,475	-0,55
832,906	-0,56
833,336	-0,57
833,767	-0,57
834,198	-0,56
834,628	-0,54
835,059	-0,56
835,49	-0,56
835,92	-0,54
836,351	-0,54
836,781	-0,54
837,212	-0,55
837,642	-0,54
838,072	-0,52
838,503	-0,53
838,933	-0,51
839,364	-0,52
839,794	-0,5
840,224	-0,49
840,654	-0,53
841,085	-0,53
841,515	-0,51
841,945	-0,51
842,375	-0,46
842,805	-0,46
843,235	-0,45
843,665	-0,46
844,095	-0,45
844,525	-0,47
844,955	-0,47
845,385	-0,45
845,815	-0,43
846,245	-0,46
846,675	-0,47
847,105	-0,49
847,534	-0,49
847,964	-0,48
848,394	-0,47
848,824	-0,5
849,253	-0,48
849,683	-0,49
850,112	-0,5
850,542	-0,52
850,972	-0,52
851,401	-0,5
851,831	-0,48
852,26	-0,49
852,69	-0,52
853,119	-0,51
853,548	-0,51
853,978	-0,51
854,407	-0,5
854,836	-0,49
855,266	-0,49
855,695	-0,51
856,124	-0,52
856,553	-0,53
856,983	-0,54
857,412	-0,53
857,841	-0,54
858,27	-0,54
858,699	-0,55
859,128	-0,58
859,557	-0,59
859,986	-0,6
860,415	-0,58
860,844	-0,55
861,273	-0,56
861,702	-0,57
862,13	-0,56
862,559	-0,58
862,988	-0,55
863,417	-0,54
863,845	-0,53
864,274	-0,53
864,703	-0,53
865,131	-0,53
865,56	-0,54
865,989	-0,56
866,417	-0,53
866,846	-0,53
867,274	-0,52
867,703	-0,55
868,131	-0,56
868,559	-0,56
868,988	-0,58
869,416	-0,58
869,844	-0,59
870,273	-0,62
870,701	-0,59
871,129	-0,63
871,557	-0,65
871,986	-0,65
872,414	-0,66
872,842	-0,63
873,27	-0,61
873,698	-0,57
874,126	-0,61
874,554	-0,59
874,982	-0,58
875,41	-0,62
875,838	-0,57
876,266	-0,55
876,694	-0,55
877,122	-0,54
877,549	-0,59
877,977	-0,56
878,405	-0,6
878,833	-0,56
879,26	-0,55
879,688	-0,56
880,116	-0,53
880,543	-0,51
880,971	-0,5
881,399	-0,53
881,826	-0,54
882,254	-0,52
882,681	-0,56
883,109	-0,53
883,536	-0,54
883,963	-0,56
884,391	-0,54
884,818	-0,53
885,245	-0,57
885,673	-0,59
886,1	-0,56
886,527	-0,55
886,954	-0,51
887,381	-0,53
887,809	-0,54
888,236	-0,55
888,663	-0,55
889,09	-0,59
889,517	-0,61
889,944	-0,61
890,371	-0,59
890,798	-0,59
891,225	-0,59
891,652	-0,61
892,078	-0,59
892,505	-0,62
892,932	-0,57
893,359	-0,58
893,786	-0,58
894,212	-0,55
894,639	-0,57
895,066	-0,58
895,492	-0,53
895,919	-0,53
896,346	-0,53
896,772	-0,52
897,199	-0,5
897,625	-0,53
898,052	-0,5
898,478	-0,49
898,904	-0,5
899,331	-0,5
899,757	-0,52
900,183	-0,55
900,61	-0,53
901,036	-0,54
901,462	-0,55
901,888	-0,53
902,315	-0,51
902,741	-0,57
903,167	-0,55
903,593	-0,58
904,019	-0,56
904,445	-0,52
904,871	-0,56
905,297	-0,57
905,723	-0,57
906,149	-0,56
906,575	-0,57
907,001	-0,57
907,427	-0,54
907,852	-0,53
908,278	-0,53
908,704	-0,51
909,13	-0,51
909,555	-0,5
909,981	-0,5
910,407	-0,5
910,832	-0,5
911,258	-0,49
911,684	-0,49
912,109	-0,5
912,535	-0,52
912,96	-0,48
913,386	-0,5
913,811	-0,49
914,236	-0,51
914,662	-0,49
915,087	-0,52
915,512	-0,53
915,938	-0,55
916,363	-0,54
916,788	-0,56
917,213	-0,54
917,639	-0,6
918,064	-0,57
918,489	-0,58
918,914	-0,59
919,339	-0,59
919,764	-0,57
920,189	-0,58
920,614	-0,59
921,039	-0,6
921,464	-0,56
921,889	-0,59
922,314	-0,6
922,738	-0,63
923,163	-0,64
923,588	-0,63
924,013	-0,63
924,437	-0,63
924,862	-0,63
925,287	-0,59
925,711	-0,59
926,136	-0,61
926,561	-0,58
926,985	-0,57
927,41	-0,55
927,834	-0,53
928,259	-0,51
928,683	-0,49
929,108	-0,46
929,532	-0,47
929,956	-0,46
930,381	-0,45
930,805	-0,46
931,229	-0,45
931,653	-0,44
932,078	-0,43
932,502	-0,44
932,926	-0,46
933,35	-0,46
933,774	-0,45
934,198	-0,44
934,622	-0,44
935,046	-0,44
935,47	-0,44
935,894	-0,43
936,318	-0,43
936,742	-0,42
937,166	-0,43
937,59	-0,42
938,014	-0,43
938,437	-0,44
938,861	-0,46
939,285	-0,47
939,709	-0,46
940,132	-0,47
940,556	-0,47
940,98	-0,47
941,403	-0,46
941,827	-0,46
942,25	-0,47
942,674	-0,47
943,097	-0,46
943,521	-0,45
943,944	-0,47
944,368	-0,47
944,791	-0,45
945,214	-0,48
945,638	-0,48
946,061	-0,51
946,484	-0,51
946,907	-0,5
947,331	-0,5
947,754	-0,55
948,177	-0,52
948,6	-0,52
949,023	-0,51
949,446	-0,52
949,869	-0,49
950,292	-0,49
950,715	-0,47
951,138	-0,45
951,561	-0,43
951,984	-0,43
952,407	-0,41
952,83	-0,39
953,252	-0,35
953,675	-0,35
954,098	-0,35
954,521	-0,34
954,943	-0,33
955,366	-0,34
955,789	-0,32
956,211	-0,34
956,634	-0,34
957,056	-0,33
957,479	-0,35
957,902	-0,37
958,324	-0,38
958,746	-0,36
959,169	-0,37
959,591	-0,38
960,014	-0,38
960,436	-0,38
960,858	-0,38
961,281	-0,38
961,703	-0,38
962,125	-0,37
962,547	-0,36
962,969	-0,36
963,391	-0,37
963,814	-0,38
964,236	-0,37
964,658	-0,34
965,08	-0,36
965,502	-0,35
965,924	-0,33
966,346	-0,33
966,768	-0,33
967,189	-0,35
967,611	-0,34
968,033	-0,34
968,455	-0,32
968,877	-0,34
969,298	-0,35
969,72	-0,36
970,142	-0,35
970,563	-0,35
970,985	-0,34
971,407	-0,33
971,828	-0,32
972,25	-0,31
972,671	-0,29
973,093	-0,29
973,514	-0,27
973,936	-0,25
974,357	-0,24
974,778	-0,24
975,2	-0,24
975,621	-0,23
976,042	-0,22
976,464	-0,21
976,885	-0,2
977,306	-0,2
977,727	-0,19
978,148	-0,19
978,57	-0,18
978,991	-0,16
979,412	-0,14
979,833	-0,14
980,254	-0,13
980,675	-0,14
981,096	-0,13
981,517	-0,12
981,937	-0,11
982,358	-0,1
982,779	-0,08
983,2	-0,08
983,621	-0,08
984,042	-0,07
984,462	-0,06
984,883	-0,05
985,304	-0,04
985,724	-0,04
986,145	-0,03
986,565	-0,02
986,986	-0,02
987,407	-0,01
987,827	-0
988,248	0,01
988,668	0,01
989,088	0,02
989,509	0,03
989,929	0,04
990,35	0,05
990,77	0,06
991,19	0,06
991,61	0,07
992,031	0,07
992,451	0,08
992,871	0,08
993,291	0,09
993,711	0,1
994,131	0,1
994,551	0,11
994,971	0,11
995,391	0,11
995,811	0,11
996,231	0,12
996,651	0,12
997,071	0,13
997,491	0,13
997,911	0,13
998,331	0,13
998,75	0,14
999,17	0,14
999,59	0,15
1000,009	0,15
1000,429	0,15
1000,849	0,15
1001,268	0,16
1001,688	0,16
1002,107	0,16
1002,527	0,16
1002,946	0,16
1003,366	0,17
1003,785	0,17
1004,205	0,17
1004,624	0,17
1005,044	0,17
1005,463	0,17
1005,882	0,17
1006,301	0,17
1006,721	0,17
1007,14	0,17
1007,559	0,17
1007,978	0,17
1008,397	0,17
1008,816	0,17
1009,235	0,17
1009,655	0,17
1010,074	0,17
1010,492	0,17
1010,911	0,17
1011,33	0,17
1011,749	0,17
1012,168	0,17
1012,587	0,16
1013,006	0,16
1013,425	0,16
1013,843	0,16
1014,262	0,16
1014,681	0,16
1015,099	0,16
1015,518	0,16
1015,937	0,16
1016,355	0,16
1016,774	0,16
1017,192	0,16
1017,611	0,16
1018,029	0,16
1018,448	0,17
1018,866	0,17
1019,285	0,17
1019,703	0,17
1020,121	0,17
1020,54	0,17
1020,958	0,17
1021,376	0,17
1021,794	0,17
1022,213	0,17
1022,631	0,17
1023,049	0,17
1023,467	0,17
1023,885	0,17
1024,303	0,16
1024,721	0,16
1025,139	0,16
1025,557	0,16
1025,975	0,16
1026,393	0,16
1026,811	0,16
1027,229	0,16
1027,647	0,16
1028,065	0,16
1028,482	0,16
1028,9	0,16
1029,318	0,16
1029,735	0,16
1030,153	0,16
1030,571	0,16
1030,988	0,16
1031,406	0,16
1031,823	0,16
1032,241	0,16
1032,659	0,16
1033,076	0,16
1033,493	0,16
1033,911	0,16
1034,328	0,16
1034,746	0,16
1035,163	0,16
1035,58	0,16
1035,997	0,16
1036,415	0,16
1036,832	0,16
1037,249	0,16
1037,666	0,16
1038,083	0,16
1038,501	0,16
1038,918	0,15
1039,335	0,15
1039,752	0,15
1040,169	0,15
1040,586	0,15
1041,003	0,15
1041,419	0,15
1041,836	0,15
1042,253	0,15
1042,67	0,15
1043,087	0,15
1043,504	0,15
1043,92	0,15
1044,337	0,15
1044,754	0,15
1045,17	0,15
1045,587	0,15
1046,004	0,15
1046,42	0,15
1046,837	0,15
1047,253	0,15
1047,67	0,14
1048,086	0,14
1048,503	0,14
1048,919	0,14
1049,335	0,14
1049,752	0,14
1050,168	0,14
1050,584	0,14
1051,001	0,14
1051,417	0,14
1051,833	0,14
1052,249	0,14
1052,665	0,15
1053,081	0,15
1053,497	0,15
1053,914	0,15
1054,33	0,15
1054,746	0,15
1055,162	0,15
1055,578	0,15
1055,993	0,15
1056,409	0,15
1056,825	0,15
1057,241	0,15
1057,657	0,15
1058,073	0,15
1058,488	0,15
1058,904	0,15
1059,32	0,15
1059,736	0,15
1060,151	0,15
1060,567	0,15
1060,982	0,15
1061,398	0,15
1061,813	0,15
1062,229	0,15
1062,644	0,15
1063,06	0,15
1063,475	0,15
1063,891	0,15
1064,306	0,15
1064,721	0,15
1065,137	0,15
1065,552	0,15
1065,967	0,15
1066,382	0,15
1066,798	0,15
1067,213	0,15
1067,628	0,15
1068,043	0,15
1068,458	0,15
1068,873	0,15
1069,288	0,15
1069,703	0,15
1070,118	0,15
1070,533	0,15
1070,948	0,15
1071,363	0,15
1071,778	0,15
1072,193	0,15
1072,607	0,15
1073,022	0,16
1073,437	0,16
1073,852	0,16
1074,266	0,16
1074,681	0,16
1075,096	0,16
1075,51	0,16
1075,925	0,16
1076,339	0,16
1076,754	0,16
1077,168	0,15
1077,583	0,15
1077,997	0,15
1078,412	0,15
1078,826	0,15
1079,24	0,15
1079,655	0,15
1080,069	0,15
1080,483	0,15
1080,897	0,15
1081,312	0,15
1081,726	0,15
1082,14	0,15
1082,554	0,15
1082,968	0,15
1083,382	0,15
1083,796	0,15
1084,21	0,15
1084,624	0,14
1085,038	0,14
1085,452	0,14
1085,866	0,14
1086,28	0,14
1086,694	0,14
1087,108	0,14
1087,521	0,14
1087,935	0,13
1088,349	0,13
1088,763	0,13
1089,176	0,13
1089,59	0,13
1090,004	0,13
1090,417	0,13
1090,831	0,13
1091,244	0,12
1091,658	0,12
1092,071	0,12
1092,485	0,12
1092,898	0,12
1093,312	0,12
1093,725	0,12
1094,138	0,12
1094,552	0,12
1094,965	0,12
1095,378	0,12
1095,791	0,12
1096,205	0,11
1096,618	0,11
1097,031	0,11
1097,444	0,11
1097,857	0,11
1098,27	0,11
1098,683	0,11
1099,096	0,11
1099,509	0,1
1099,922	0,1
1100,335	0,1
1100,748	0,1
1101,161	0,09
1101,574	0,09
1101,986	0,09
1102,399	0,09
1102,812	0,09
1103,225	0,08
1103,637	0,08
1104,05	0,08
1104,463	0,08
1104,875	0,08
1105,288	0,08
1105,7	0,07
1106,113	0,07
1106,525	0,07
1106,938	0,07
1107,35	0,07
1107,763	0,07
1108,175	0,06
1108,588	0,06
1109	0,06
1109,412	0,05
1109,824	0,05
1110,237	0,06
1110,649	0,05
1111,061	0,04
