Data from 18C-808nm-8A_Absorbance__1288__01288.txt Node

Date: Mon Jul 17 17:10:03 CEST 2023
User: Laser008
Spectrometer: MAYP115816
Trigger mode: 0
Integration Time (sec): 2,500000E-1
Scans to average: 10
Electric dark correction enabled: true
Nonlinearity correction enabled: true
Boxcar width: 5
XAxis mode: Wavelengths
Number of Pixels in Spectrum: 2068
>>>>>Begin Spectral Data<<<<<
198,914	-0,72
199,384	-0,49
199,855	-0,36
200,325	-0,28
200,796	-0,24
201,266	-0,19
201,737	-0,18
202,207	-0,19
202,677	-0,19
203,147	-0,17
203,618	-0,14
204,088	-0,12
204,558	-0,11
205,028	-0,1
205,498	-0,11
205,968	-0,11
206,439	-0,13
206,909	-0,13
207,379	-0,12
207,849	-0,11
208,319	-0,11
208,789	-0,12
209,258	-0,12
209,728	-0,13
210,198	-0,13
210,668	-0,13
211,138	-0,13
211,608	-0,12
212,077	-0,12
212,547	-0,12
213,017	-0,13
213,486	-0,13
213,956	-0,13
214,426	-0,14
214,895	-0,13
215,365	-0,15
215,834	-0,15
216,304	-0,15
216,773	-0,15
217,243	-0,16
217,712	-0,17
218,181	-0,16
218,651	-0,16
219,12	-0,16
219,589	-0,16
220,058	-0,15
220,528	-0,17
220,997	-0,17
221,466	-0,18
221,935	-0,19
222,404	-0,19
222,873	-0,18
223,342	-0,18
223,812	-0,18
224,281	-0,18
224,749	-0,18
225,218	-0,2
225,687	-0,19
226,156	-0,18
226,625	-0,17
227,094	-0,17
227,563	-0,17
228,031	-0,19
228,5	-0,19
228,969	-0,19
229,438	-0,19
229,906	-0,18
230,375	-0,16
230,844	-0,16
231,312	-0,16
231,781	-0,16
232,249	-0,15
232,718	-0,16
233,186	-0,15
233,655	-0,15
234,123	-0,15
234,591	-0,15
235,06	-0,15
235,528	-0,16
235,996	-0,16
236,465	-0,16
236,933	-0,16
237,401	-0,16
237,869	-0,15
238,337	-0,15
238,805	-0,15
239,274	-0,14
239,742	-0,15
240,21	-0,15
240,678	-0,14
241,146	-0,14
241,614	-0,13
242,081	-0,12
242,549	-0,12
243,017	-0,12
243,485	-0,12
243,953	-0,12
244,421	-0,12
244,888	-0,12
245,356	-0,12
245,824	-0,12
246,291	-0,11
246,759	-0,12
247,227	-0,13
247,694	-0,13
248,162	-0,12
248,629	-0,12
249,097	-0,12
249,564	-0,13
250,032	-0,12
250,499	-0,13
250,967	-0,13
251,434	-0,14
251,901	-0,14
252,369	-0,14
252,836	-0,15
253,303	-0,16
253,77	-0,17
254,237	-0,16
254,705	-0,17
255,172	-0,16
255,639	-0,17
256,106	-0,19
256,573	-0,18
257,04	-0,19
257,507	-0,19
257,974	-0,18
258,441	-0,17
258,908	-0,17
259,375	-0,19
259,841	-0,19
260,308	-0,2
260,775	-0,19
261,242	-0,18
261,709	-0,19
262,175	-0,2
262,642	-0,2
263,109	-0,19
263,575	-0,21
264,042	-0,19
264,508	-0,19
264,975	-0,2
265,441	-0,21
265,908	-0,21
266,374	-0,21
266,841	-0,2
267,307	-0,2
267,773	-0,19
268,24	-0,2
268,706	-0,2
269,172	-0,21
269,639	-0,22
270,105	-0,2
270,571	-0,2
271,037	-0,21
271,503	-0,22
271,969	-0,22
272,435	-0,22
272,902	-0,24
273,368	-0,26
273,834	-0,25
274,3	-0,26
274,765	-0,25
275,231	-0,25
275,697	-0,24
276,163	-0,24
276,629	-0,23
277,095	-0,24
277,56	-0,22
278,026	-0,23
278,492	-0,21
278,958	-0,2
279,423	-0,2
279,889	-0,19
280,354	-0,2
280,82	-0,2
281,286	-0,22
281,751	-0,22
282,217	-0,21
282,682	-0,22
283,147	-0,22
283,613	-0,23
284,078	-0,23
284,544	-0,24
285,009	-0,25
285,474	-0,24
285,939	-0,26
286,405	-0,24
286,87	-0,22
287,335	-0,22
287,8	-0,22
288,265	-0,2
288,73	-0,21
289,195	-0,23
289,66	-0,22
290,125	-0,21
290,59	-0,22
291,055	-0,2
291,52	-0,21
291,985	-0,22
292,45	-0,23
292,915	-0,24
293,38	-0,24
293,844	-0,22
294,309	-0,21
294,774	-0,2
295,239	-0,21
295,703	-0,22
296,168	-0,21
296,632	-0,21
297,097	-0,19
297,562	-0,18
298,026	-0,18
298,491	-0,18
298,955	-0,18
299,419	-0,18
299,884	-0,18
300,348	-0,18
300,813	-0,16
301,277	-0,16
301,741	-0,17
302,205	-0,17
302,67	-0,16
303,134	-0,16
303,598	-0,17
304,062	-0,16
304,526	-0,16
304,99	-0,17
305,454	-0,17
305,919	-0,17
306,383	-0,17
306,847	-0,17
307,31	-0,18
307,774	-0,19
308,238	-0,19
308,702	-0,18
309,166	-0,2
309,63	-0,19
310,094	-0,16
310,557	-0,16
311,021	-0,16
311,485	-0,16
311,948	-0,15
312,412	-0,15
312,876	-0,13
313,339	-0,13
313,803	-0,14
314,266	-0,13
314,73	-0,14
315,193	-0,13
315,657	-0,12
316,12	-0,12
316,584	-0,11
317,047	-0,11
317,51	-0,1
317,973	-0,1
318,437	-0,09
318,9	-0,08
319,363	-0,07
319,826	-0,07
320,29	-0,07
320,753	-0,08
321,216	-0,08
321,679	-0,08
322,142	-0,07
322,605	-0,08
323,068	-0,08
323,531	-0,08
323,994	-0,08
324,457	-0,08
324,92	-0,08
325,382	-0,07
325,845	-0,06
326,308	-0,05
326,771	-0,05
327,233	-0,05
327,696	-0,04
328,159	-0,03
328,622	-0,02
329,084	-0,03
329,547	-0,02
330,009	-0,01
330,472	-0,01
330,934	-0,01
331,397	-0
331,859	0,01
332,322	0,01
332,784	0,01
333,246	0,01
333,709	0,01
334,171	0,02
334,633	0,02
335,096	0,02
335,558	0,02
336,02	0,03
336,482	0,03
336,944	0,03
337,406	0,04
337,868	0,04
338,331	0,04
338,793	0,05
339,255	0,05
339,717	0,06
340,178	0,07
340,64	0,08
341,102	0,08
341,564	0,1
342,026	0,1
342,488	0,11
342,949	0,13
343,411	0,15
343,873	0,17
344,335	0,19
344,796	0,22
345,258	0,25
345,719	0,28
346,181	0,31
346,643	0,34
347,104	0,36
347,566	0,38
348,027	0,39
348,488	0,41
348,95	0,42
349,411	0,43
349,873	0,44
350,334	0,45
350,795	0,46
351,256	0,47
351,718	0,48
352,179	0,48
352,64	0,48
353,101	0,48
353,562	0,49
354,023	0,49
354,484	0,49
354,945	0,49
355,406	0,49
355,867	0,49
356,328	0,49
356,789	0,49
357,25	0,5
357,711	0,5
358,172	0,5
358,633	0,5
359,093	0,5
359,554	0,5
360,015	0,5
360,476	0,5
360,936	0,5
361,397	0,5
361,858	0,5
362,318	0,5
362,779	0,5
363,239	0,5
363,7	0,5
364,16	0,5
364,621	0,5
365,081	0,5
365,541	0,5
366,002	0,5
366,462	0,5
366,922	0,5
367,383	0,5
367,843	0,5
368,303	0,5
368,763	0,5
369,223	0,5
369,684	0,5
370,144	0,5
370,604	0,5
371,064	0,5
371,524	0,5
371,984	0,5
372,444	0,5
372,904	0,5
373,363	0,5
373,823	0,5
374,283	0,5
374,743	0,5
375,203	0,5
375,663	0,5
376,122	0,5
376,582	0,5
377,042	0,5
377,501	0,5
377,961	0,5
378,42	0,5
378,88	0,5
379,34	0,5
379,799	0,5
380,259	0,5
380,718	0,5
381,177	0,5
381,637	0,5
382,096	0,5
382,555	0,5
383,015	0,49
383,474	0,49
383,933	0,49
384,393	0,49
384,852	0,49
385,311	0,49
385,77	0,49
386,229	0,49
386,688	0,49
387,147	0,49
387,606	0,49
388,065	0,49
388,524	0,49
388,983	0,49
389,442	0,49
389,901	0,49
390,36	0,49
390,819	0,49
391,277	0,49
391,736	0,49
392,195	0,49
392,654	0,49
393,112	0,49
393,571	0,49
394,03	0,49
394,488	0,49
394,947	0,49
395,405	0,49
395,864	0,49
396,322	0,49
396,781	0,49
397,239	0,49
397,698	0,49
398,156	0,49
398,614	0,49
399,073	0,49
399,531	0,49
399,989	0,49
400,447	0,49
400,905	0,48
401,364	0,48
401,822	0,48
402,28	0,48
402,738	0,48
403,196	0,48
403,654	0,48
404,112	0,48
404,57	0,48
405,028	0,48
405,486	0,48
405,944	0,48
406,402	0,48
406,859	0,48
407,317	0,48
407,775	0,48
408,233	0,48
408,691	0,48
409,148	0,48
409,606	0,48
410,064	0,48
410,521	0,48
410,979	0,48
411,436	0,48
411,894	0,48
412,351	0,48
412,809	0,48
413,266	0,48
413,724	0,48
414,181	0,48
414,638	0,48
415,096	0,48
415,553	0,48
416,01	0,48
416,467	0,48
416,925	0,48
417,382	0,48
417,839	0,48
418,296	0,48
418,753	0,47
419,21	0,47
419,667	0,47
420,124	0,47
420,581	0,47
421,038	0,47
421,495	0,47
421,952	0,47
422,409	0,47
422,866	0,47
423,322	0,47
423,779	0,47
424,236	0,47
424,693	0,47
425,149	0,47
425,606	0,47
426,063	0,47
426,519	0,47
426,976	0,47
427,433	0,47
427,889	0,47
428,346	0,47
428,802	0,47
429,258	0,47
429,715	0,47
430,171	0,47
430,628	0,47
431,084	0,47
431,54	0,47
431,997	0,47
432,453	0,47
432,909	0,47
433,365	0,47
433,821	0,47
434,277	0,47
434,734	0,47
435,19	0,47
435,646	0,47
436,102	0,47
436,558	0,47
437,014	0,47
437,47	0,47
437,925	0,47
438,381	0,47
438,837	0,47
439,293	0,47
439,749	0,47
440,205	0,47
440,66	0,47
441,116	0,47
441,572	0,47
442,027	0,47
442,483	0,47
442,939	0,47
443,394	0,47
443,85	0,47
444,305	0,47
444,761	0,47
445,216	0,47
445,672	0,47
446,127	0,47
446,582	0,47
447,038	0,47
447,493	0,47
447,948	0,47
448,403	0,47
448,859	0,47
449,314	0,47
449,769	0,47
450,224	0,47
450,679	0,47
451,134	0,47
451,589	0,47
452,044	0,47
452,499	0,47
452,954	0,47
453,409	0,47
453,864	0,47
454,319	0,47
454,774	0,47
455,229	0,47
455,684	0,47
456,138	0,47
456,593	0,47
457,048	0,47
457,503	0,47
457,957	0,47
458,412	0,47
458,866	0,47
459,321	0,47
459,776	0,47
460,23	0,47
460,685	0,47
461,139	0,48
461,593	0,48
462,048	0,48
462,502	0,48
462,957	0,48
463,411	0,48
463,865	0,48
464,319	0,48
464,774	0,48
465,228	0,48
465,682	0,48
466,136	0,48
466,59	0,48
467,044	0,48
467,499	0,48
467,953	0,48
468,407	0,48
468,861	0,48
469,315	0,48
469,768	0,48
470,222	0,48
470,676	0,49
471,13	0,49
471,584	0,49
472,038	0,49
472,491	0,49
472,945	0,49
473,399	0,49
473,852	0,49
474,306	0,49
474,76	0,49
475,213	0,49
475,667	0,49
476,12	0,49
476,574	0,49
477,027	0,49
477,481	0,5
477,934	0,5
478,388	0,5
478,841	0,5
479,294	0,5
479,748	0,5
480,201	0,5
480,654	0,5
481,107	0,5
481,561	0,51
482,014	0,51
482,467	0,51
482,92	0,51
483,373	0,51
483,826	0,51
484,279	0,51
484,732	0,51
485,185	0,51
485,638	0,52
486,091	0,52
486,544	0,52
486,997	0,52
487,449	0,52
487,902	0,52
488,355	0,52
488,808	0,53
489,26	0,53
489,713	0,53
490,166	0,53
490,618	0,53
491,071	0,53
491,523	0,54
491,976	0,54
492,429	0,54
492,881	0,54
493,333	0,54
493,786	0,55
494,238	0,55
494,691	0,55
495,143	0,55
495,595	0,56
496,048	0,56
496,5	0,56
496,952	0,56
497,404	0,56
497,856	0,57
498,309	0,57
498,761	0,57
499,213	0,58
499,665	0,58
500,117	0,58
500,569	0,58
501,021	0,59
501,473	0,59
501,925	0,59
502,377	0,6
502,828	0,6
503,28	0,6
503,732	0,6
504,184	0,61
504,636	0,61
505,087	0,61
505,539	0,61
505,991	0,62
506,442	0,62
506,894	0,62
507,345	0,63
507,797	0,63
508,249	0,63
508,7	0,63
509,151	0,64
509,603	0,64
510,054	0,64
510,506	0,65
510,957	0,65
511,408	0,65
511,86	0,65
512,311	0,66
512,762	0,66
513,213	0,66
513,665	0,66
514,116	0,66
514,567	0,67
515,018	0,67
515,469	0,67
515,92	0,67
516,371	0,68
516,822	0,68
517,273	0,68
517,724	0,68
518,175	0,69
518,626	0,69
519,076	0,69
519,527	0,69
519,978	0,69
520,429	0,69
520,88	0,7
521,33	0,7
521,781	0,7
522,232	0,7
522,682	0,7
523,133	0,7
523,583	0,7
524,034	0,71
524,484	0,71
524,935	0,71
525,385	0,71
525,836	0,71
526,286	0,71
526,736	0,71
527,187	0,71
527,637	0,71
528,087	0,71
528,538	0,71
528,988	0,71
529,438	0,71
529,888	0,71
530,338	0,71
530,788	0,7
531,238	0,7
531,688	0,7
532,139	0,7
532,589	0,7
533,038	0,7
533,488	0,7
533,938	0,7
534,388	0,7
534,838	0,7
535,288	0,7
535,738	0,69
536,187	0,69
536,637	0,69
537,087	0,69
537,537	0,68
537,986	0,68
538,436	0,68
538,885	0,68
539,335	0,67
539,785	0,67
540,234	0,67
540,684	0,66
541,133	0,66
541,582	0,66
542,032	0,66
542,481	0,65
542,931	0,65
543,38	0,65
543,829	0,64
544,278	0,64
544,728	0,64
545,177	0,63
545,626	0,63
546,075	0,63
546,524	0,63
546,973	0,62
547,422	0,62
547,871	0,62
548,32	0,62
548,769	0,62
549,218	0,61
549,667	0,61
550,116	0,61
550,565	0,61
551,014	0,61
551,463	0,6
551,911	0,6
552,36	0,6
552,809	0,6
553,258	0,59
553,706	0,59
554,155	0,59
554,603	0,58
555,052	0,58
555,501	0,58
555,949	0,58
556,398	0,57
556,846	0,57
557,294	0,57
557,743	0,57
558,191	0,56
558,64	0,56
559,088	0,56
559,536	0,55
559,985	0,55
560,433	0,55
560,881	0,54
561,329	0,54
561,777	0,54
562,225	0,54
562,674	0,53
563,122	0,53
563,57	0,53
564,018	0,53
564,466	0,52
564,914	0,52
565,362	0,52
565,809	0,52
566,257	0,51
566,705	0,51
567,153	0,51
567,601	0,5
568,048	0,5
568,496	0,5
568,944	0,5
569,392	0,49
569,839	0,49
570,287	0,49
570,734	0,49
571,182	0,49
571,63	0,48
572,077	0,48
572,525	0,48
572,972	0,48
573,419	0,47
573,867	0,47
574,314	0,47
574,761	0,47
575,209	0,47
575,656	0,46
576,103	0,46
576,551	0,46
576,998	0,46
577,445	0,46
577,892	0,46
578,339	0,46
578,786	0,45
579,233	0,45
579,68	0,45
580,127	0,45
580,574	0,45
581,021	0,45
581,468	0,44
581,915	0,44
582,362	0,44
582,809	0,44
583,255	0,44
583,702	0,44
584,149	0,43
584,596	0,43
585,042	0,43
585,489	0,43
585,936	0,43
586,382	0,42
586,829	0,42
587,275	0,42
587,722	0,42
588,168	0,42
588,615	0,42
589,061	0,42
589,508	0,42
589,954	0,42
590,4	0,42
590,847	0,41
591,293	0,41
591,739	0,41
592,185	0,41
592,632	0,41
593,078	0,41
593,524	0,41
593,97	0,41
594,416	0,41
594,862	0,41
595,308	0,41
595,754	0,4
596,2	0,4
596,646	0,4
597,092	0,4
597,538	0,4
597,984	0,4
598,43	0,4
598,876	0,4
599,321	0,4
599,767	0,39
600,213	0,39
600,659	0,39
601,104	0,39
601,55	0,39
601,995	0,39
602,441	0,39
602,887	0,39
603,332	0,39
603,778	0,39
604,223	0,39
604,668	0,39
605,114	0,38
605,559	0,38
606,005	0,38
606,45	0,38
606,895	0,38
607,341	0,38
607,786	0,38
608,231	0,38
608,676	0,38
609,121	0,37
609,566	0,37
610,012	0,37
610,457	0,36
610,902	0,36
611,347	0,36
611,792	0,36
612,237	0,36
612,682	0,36
613,127	0,36
613,571	0,36
614,016	0,36
614,461	0,36
614,906	0,36
615,351	0,36
615,795	0,36
616,24	0,36
616,685	0,36
617,129	0,36
617,574	0,36
618,019	0,36
618,463	0,36
618,908	0,36
619,352	0,36
619,797	0,36
620,241	0,36
620,686	0,36
621,13	0,36
621,574	0,36
622,019	0,36
622,463	0,36
622,907	0,36
623,352	0,36
623,796	0,36
624,24	0,36
624,684	0,36
625,128	0,36
625,572	0,36
626,016	0,36
626,461	0,36
626,905	0,36
627,349	0,36
627,793	0,36
628,236	0,35
628,68	0,35
629,124	0,35
629,568	0,35
630,012	0,35
630,456	0,35
630,9	0,35
631,343	0,35
631,787	0,35
632,231	0,35
632,674	0,35
633,118	0,35
633,562	0,35
634,005	0,35
634,449	0,35
634,892	0,35
635,336	0,35
635,779	0,35
636,223	0,35
636,666	0,35
637,109	0,35
637,553	0,35
637,996	0,35
638,439	0,35
638,883	0,35
639,326	0,35
639,769	0,35
640,212	0,35
640,655	0,34
641,099	0,34
641,542	0,34
641,985	0,34
642,428	0,34
642,871	0,34
643,314	0,34
643,757	0,34
644,2	0,34
644,643	0,34
645,085	0,34
645,528	0,34
645,971	0,34
646,414	0,34
646,857	0,34
647,299	0,34
647,742	0,34
648,185	0,34
648,627	0,34
649,07	0,34
649,513	0,34
649,955	0,34
650,398	0,34
650,84	0,34
651,283	0,34
651,725	0,34
652,168	0,34
652,61	0,34
653,052	0,34
653,495	0,33
653,937	0,26
654,379	0,21
654,821	0,21
655,264	0,22
655,706	0,22
656,148	0,22
656,59	0,22
657,032	0,22
657,474	0,22
657,916	0,22
658,358	0,21
658,8	0,26
659,242	0,33
659,684	0,34
660,126	0,34
660,568	0,34
661,01	0,34
661,452	0,33
661,894	0,33
662,335	0,33
662,777	0,33
663,219	0,33
663,661	0,33
664,102	0,33
664,544	0,33
664,985	0,33
665,427	0,33
665,869	0,33
666,31	0,33
666,752	0,33
667,193	0,33
667,634	0,33
668,076	0,33
668,517	0,33
668,959	0,33
669,4	0,33
669,841	0,33
670,282	0,33
670,724	0,33
671,165	0,33
671,606	0,33
672,047	0,33
672,488	0,33
672,929	0,33
673,37	0,33
673,811	0,33
674,252	0,33
674,693	0,33
675,134	0,33
675,575	0,33
676,016	0,33
676,457	0,33
676,898	0,33
677,339	0,33
677,78	0,33
678,22	0,33
678,661	0,33
679,102	0,33
679,542	0,33
679,983	0,33
680,424	0,33
680,864	0,33
681,305	0,33
681,745	0,33
682,186	0,33
682,626	0,33
683,067	0,33
683,507	0,32
683,948	0,32
684,388	0,32
684,828	0,32
685,269	0,32
685,709	0,32
686,149	0,32
686,589	0,32
687,029	0,32
687,47	0,32
687,91	0,32
688,35	0,32
688,79	0,32
689,23	0,32
689,67	0,32
690,11	0,32
690,55	0,32
690,99	0,31
691,43	0,31
691,87	0,31
692,31	0,31
692,749	0,31
693,189	0,31
693,629	0,31
694,069	0,31
694,508	0,31
694,948	0,31
695,388	0,31
695,827	0,31
696,267	0,31
696,706	0,31
697,146	0,31
697,586	0,32
698,025	0,32
698,464	0,32
698,904	0,32
699,343	0,32
699,783	0,32
700,222	0,32
700,661	0,32
701,101	0,32
701,54	0,32
701,979	0,32
702,418	0,32
702,857	0,32
703,297	0,32
703,736	0,32
704,175	0,31
704,614	0,31
705,053	0,31
705,492	0,31
705,931	0,31
706,37	0,31
706,809	0,31
707,248	0,31
707,687	0,31
708,125	0,31
708,564	0,31
709,003	0,31
709,442	0,31
709,88	0,31
710,319	0,31
710,758	0,31
711,196	0,31
711,635	0,31
712,074	0,31
712,512	0,31
712,951	0,31
713,389	0,3
713,828	0,3
714,266	0,3
714,705	0,3
715,143	0,3
715,581	0,3
716,02	0,3
716,458	0,3
716,896	0,3
717,334	0,3
717,773	0,3
718,211	0,3
718,649	0,3
719,087	0,3
719,525	0,3
719,963	0,3
720,401	0,3
720,839	0,3
721,277	0,3
721,715	0,3
722,153	0,3
722,591	0,3
723,029	0,3
723,467	0,3
723,905	0,3
724,342	0,3
724,78	0,3
725,218	0,3
725,656	0,3
726,093	0,3
726,531	0,3
726,969	0,3
727,406	0,3
727,844	0,3
728,281	0,3
728,719	0,3
729,156	0,3
729,594	0,3
730,031	0,3
730,469	0,3
730,906	0,3
731,343	0,3
731,781	0,3
732,218	0,3
732,655	0,3
733,092	0,3
733,53	0,3
733,967	0,3
734,404	0,3
734,841	0,3
735,278	0,29
735,715	0,29
736,152	0,29
736,589	0,29
737,026	0,29
737,463	0,29
737,9	0,29
738,337	0,29
738,774	0,29
739,211	0,29
739,647	0,29
740,084	0,29
740,521	0,29
740,958	0,29
741,394	0,29
741,831	0,29
742,268	0,28
742,704	0,28
743,141	0,28
743,577	0,28
744,014	0,28
744,45	0,28
744,887	0,28
745,323	0,28
745,76	0,27
746,196	0,27
746,632	0,27
747,069	0,27
747,505	0,27
747,941	0,27
748,378	0,27
748,814	0,27
749,25	0,28
749,686	0,28
750,122	0,28
750,558	0,28
750,994	0,28
751,43	0,28
751,866	0,28
752,302	0,29
752,738	0,29
753,174	0,29
753,61	0,29
754,046	0,29
754,482	0,29
754,918	0,29
755,354	0,29
755,789	0,29
756,225	0,29
756,661	0,29
757,096	0,29
757,532	0,29
757,968	0,29
758,403	0,28
758,839	0,28
759,274	0,28
759,71	0,28
760,145	0,27
760,581	0,27
761,016	0,27
761,452	0,26
761,887	0,26
762,322	0,26
762,758	0,25
763,193	0,25
763,628	0,25
764,063	0,24
764,499	0,24
764,934	0,23
765,369	0,23
765,804	0,22
766,239	0,22
766,674	0,21
767,109	0,21
767,544	0,2
767,979	0,19
768,414	0,19
768,849	0,18
769,284	0,17
769,719	0,17
770,154	0,16
770,588	0,16
771,023	0,15
771,458	0,14
771,893	0,13
772,327	0,12
772,762	0,11
773,197	0,11
773,631	0,1
774,066	0,09
774,5	0,08
774,935	0,07
775,369	0,06
775,804	0,05
776,238	0,04
776,673	0,04
777,107	0,03
777,541	0,02
777,976	0,01
778,41	0,01
778,844	0
779,279	0
779,713	-0
780,147	-0,02
780,581	-0,02
781,015	-0,03
781,449	-0,04
781,883	-0,04
782,317	-0,06
782,751	-0,07
783,185	-0,07
783,619	-0,08
784,053	-0,1
784,487	-0,1
784,921	-0,11
785,355	-0,12
785,789	-0,13
786,223	-0,13
786,656	-0,15
787,09	-0,15
787,524	-0,16
787,957	-0,17
788,391	-0,18
788,825	-0,2
789,258	-0,21
789,692	-0,22
790,125	-0,24
790,559	-0,25
790,992	-0,27
791,426	-0,29
791,859	-0,31
792,293	-0,33
792,726	-0,35
793,159	-0,37
793,593	-0,39
794,026	-0,41
794,459	-0,44
794,892	-0,46
795,326	-0,49
795,759	-0,53
796,192	-0,57
796,625	-0,62
797,058	-0,64
797,491	-0,69
797,924	-0,73
798,357	-0,78
798,79	-0,82
799,223	-0,86
799,656	-0,91
800,089	-0,96
800,522	-1
800,955	-1,05
801,387	-1,1
801,82	-1,15
802,253	-1,22
802,686	-1,3
803,118	-1,35
803,551	-1,4
803,984	-1,45
804,416	-1,48
804,849	-1,52
805,281	-1,62
805,714	-1,97
806,146	-2,43
806,579	-2,69
807,011	-2,86
807,444	-2,96
807,876	-3,05
808,308	-3,09
808,741	-3,12
809,173	-3,17
809,605	-3,19
810,037	-3,27
810,47	-3,19
810,902	-3
811,334	-2,85
811,766	-2,7
812,198	-2,48
812,63	-2,05
813,062	-1,81
813,494	-1,71
813,926	-1,62
814,358	-1,57
814,79	-1,49
815,222	-1,43
815,654	-1,38
816,086	-1,31
816,518	-1,26
816,949	-1,21
817,381	-1,16
817,813	-1,14
818,245	-1,1
818,676	-1,06
819,108	-1,02
819,54	-1,01
819,971	-0,99
820,403	-0,94
820,834	-0,92
821,266	-0,88
821,697	-0,85
822,129	-0,83
822,56	-0,81
822,991	-0,79
823,423	-0,76
823,854	-0,75
824,286	-0,72
824,717	-0,71
825,148	-0,69
825,579	-0,68
826,01	-0,67
826,442	-0,67
826,873	-0,65
827,304	-0,62
827,735	-0,61
828,166	-0,62
828,597	-0,62
829,028	-0,61
829,459	-0,62
829,89	-0,62
830,321	-0,57
830,752	-0,58
831,183	-0,56
831,613	-0,56
832,044	-0,56
832,475	-0,55
832,906	-0,56
833,336	-0,56
833,767	-0,56
834,198	-0,55
834,628	-0,53
835,059	-0,56
835,49	-0,57
835,92	-0,54
836,351	-0,54
836,781	-0,53
837,212	-0,54
837,642	-0,55
838,072	-0,53
838,503	-0,54
838,933	-0,52
839,364	-0,52
839,794	-0,5
840,224	-0,5
840,654	-0,54
841,085	-0,55
841,515	-0,53
841,945	-0,53
842,375	-0,49
842,805	-0,48
843,235	-0,47
843,665	-0,48
844,095	-0,46
844,525	-0,48
844,955	-0,49
845,385	-0,47
845,815	-0,45
846,245	-0,47
846,675	-0,47
847,105	-0,49
847,534	-0,49
847,964	-0,47
848,394	-0,45
848,824	-0,49
849,253	-0,49
849,683	-0,48
850,112	-0,5
850,542	-0,53
850,972	-0,53
851,401	-0,51
851,831	-0,49
852,26	-0,49
852,69	-0,53
853,119	-0,53
853,548	-0,53
853,978	-0,53
854,407	-0,52
854,836	-0,52
855,266	-0,51
855,695	-0,53
856,124	-0,54
856,553	-0,54
856,983	-0,57
857,412	-0,56
857,841	-0,57
858,27	-0,57
858,699	-0,57
859,128	-0,6
859,557	-0,61
859,986	-0,62
860,415	-0,6
860,844	-0,57
861,273	-0,58
861,702	-0,58
862,13	-0,56
862,559	-0,58
862,988	-0,56
863,417	-0,55
863,845	-0,54
864,274	-0,55
864,703	-0,54
865,131	-0,54
865,56	-0,55
865,989	-0,57
866,417	-0,54
866,846	-0,54
867,274	-0,54
867,703	-0,57
868,131	-0,58
868,559	-0,59
868,988	-0,61
869,416	-0,6
869,844	-0,61
870,273	-0,65
870,701	-0,63
871,129	-0,65
871,557	-0,68
871,986	-0,68
872,414	-0,68
872,842	-0,64
873,27	-0,62
873,698	-0,59
874,126	-0,63
874,554	-0,62
874,982	-0,61
875,41	-0,64
875,838	-0,6
876,266	-0,57
876,694	-0,57
877,122	-0,56
877,549	-0,62
877,977	-0,59
878,405	-0,61
878,833	-0,59
879,26	-0,58
879,688	-0,58
880,116	-0,55
880,543	-0,53
880,971	-0,53
881,399	-0,55
881,826	-0,56
882,254	-0,54
882,681	-0,57
883,109	-0,54
883,536	-0,55
883,963	-0,56
884,391	-0,55
884,818	-0,53
885,245	-0,58
885,673	-0,61
886,1	-0,57
886,527	-0,57
886,954	-0,53
887,381	-0,55
887,809	-0,56
888,236	-0,57
888,663	-0,57
889,09	-0,6
889,517	-0,63
889,944	-0,62
890,371	-0,6
890,798	-0,6
891,225	-0,6
891,652	-0,63
892,078	-0,6
892,505	-0,64
892,932	-0,59
893,359	-0,61
893,786	-0,6
894,212	-0,56
894,639	-0,59
895,066	-0,61
895,492	-0,56
895,919	-0,56
896,346	-0,56
896,772	-0,57
897,199	-0,53
897,625	-0,56
898,052	-0,53
898,478	-0,51
898,904	-0,53
899,331	-0,52
899,757	-0,54
900,183	-0,57
900,61	-0,55
901,036	-0,56
901,462	-0,56
901,888	-0,55
902,315	-0,54
902,741	-0,59
903,167	-0,57
903,593	-0,6
904,019	-0,57
904,445	-0,54
904,871	-0,57
905,297	-0,59
905,723	-0,58
906,149	-0,57
906,575	-0,58
907,001	-0,59
907,427	-0,56
907,852	-0,56
908,278	-0,56
908,704	-0,56
909,13	-0,55
909,555	-0,54
909,981	-0,54
910,407	-0,53
910,832	-0,53
911,258	-0,54
911,684	-0,53
912,109	-0,54
912,535	-0,55
912,96	-0,51
913,386	-0,55
913,811	-0,55
914,236	-0,55
914,662	-0,53
915,087	-0,57
915,512	-0,56
915,938	-0,58
916,363	-0,58
916,788	-0,59
917,213	-0,58
917,639	-0,62
918,064	-0,59
918,489	-0,59
918,914	-0,6
919,339	-0,61
919,764	-0,58
920,189	-0,58
920,614	-0,6
921,039	-0,59
921,464	-0,55
921,889	-0,58
922,314	-0,58
922,738	-0,61
923,163	-0,63
923,588	-0,63
924,013	-0,62
924,437	-0,63
924,862	-0,64
925,287	-0,59
925,711	-0,6
926,136	-0,62
926,561	-0,6
926,985	-0,59
927,41	-0,56
927,834	-0,53
928,259	-0,51
928,683	-0,49
929,108	-0,45
929,532	-0,46
929,956	-0,46
930,381	-0,46
930,805	-0,46
931,229	-0,45
931,653	-0,44
932,078	-0,44
932,502	-0,45
932,926	-0,46
933,35	-0,46
933,774	-0,46
934,198	-0,43
934,622	-0,43
935,046	-0,43
935,47	-0,44
935,894	-0,43
936,318	-0,43
936,742	-0,44
937,166	-0,44
937,59	-0,43
938,014	-0,45
938,437	-0,46
938,861	-0,48
939,285	-0,49
939,709	-0,49
940,132	-0,49
940,556	-0,5
940,98	-0,5
941,403	-0,48
941,827	-0,49
942,25	-0,5
942,674	-0,49
943,097	-0,49
943,521	-0,49
943,944	-0,51
944,368	-0,49
944,791	-0,48
945,214	-0,5
945,638	-0,51
946,061	-0,54
946,484	-0,55
946,907	-0,53
947,331	-0,53
947,754	-0,57
948,177	-0,54
948,6	-0,53
949,023	-0,53
949,446	-0,52
949,869	-0,51
950,292	-0,51
950,715	-0,48
951,138	-0,47
951,561	-0,45
951,984	-0,45
952,407	-0,44
952,83	-0,43
953,252	-0,38
953,675	-0,38
954,098	-0,39
954,521	-0,37
954,943	-0,36
955,366	-0,37
955,789	-0,35
956,211	-0,36
956,634	-0,36
957,056	-0,33
957,479	-0,34
957,902	-0,36
958,324	-0,37
958,746	-0,35
959,169	-0,37
959,591	-0,37
960,014	-0,38
960,436	-0,38
960,858	-0,37
961,281	-0,38
961,703	-0,39
962,125	-0,38
962,547	-0,37
962,969	-0,37
963,391	-0,38
963,814	-0,38
964,236	-0,37
964,658	-0,33
965,08	-0,35
965,502	-0,34
965,924	-0,31
966,346	-0,31
966,768	-0,31
967,189	-0,32
967,611	-0,32
968,033	-0,32
968,455	-0,31
968,877	-0,31
969,298	-0,32
969,72	-0,33
970,142	-0,32
970,563	-0,33
970,985	-0,31
971,407	-0,31
971,828	-0,29
972,25	-0,28
972,671	-0,26
973,093	-0,25
973,514	-0,24
973,936	-0,23
974,357	-0,22
974,778	-0,22
975,2	-0,22
975,621	-0,21
976,042	-0,2
976,464	-0,19
976,885	-0,18
977,306	-0,19
977,727	-0,18
978,148	-0,17
978,57	-0,16
978,991	-0,14
979,412	-0,13
979,833	-0,12
980,254	-0,12
980,675	-0,13
981,096	-0,12
981,517	-0,11
981,937	-0,1
982,358	-0,09
982,779	-0,08
983,2	-0,07
983,621	-0,07
984,042	-0,05
984,462	-0,04
984,883	-0,03
985,304	-0,01
985,724	-0,01
986,145	0
986,565	0,02
986,986	0,02
987,407	0,03
987,827	0,04
988,248	0,05
988,668	0,05
989,088	0,06
989,509	0,07
989,929	0,08
990,35	0,08
990,77	0,1
991,19	0,1
991,61	0,11
992,031	0,12
992,451	0,13
992,871	0,13
993,291	0,15
993,711	0,15
994,131	0,16
994,551	0,16
994,971	0,17
995,391	0,17
995,811	0,17
996,231	0,18
996,651	0,18
997,071	0,19
997,491	0,19
997,911	0,19
998,331	0,2
998,75	0,2
999,17	0,21
999,59	0,21
1000,009	0,21
1000,429	0,22
1000,849	0,22
1001,268	0,23
1001,688	0,23
1002,107	0,23
1002,527	0,23
1002,946	0,23
1003,366	0,24
1003,785	0,24
1004,205	0,24
1004,624	0,24
1005,044	0,24
1005,463	0,24
1005,882	0,24
1006,301	0,25
1006,721	0,25
1007,14	0,25
1007,559	0,25
1007,978	0,25
1008,397	0,25
1008,816	0,25
1009,235	0,25
1009,655	0,25
1010,074	0,25
1010,492	0,24
1010,911	0,24
1011,33	0,24
1011,749	0,24
1012,168	0,24
1012,587	0,24
1013,006	0,24
1013,425	0,24
1013,843	0,24
1014,262	0,24
1014,681	0,24
1015,099	0,24
1015,518	0,24
1015,937	0,24
1016,355	0,24
1016,774	0,24
1017,192	0,24
1017,611	0,24
1018,029	0,24
1018,448	0,24
1018,866	0,24
1019,285	0,24
1019,703	0,24
1020,121	0,24
1020,54	0,24
1020,958	0,24
1021,376	0,24
1021,794	0,24
1022,213	0,24
1022,631	0,24
1023,049	0,24
1023,467	0,24
1023,885	0,24
1024,303	0,24
1024,721	0,24
1025,139	0,24
1025,557	0,24
1025,975	0,24
1026,393	0,24
1026,811	0,24
1027,229	0,23
1027,647	0,23
1028,065	0,23
1028,482	0,23
1028,9	0,23
1029,318	0,23
1029,735	0,23
1030,153	0,23
1030,571	0,23
1030,988	0,23
1031,406	0,23
1031,823	0,23
1032,241	0,23
1032,659	0,23
1033,076	0,23
1033,493	0,24
1033,911	0,24
1034,328	0,23
1034,746	0,23
1035,163	0,24
1035,58	0,24
1035,997	0,23
1036,415	0,24
1036,832	0,23
1037,249	0,23
1037,666	0,23
1038,083	0,23
1038,501	0,23
1038,918	0,23
1039,335	0,23
1039,752	0,23
1040,169	0,23
1040,586	0,23
1041,003	0,23
1041,419	0,23
1041,836	0,23
1042,253	0,23
1042,67	0,23
1043,087	0,23
1043,504	0,23
1043,92	0,22
1044,337	0,22
1044,754	0,22
1045,17	0,22
1045,587	0,22
1046,004	0,22
1046,42	0,22
1046,837	0,22
1047,253	0,22
1047,67	0,22
1048,086	0,22
1048,503	0,22
1048,919	0,22
1049,335	0,22
1049,752	0,22
1050,168	0,22
1050,584	0,22
1051,001	0,22
1051,417	0,22
1051,833	0,22
1052,249	0,22
1052,665	0,22
1053,081	0,22
1053,497	0,22
1053,914	0,22
1054,33	0,22
1054,746	0,23
1055,162	0,23
1055,578	0,23
1055,993	0,23
1056,409	0,23
1056,825	0,23
1057,241	0,23
1057,657	0,23
1058,073	0,23
1058,488	0,23
1058,904	0,23
1059,32	0,23
1059,736	0,23
1060,151	0,23
1060,567	0,23
1060,982	0,23
1061,398	0,23
1061,813	0,23
1062,229	0,23
1062,644	0,23
1063,06	0,23
1063,475	0,23
1063,891	0,23
1064,306	0,23
1064,721	0,23
1065,137	0,22
1065,552	0,22
1065,967	0,22
1066,382	0,22
1066,798	0,22
1067,213	0,22
1067,628	0,22
1068,043	0,23
1068,458	0,23
1068,873	0,23
1069,288	0,23
1069,703	0,23
1070,118	0,23
1070,533	0,23
1070,948	0,23
1071,363	0,23
1071,778	0,23
1072,193	0,23
1072,607	0,23
1073,022	0,23
1073,437	0,23
1073,852	0,23
1074,266	0,23
1074,681	0,23
1075,096	0,23
1075,51	0,23
1075,925	0,23
1076,339	0,23
1076,754	0,23
1077,168	0,23
1077,583	0,23
1077,997	0,23
1078,412	0,23
1078,826	0,23
1079,24	0,23
1079,655	0,23
1080,069	0,23
1080,483	0,23
1080,897	0,22
1081,312	0,22
1081,726	0,22
1082,14	0,22
1082,554	0,22
1082,968	0,22
1083,382	0,22
1083,796	0,22
1084,21	0,22
1084,624	0,22
1085,038	0,22
1085,452	0,22
1085,866	0,21
1086,28	0,21
1086,694	0,21
1087,108	0,21
1087,521	0,21
1087,935	0,21
1088,349	0,21
1088,763	0,21
1089,176	0,21
1089,59	0,2
1090,004	0,2
1090,417	0,2
1090,831	0,2
1091,244	0,2
1091,658	0,2
1092,071	0,19
1092,485	0,19
1092,898	0,19
1093,312	0,19
1093,725	0,19
1094,138	0,19
1094,552	0,19
1094,965	0,18
1095,378	0,19
1095,791	0,18
1096,205	0,18
1096,618	0,18
1097,031	0,18
1097,444	0,18
1097,857	0,18
1098,27	0,18
1098,683	0,18
1099,096	0,18
1099,509	0,17
1099,922	0,17
1100,335	0,17
1100,748	0,16
1101,161	0,16
1101,574	0,16
1101,986	0,15
1102,399	0,15
1102,812	0,15
1103,225	0,14
1103,637	0,14
1104,05	0,13
1104,463	0,14
1104,875	0,13
1105,288	0,13
1105,7	0,13
1106,113	0,12
1106,525	0,12
1106,938	0,11
1107,35	0,11
1107,763	0,11
1108,175	0,11
1108,588	0,11
1109	0,1
1109,412	0,1
1109,824	0,1
1110,237	0,09
1110,649	0,1
1111,061	0,09
