Data from 18C-808nm-8A_Absorbance__1096__01096.txt Node

Date: Mon Jul 17 17:02:03 CEST 2023
User: Laser008
Spectrometer: MAYP115816
Trigger mode: 0
Integration Time (sec): 2,500000E-1
Scans to average: 10
Electric dark correction enabled: true
Nonlinearity correction enabled: true
Boxcar width: 5
XAxis mode: Wavelengths
Number of Pixels in Spectrum: 2068
>>>>>Begin Spectral Data<<<<<
198,914	-0,71
199,384	-0,49
199,855	-0,37
200,325	-0,29
200,796	-0,27
201,266	-0,22
201,737	-0,2
202,207	-0,19
202,677	-0,18
203,147	-0,17
203,618	-0,15
204,088	-0,13
204,558	-0,12
205,028	-0,11
205,498	-0,12
205,968	-0,12
206,439	-0,14
206,909	-0,13
207,379	-0,14
207,849	-0,15
208,319	-0,15
208,789	-0,16
209,258	-0,15
209,728	-0,18
210,198	-0,17
210,668	-0,17
211,138	-0,16
211,608	-0,16
212,077	-0,17
212,547	-0,17
213,017	-0,16
213,486	-0,17
213,956	-0,16
214,426	-0,17
214,895	-0,16
215,365	-0,17
215,834	-0,17
216,304	-0,18
216,773	-0,17
217,243	-0,19
217,712	-0,2
218,181	-0,2
218,651	-0,19
219,12	-0,2
219,589	-0,19
220,058	-0,19
220,528	-0,21
220,997	-0,22
221,466	-0,22
221,935	-0,23
222,404	-0,21
222,873	-0,2
223,342	-0,2
223,812	-0,2
224,281	-0,2
224,749	-0,21
225,218	-0,22
225,687	-0,22
226,156	-0,2
226,625	-0,19
227,094	-0,18
227,563	-0,19
228,031	-0,21
228,5	-0,21
228,969	-0,22
229,438	-0,21
229,906	-0,2
230,375	-0,19
230,844	-0,19
231,312	-0,19
231,781	-0,21
232,249	-0,2
232,718	-0,2
233,186	-0,19
233,655	-0,19
234,123	-0,18
234,591	-0,19
235,06	-0,19
235,528	-0,19
235,996	-0,19
236,465	-0,19
236,933	-0,18
237,401	-0,18
237,869	-0,17
238,337	-0,17
238,805	-0,16
239,274	-0,16
239,742	-0,16
240,21	-0,16
240,678	-0,14
241,146	-0,14
241,614	-0,14
242,081	-0,13
242,549	-0,14
243,017	-0,14
243,485	-0,15
243,953	-0,14
244,421	-0,14
244,888	-0,14
245,356	-0,14
245,824	-0,14
246,291	-0,14
246,759	-0,14
247,227	-0,15
247,694	-0,14
248,162	-0,13
248,629	-0,12
249,097	-0,12
249,564	-0,13
250,032	-0,15
250,499	-0,15
250,967	-0,16
251,434	-0,16
251,901	-0,16
252,369	-0,16
252,836	-0,17
253,303	-0,19
253,77	-0,21
254,237	-0,2
254,705	-0,21
255,172	-0,19
255,639	-0,19
256,106	-0,2
256,573	-0,2
257,04	-0,21
257,507	-0,21
257,974	-0,21
258,441	-0,19
258,908	-0,19
259,375	-0,2
259,841	-0,2
260,308	-0,2
260,775	-0,2
261,242	-0,19
261,709	-0,2
262,175	-0,2
262,642	-0,19
263,109	-0,19
263,575	-0,21
264,042	-0,19
264,508	-0,18
264,975	-0,2
265,441	-0,21
265,908	-0,22
266,374	-0,22
266,841	-0,21
267,307	-0,23
267,773	-0,22
268,24	-0,22
268,706	-0,22
269,172	-0,23
269,639	-0,24
270,105	-0,22
270,571	-0,22
271,037	-0,22
271,503	-0,22
271,969	-0,22
272,435	-0,22
272,902	-0,24
273,368	-0,25
273,834	-0,25
274,3	-0,25
274,765	-0,25
275,231	-0,25
275,697	-0,24
276,163	-0,23
276,629	-0,23
277,095	-0,24
277,56	-0,23
278,026	-0,23
278,492	-0,21
278,958	-0,2
279,423	-0,21
279,889	-0,2
280,354	-0,21
280,82	-0,21
281,286	-0,22
281,751	-0,23
282,217	-0,22
282,682	-0,23
283,147	-0,23
283,613	-0,24
284,078	-0,24
284,544	-0,25
285,009	-0,25
285,474	-0,25
285,939	-0,26
286,405	-0,25
286,87	-0,25
287,335	-0,24
287,8	-0,23
288,265	-0,22
288,73	-0,23
289,195	-0,25
289,66	-0,25
290,125	-0,24
290,59	-0,24
291,055	-0,22
291,52	-0,23
291,985	-0,23
292,45	-0,24
292,915	-0,24
293,38	-0,24
293,844	-0,23
294,309	-0,22
294,774	-0,21
295,239	-0,22
295,703	-0,23
296,168	-0,21
296,632	-0,21
297,097	-0,21
297,562	-0,19
298,026	-0,2
298,491	-0,2
298,955	-0,2
299,419	-0,2
299,884	-0,2
300,348	-0,18
300,813	-0,18
301,277	-0,19
301,741	-0,19
302,205	-0,18
302,67	-0,17
303,134	-0,17
303,598	-0,17
304,062	-0,17
304,526	-0,16
304,99	-0,17
305,454	-0,17
305,919	-0,17
306,383	-0,17
306,847	-0,17
307,31	-0,18
307,774	-0,2
308,238	-0,19
308,702	-0,19
309,166	-0,2
309,63	-0,2
310,094	-0,17
310,557	-0,17
311,021	-0,16
311,485	-0,15
311,948	-0,15
312,412	-0,14
312,876	-0,13
313,339	-0,14
313,803	-0,14
314,266	-0,14
314,73	-0,14
315,193	-0,14
315,657	-0,14
316,12	-0,14
316,584	-0,13
317,047	-0,14
317,51	-0,12
317,973	-0,12
318,437	-0,11
318,9	-0,1
319,363	-0,09
319,826	-0,09
320,29	-0,09
320,753	-0,09
321,216	-0,08
321,679	-0,09
322,142	-0,08
322,605	-0,09
323,068	-0,09
323,531	-0,09
323,994	-0,08
324,457	-0,08
324,92	-0,07
325,382	-0,07
325,845	-0,07
326,308	-0,06
326,771	-0,06
327,233	-0,06
327,696	-0,05
328,159	-0,05
328,622	-0,04
329,084	-0,04
329,547	-0,04
330,009	-0,04
330,472	-0,04
330,934	-0,04
331,397	-0,03
331,859	-0,02
332,322	-0,02
332,784	-0,01
333,246	-0
333,709	-0,01
334,171	0
334,633	-0
335,096	-0
335,558	-0
336,02	-0
336,482	0
336,944	0,01
337,406	0,01
337,868	0,02
338,331	0,01
338,793	0,02
339,255	0,02
339,717	0,03
340,178	0,04
340,64	0,05
341,102	0,05
341,564	0,06
342,026	0,06
342,488	0,07
342,949	0,08
343,411	0,1
343,873	0,12
344,335	0,14
344,796	0,17
345,258	0,2
345,719	0,22
346,181	0,25
346,643	0,27
347,104	0,29
347,566	0,31
348,027	0,32
348,488	0,34
348,95	0,35
349,411	0,36
349,873	0,37
350,334	0,37
350,795	0,38
351,256	0,39
351,718	0,39
352,179	0,39
352,64	0,4
353,101	0,4
353,562	0,4
354,023	0,4
354,484	0,4
354,945	0,4
355,406	0,4
355,867	0,4
356,328	0,4
356,789	0,4
357,25	0,41
357,711	0,41
358,172	0,41
358,633	0,41
359,093	0,41
359,554	0,41
360,015	0,41
360,476	0,41
360,936	0,41
361,397	0,41
361,858	0,41
362,318	0,41
362,779	0,41
363,239	0,41
363,7	0,41
364,16	0,41
364,621	0,41
365,081	0,41
365,541	0,41
366,002	0,41
366,462	0,41
366,922	0,41
367,383	0,41
367,843	0,41
368,303	0,41
368,763	0,41
369,223	0,41
369,684	0,41
370,144	0,41
370,604	0,41
371,064	0,41
371,524	0,41
371,984	0,41
372,444	0,41
372,904	0,41
373,363	0,41
373,823	0,41
374,283	0,41
374,743	0,41
375,203	0,41
375,663	0,41
376,122	0,41
376,582	0,41
377,042	0,41
377,501	0,41
377,961	0,41
378,42	0,41
378,88	0,41
379,34	0,41
379,799	0,41
380,259	0,41
380,718	0,41
381,177	0,41
381,637	0,41
382,096	0,41
382,555	0,41
383,015	0,41
383,474	0,41
383,933	0,41
384,393	0,41
384,852	0,4
385,311	0,4
385,77	0,4
386,229	0,4
386,688	0,4
387,147	0,4
387,606	0,4
388,065	0,4
388,524	0,4
388,983	0,4
389,442	0,4
389,901	0,4
390,36	0,4
390,819	0,4
391,277	0,4
391,736	0,4
392,195	0,4
392,654	0,4
393,112	0,4
393,571	0,4
394,03	0,4
394,488	0,4
394,947	0,4
395,405	0,4
395,864	0,4
396,322	0,4
396,781	0,4
397,239	0,4
397,698	0,4
398,156	0,4
398,614	0,4
399,073	0,4
399,531	0,4
399,989	0,4
400,447	0,4
400,905	0,4
401,364	0,4
401,822	0,4
402,28	0,4
402,738	0,4
403,196	0,4
403,654	0,4
404,112	0,4
404,57	0,39
405,028	0,39
405,486	0,39
405,944	0,39
406,402	0,39
406,859	0,39
407,317	0,39
407,775	0,39
408,233	0,39
408,691	0,39
409,148	0,39
409,606	0,39
410,064	0,39
410,521	0,39
410,979	0,39
411,436	0,39
411,894	0,39
412,351	0,39
412,809	0,39
413,266	0,39
413,724	0,39
414,181	0,39
414,638	0,39
415,096	0,39
415,553	0,39
416,01	0,39
416,467	0,39
416,925	0,39
417,382	0,39
417,839	0,39
418,296	0,39
418,753	0,39
419,21	0,39
419,667	0,39
420,124	0,39
420,581	0,39
421,038	0,39
421,495	0,39
421,952	0,39
422,409	0,39
422,866	0,39
423,322	0,39
423,779	0,39
424,236	0,39
424,693	0,39
425,149	0,39
425,606	0,39
426,063	0,39
426,519	0,39
426,976	0,39
427,433	0,39
427,889	0,39
428,346	0,39
428,802	0,39
429,258	0,39
429,715	0,39
430,171	0,39
430,628	0,39
431,084	0,39
431,54	0,39
431,997	0,39
432,453	0,39
432,909	0,38
433,365	0,38
433,821	0,38
434,277	0,38
434,734	0,38
435,19	0,38
435,646	0,38
436,102	0,38
436,558	0,38
437,014	0,38
437,47	0,38
437,925	0,38
438,381	0,38
438,837	0,38
439,293	0,38
439,749	0,38
440,205	0,38
440,66	0,38
441,116	0,38
441,572	0,38
442,027	0,38
442,483	0,38
442,939	0,38
443,394	0,38
443,85	0,38
444,305	0,38
444,761	0,38
445,216	0,38
445,672	0,38
446,127	0,38
446,582	0,38
447,038	0,38
447,493	0,38
447,948	0,38
448,403	0,38
448,859	0,38
449,314	0,38
449,769	0,38
450,224	0,38
450,679	0,38
451,134	0,38
451,589	0,38
452,044	0,38
452,499	0,38
452,954	0,38
453,409	0,38
453,864	0,38
454,319	0,38
454,774	0,38
455,229	0,38
455,684	0,38
456,138	0,38
456,593	0,38
457,048	0,38
457,503	0,38
457,957	0,38
458,412	0,38
458,866	0,38
459,321	0,38
459,776	0,38
460,23	0,39
460,685	0,39
461,139	0,39
461,593	0,39
462,048	0,39
462,502	0,39
462,957	0,39
463,411	0,39
463,865	0,39
464,319	0,39
464,774	0,39
465,228	0,39
465,682	0,39
466,136	0,39
466,59	0,39
467,044	0,39
467,499	0,39
467,953	0,39
468,407	0,39
468,861	0,39
469,315	0,39
469,768	0,39
470,222	0,39
470,676	0,39
471,13	0,39
471,584	0,39
472,038	0,4
472,491	0,4
472,945	0,4
473,399	0,4
473,852	0,4
474,306	0,4
474,76	0,4
475,213	0,4
475,667	0,4
476,12	0,4
476,574	0,4
477,027	0,4
477,481	0,4
477,934	0,4
478,388	0,4
478,841	0,4
479,294	0,4
479,748	0,41
480,201	0,41
480,654	0,41
481,107	0,41
481,561	0,41
482,014	0,41
482,467	0,41
482,92	0,41
483,373	0,41
483,826	0,41
484,279	0,41
484,732	0,42
485,185	0,42
485,638	0,42
486,091	0,42
486,544	0,42
486,997	0,42
487,449	0,42
487,902	0,42
488,355	0,42
488,808	0,43
489,26	0,43
489,713	0,43
490,166	0,43
490,618	0,43
491,071	0,43
491,523	0,43
491,976	0,44
492,429	0,44
492,881	0,44
493,333	0,44
493,786	0,44
494,238	0,45
494,691	0,45
495,143	0,45
495,595	0,45
496,048	0,45
496,5	0,45
496,952	0,46
497,404	0,46
497,856	0,46
498,309	0,46
498,761	0,46
499,213	0,47
499,665	0,47
500,117	0,47
500,569	0,47
501,021	0,48
501,473	0,48
501,925	0,48
502,377	0,48
502,828	0,49
503,28	0,49
503,732	0,49
504,184	0,49
504,636	0,49
505,087	0,5
505,539	0,5
505,991	0,5
506,442	0,5
506,894	0,51
507,345	0,51
507,797	0,51
508,249	0,51
508,7	0,52
509,151	0,52
509,603	0,52
510,054	0,52
510,506	0,52
510,957	0,53
511,408	0,53
511,86	0,53
512,311	0,53
512,762	0,53
513,213	0,54
513,665	0,54
514,116	0,54
514,567	0,54
515,018	0,54
515,469	0,55
515,92	0,55
516,371	0,55
516,822	0,55
517,273	0,55
517,724	0,56
518,175	0,56
518,626	0,56
519,076	0,56
519,527	0,56
519,978	0,56
520,429	0,56
520,88	0,57
521,33	0,57
521,781	0,57
522,232	0,57
522,682	0,57
523,133	0,57
523,583	0,57
524,034	0,57
524,484	0,58
524,935	0,58
525,385	0,58
525,836	0,58
526,286	0,58
526,736	0,58
527,187	0,58
527,637	0,58
528,087	0,58
528,538	0,58
528,988	0,58
529,438	0,58
529,888	0,58
530,338	0,58
530,788	0,58
531,238	0,58
531,688	0,58
532,139	0,58
532,589	0,58
533,038	0,57
533,488	0,57
533,938	0,57
534,388	0,57
534,838	0,57
535,288	0,57
535,738	0,57
536,187	0,57
536,637	0,57
537,087	0,56
537,537	0,56
537,986	0,56
538,436	0,56
538,885	0,56
539,335	0,55
539,785	0,55
540,234	0,55
540,684	0,55
541,133	0,54
541,582	0,54
542,032	0,54
542,481	0,54
542,931	0,53
543,38	0,53
543,829	0,53
544,278	0,53
544,728	0,52
545,177	0,52
545,626	0,52
546,075	0,52
546,524	0,52
546,973	0,51
547,422	0,51
547,871	0,51
548,32	0,51
548,769	0,51
549,218	0,51
549,667	0,51
550,116	0,51
550,565	0,51
551,014	0,5
551,463	0,5
551,911	0,5
552,36	0,5
552,809	0,5
553,258	0,49
553,706	0,49
554,155	0,49
554,603	0,49
555,052	0,49
555,501	0,48
555,949	0,48
556,398	0,48
556,846	0,48
557,294	0,48
557,743	0,47
558,191	0,47
558,64	0,47
559,088	0,47
559,536	0,46
559,985	0,46
560,433	0,46
560,881	0,46
561,329	0,45
561,777	0,45
562,225	0,45
562,674	0,45
563,122	0,45
563,57	0,45
564,018	0,44
564,466	0,44
564,914	0,44
565,362	0,44
565,809	0,44
566,257	0,43
566,705	0,43
567,153	0,43
567,601	0,43
568,048	0,43
568,496	0,42
568,944	0,42
569,392	0,42
569,839	0,42
570,287	0,42
570,734	0,42
571,182	0,41
571,63	0,41
572,077	0,41
572,525	0,41
572,972	0,41
573,419	0,4
573,867	0,4
574,314	0,4
574,761	0,4
575,209	0,4
575,656	0,4
576,103	0,4
576,551	0,4
576,998	0,39
577,445	0,39
577,892	0,39
578,339	0,39
578,786	0,39
579,233	0,39
579,68	0,39
580,127	0,39
580,574	0,39
581,021	0,38
581,468	0,38
581,915	0,38
582,362	0,38
582,809	0,38
583,255	0,38
583,702	0,38
584,149	0,38
584,596	0,37
585,042	0,37
585,489	0,37
585,936	0,37
586,382	0,37
586,829	0,37
587,275	0,37
587,722	0,37
588,168	0,37
588,615	0,36
589,061	0,36
589,508	0,36
589,954	0,36
590,4	0,36
590,847	0,36
591,293	0,36
591,739	0,36
592,185	0,36
592,632	0,36
593,078	0,36
593,524	0,36
593,97	0,36
594,416	0,35
594,862	0,35
595,308	0,35
595,754	0,35
596,2	0,35
596,646	0,35
597,092	0,35
597,538	0,35
597,984	0,35
598,43	0,35
598,876	0,35
599,321	0,35
599,767	0,35
600,213	0,34
600,659	0,34
601,104	0,34
601,55	0,34
601,995	0,34
602,441	0,34
602,887	0,34
603,332	0,34
603,778	0,34
604,223	0,34
604,668	0,34
605,114	0,34
605,559	0,34
606,005	0,34
606,45	0,34
606,895	0,34
607,341	0,34
607,786	0,34
608,231	0,34
608,676	0,33
609,121	0,33
609,566	0,33
610,012	0,32
610,457	0,32
610,902	0,32
611,347	0,32
611,792	0,32
612,237	0,32
612,682	0,31
613,127	0,31
613,571	0,32
614,016	0,32
614,461	0,32
614,906	0,32
615,351	0,32
615,795	0,32
616,24	0,32
616,685	0,32
617,129	0,32
617,574	0,32
618,019	0,32
618,463	0,32
618,908	0,32
619,352	0,32
619,797	0,32
620,241	0,32
620,686	0,32
621,13	0,32
621,574	0,32
622,019	0,32
622,463	0,32
622,907	0,32
623,352	0,32
623,796	0,32
624,24	0,32
624,684	0,32
625,128	0,32
625,572	0,32
626,016	0,32
626,461	0,32
626,905	0,32
627,349	0,32
627,793	0,32
628,236	0,32
628,68	0,31
629,124	0,31
629,568	0,31
630,012	0,31
630,456	0,31
630,9	0,31
631,343	0,31
631,787	0,31
632,231	0,31
632,674	0,31
633,118	0,31
633,562	0,31
634,005	0,31
634,449	0,31
634,892	0,31
635,336	0,31
635,779	0,31
636,223	0,31
636,666	0,31
637,109	0,31
637,553	0,31
637,996	0,31
638,439	0,31
638,883	0,31
639,326	0,31
639,769	0,31
640,212	0,31
640,655	0,31
641,099	0,31
641,542	0,31
641,985	0,31
642,428	0,31
642,871	0,31
643,314	0,31
643,757	0,31
644,2	0,31
644,643	0,31
645,085	0,31
645,528	0,31
645,971	0,31
646,414	0,3
646,857	0,3
647,299	0,3
647,742	0,3
648,185	0,3
648,627	0,3
649,07	0,3
649,513	0,3
649,955	0,3
650,398	0,3
650,84	0,3
651,283	0,3
651,725	0,3
652,168	0,3
652,61	0,3
653,052	0,3
653,495	0,3
653,937	0,24
654,379	0,19
654,821	0,19
655,264	0,19
655,706	0,19
656,148	0,19
656,59	0,19
657,032	0,19
657,474	0,2
657,916	0,19
658,358	0,19
658,8	0,24
659,242	0,3
659,684	0,3
660,126	0,3
660,568	0,3
661,01	0,3
661,452	0,3
661,894	0,3
662,335	0,3
662,777	0,3
663,219	0,3
663,661	0,3
664,102	0,3
664,544	0,3
664,985	0,3
665,427	0,3
665,869	0,3
666,31	0,3
666,752	0,3
667,193	0,3
667,634	0,3
668,076	0,3
668,517	0,3
668,959	0,3
669,4	0,3
669,841	0,3
670,282	0,3
670,724	0,3
671,165	0,3
671,606	0,3
672,047	0,29
672,488	0,29
672,929	0,29
673,37	0,29
673,811	0,29
674,252	0,29
674,693	0,29
675,134	0,29
675,575	0,29
676,016	0,29
676,457	0,29
676,898	0,29
677,339	0,29
677,78	0,29
678,22	0,29
678,661	0,29
679,102	0,29
679,542	0,29
679,983	0,29
680,424	0,29
680,864	0,29
681,305	0,29
681,745	0,29
682,186	0,29
682,626	0,29
683,067	0,29
683,507	0,29
683,948	0,29
684,388	0,29
684,828	0,29
685,269	0,29
685,709	0,29
686,149	0,29
686,589	0,29
687,029	0,29
687,47	0,29
687,91	0,28
688,35	0,28
688,79	0,28
689,23	0,28
689,67	0,28
690,11	0,28
690,55	0,28
690,99	0,28
691,43	0,28
691,87	0,28
692,31	0,28
692,749	0,28
693,189	0,28
693,629	0,28
694,069	0,28
694,508	0,28
694,948	0,28
695,388	0,28
695,827	0,28
696,267	0,28
696,706	0,28
697,146	0,28
697,586	0,28
698,025	0,28
698,464	0,29
698,904	0,29
699,343	0,29
699,783	0,29
700,222	0,29
700,661	0,29
701,101	0,28
701,54	0,28
701,979	0,28
702,418	0,28
702,857	0,28
703,297	0,28
703,736	0,28
704,175	0,28
704,614	0,28
705,053	0,28
705,492	0,28
705,931	0,28
706,37	0,28
706,809	0,28
707,248	0,28
707,687	0,27
708,125	0,27
708,564	0,27
709,003	0,27
709,442	0,27
709,88	0,27
710,319	0,27
710,758	0,27
711,196	0,27
711,635	0,27
712,074	0,27
712,512	0,27
712,951	0,27
713,389	0,27
713,828	0,27
714,266	0,27
714,705	0,27
715,143	0,27
715,581	0,27
716,02	0,27
716,458	0,27
716,896	0,27
717,334	0,27
717,773	0,27
718,211	0,27
718,649	0,27
719,087	0,27
719,525	0,27
719,963	0,27
720,401	0,27
720,839	0,27
721,277	0,27
721,715	0,27
722,153	0,27
722,591	0,27
723,029	0,27
723,467	0,27
723,905	0,27
724,342	0,27
724,78	0,27
725,218	0,27
725,656	0,27
726,093	0,27
726,531	0,27
726,969	0,27
727,406	0,27
727,844	0,27
728,281	0,27
728,719	0,27
729,156	0,27
729,594	0,27
730,031	0,26
730,469	0,26
730,906	0,26
731,343	0,26
731,781	0,26
732,218	0,26
732,655	0,26
733,092	0,26
733,53	0,26
733,967	0,26
734,404	0,26
734,841	0,26
735,278	0,26
735,715	0,26
736,152	0,26
736,589	0,26
737,026	0,26
737,463	0,26
737,9	0,26
738,337	0,26
738,774	0,26
739,211	0,26
739,647	0,26
740,084	0,26
740,521	0,25
740,958	0,25
741,394	0,25
741,831	0,25
742,268	0,25
742,704	0,25
743,141	0,25
743,577	0,25
744,014	0,25
744,45	0,25
744,887	0,24
745,323	0,24
745,76	0,24
746,196	0,24
746,632	0,24
747,069	0,24
747,505	0,24
747,941	0,24
748,378	0,24
748,814	0,24
749,25	0,24
749,686	0,24
750,122	0,25
750,558	0,25
750,994	0,25
751,43	0,25
751,866	0,25
752,302	0,25
752,738	0,25
753,174	0,25
753,61	0,25
754,046	0,26
754,482	0,26
754,918	0,26
755,354	0,26
755,789	0,26
756,225	0,26
756,661	0,26
757,096	0,26
757,532	0,25
757,968	0,25
758,403	0,25
758,839	0,25
759,274	0,25
759,71	0,25
760,145	0,24
760,581	0,24
761,016	0,24
761,452	0,23
761,887	0,23
762,322	0,23
762,758	0,22
763,193	0,22
763,628	0,22
764,063	0,21
764,499	0,21
764,934	0,2
765,369	0,2
765,804	0,19
766,239	0,19
766,674	0,18
767,109	0,18
767,544	0,17
767,979	0,16
768,414	0,16
768,849	0,15
769,284	0,14
769,719	0,14
770,154	0,13
770,588	0,13
771,023	0,12
771,458	0,11
771,893	0,1
772,327	0,09
772,762	0,08
773,197	0,08
773,631	0,07
774,066	0,07
774,5	0,06
774,935	0,05
775,369	0,04
775,804	0,03
776,238	0,03
776,673	0,02
777,107	0,02
777,541	0,01
777,976	-0
778,41	-0,01
778,844	-0,02
779,279	-0,02
779,713	-0,03
780,147	-0,03
780,581	-0,04
781,015	-0,05
781,449	-0,06
781,883	-0,06
782,317	-0,08
782,751	-0,09
783,185	-0,09
783,619	-0,09
784,053	-0,1
784,487	-0,11
784,921	-0,11
785,355	-0,12
785,789	-0,13
786,223	-0,15
786,656	-0,15
787,09	-0,16
787,524	-0,17
787,957	-0,18
788,391	-0,2
788,825	-0,22
789,258	-0,24
789,692	-0,25
790,125	-0,26
790,559	-0,27
790,992	-0,29
791,426	-0,32
791,859	-0,33
792,293	-0,36
792,726	-0,38
793,159	-0,39
793,593	-0,41
794,026	-0,43
794,459	-0,46
794,892	-0,49
795,326	-0,52
795,759	-0,55
796,192	-0,6
796,625	-0,64
797,058	-0,67
797,491	-0,71
797,924	-0,75
798,357	-0,81
798,79	-0,85
799,223	-0,89
799,656	-0,95
800,089	-0,99
800,522	-1,04
800,955	-1,08
801,387	-1,14
801,82	-1,19
802,253	-1,25
802,686	-1,33
803,118	-1,39
803,551	-1,44
803,984	-1,49
804,416	-1,53
804,849	-1,57
805,281	-1,72
805,714	-2,09
806,146	-2,5
806,579	-2,74
807,011	-2,89
807,444	-2,98
807,876	-3,06
808,308	-3,1
808,741	-3,13
809,173	-3,18
809,605	-3,2
810,037	-3,27
810,47	-3,18
810,902	-2,98
811,334	-2,84
811,766	-2,68
812,198	-2,44
812,63	-2,02
813,062	-1,82
813,494	-1,72
813,926	-1,63
814,358	-1,58
814,79	-1,5
815,222	-1,44
815,654	-1,39
816,086	-1,32
816,518	-1,27
816,949	-1,21
817,381	-1,17
817,813	-1,15
818,245	-1,11
818,676	-1,07
819,108	-1,04
819,54	-1,02
819,971	-1
820,403	-0,95
820,834	-0,93
821,266	-0,89
821,697	-0,87
822,129	-0,85
822,56	-0,83
822,991	-0,8
823,423	-0,78
823,854	-0,77
824,286	-0,75
824,717	-0,73
825,148	-0,72
825,579	-0,7
826,01	-0,68
826,442	-0,67
826,873	-0,65
827,304	-0,62
827,735	-0,61
828,166	-0,62
828,597	-0,61
829,028	-0,6
829,459	-0,61
829,89	-0,61
830,321	-0,56
830,752	-0,57
831,183	-0,56
831,613	-0,56
832,044	-0,56
832,475	-0,54
832,906	-0,55
833,336	-0,55
833,767	-0,56
834,198	-0,55
834,628	-0,53
835,059	-0,56
835,49	-0,57
835,92	-0,55
836,351	-0,54
836,781	-0,54
837,212	-0,55
837,642	-0,55
838,072	-0,53
838,503	-0,54
838,933	-0,52
839,364	-0,53
839,794	-0,51
840,224	-0,49
840,654	-0,54
841,085	-0,54
841,515	-0,52
841,945	-0,53
842,375	-0,48
842,805	-0,48
843,235	-0,45
843,665	-0,47
844,095	-0,44
844,525	-0,46
844,955	-0,47
845,385	-0,45
845,815	-0,44
846,245	-0,46
846,675	-0,46
847,105	-0,48
847,534	-0,48
847,964	-0,47
848,394	-0,46
848,824	-0,5
849,253	-0,49
849,683	-0,5
850,112	-0,5
850,542	-0,53
850,972	-0,54
851,401	-0,52
851,831	-0,5
852,26	-0,51
852,69	-0,54
853,119	-0,54
853,548	-0,53
853,978	-0,54
854,407	-0,52
854,836	-0,53
855,266	-0,52
855,695	-0,53
856,124	-0,54
856,553	-0,55
856,983	-0,56
857,412	-0,55
857,841	-0,56
858,27	-0,57
858,699	-0,57
859,128	-0,6
859,557	-0,61
859,986	-0,61
860,415	-0,59
860,844	-0,57
861,273	-0,58
861,702	-0,59
862,13	-0,57
862,559	-0,59
862,988	-0,57
863,417	-0,55
863,845	-0,54
864,274	-0,55
864,703	-0,55
865,131	-0,55
865,56	-0,55
865,989	-0,57
866,417	-0,54
866,846	-0,55
867,274	-0,53
867,703	-0,55
868,131	-0,57
868,559	-0,56
868,988	-0,58
869,416	-0,58
869,844	-0,59
870,273	-0,63
870,701	-0,61
871,129	-0,65
871,557	-0,67
871,986	-0,67
872,414	-0,68
872,842	-0,65
873,27	-0,63
873,698	-0,6
874,126	-0,63
874,554	-0,62
874,982	-0,61
875,41	-0,63
875,838	-0,58
876,266	-0,57
876,694	-0,56
877,122	-0,56
877,549	-0,61
877,977	-0,59
878,405	-0,61
878,833	-0,59
879,26	-0,57
879,688	-0,58
880,116	-0,56
880,543	-0,54
880,971	-0,53
881,399	-0,56
881,826	-0,57
882,254	-0,56
882,681	-0,6
883,109	-0,57
883,536	-0,58
883,963	-0,6
884,391	-0,58
884,818	-0,56
885,245	-0,6
885,673	-0,62
886,1	-0,58
886,527	-0,59
886,954	-0,54
887,381	-0,56
887,809	-0,57
888,236	-0,58
888,663	-0,58
889,09	-0,62
889,517	-0,65
889,944	-0,64
890,371	-0,63
890,798	-0,64
891,225	-0,63
891,652	-0,66
892,078	-0,63
892,505	-0,66
892,932	-0,62
893,359	-0,62
893,786	-0,62
894,212	-0,59
894,639	-0,61
895,066	-0,63
895,492	-0,57
895,919	-0,58
896,346	-0,58
896,772	-0,58
897,199	-0,55
897,625	-0,57
898,052	-0,54
898,478	-0,53
898,904	-0,54
899,331	-0,53
899,757	-0,55
900,183	-0,57
900,61	-0,54
901,036	-0,54
901,462	-0,54
901,888	-0,53
902,315	-0,51
902,741	-0,56
903,167	-0,54
903,593	-0,57
904,019	-0,56
904,445	-0,52
904,871	-0,54
905,297	-0,57
905,723	-0,56
906,149	-0,57
906,575	-0,58
907,001	-0,58
907,427	-0,55
907,852	-0,55
908,278	-0,56
908,704	-0,53
909,13	-0,53
909,555	-0,52
909,981	-0,51
910,407	-0,52
910,832	-0,51
911,258	-0,51
911,684	-0,51
912,109	-0,51
912,535	-0,53
912,96	-0,49
913,386	-0,53
913,811	-0,54
914,236	-0,55
914,662	-0,53
915,087	-0,55
915,512	-0,55
915,938	-0,57
916,363	-0,56
916,788	-0,58
917,213	-0,56
917,639	-0,61
918,064	-0,58
918,489	-0,58
918,914	-0,58
919,339	-0,61
919,764	-0,59
920,189	-0,59
920,614	-0,61
921,039	-0,62
921,464	-0,57
921,889	-0,6
922,314	-0,61
922,738	-0,64
923,163	-0,66
923,588	-0,65
924,013	-0,64
924,437	-0,64
924,862	-0,65
925,287	-0,61
925,711	-0,62
926,136	-0,63
926,561	-0,61
926,985	-0,6
927,41	-0,57
927,834	-0,55
928,259	-0,52
928,683	-0,5
929,108	-0,48
929,532	-0,49
929,956	-0,48
930,381	-0,47
930,805	-0,47
931,229	-0,47
931,653	-0,44
932,078	-0,44
932,502	-0,46
932,926	-0,47
933,35	-0,46
933,774	-0,46
934,198	-0,44
934,622	-0,42
935,046	-0,43
935,47	-0,44
935,894	-0,43
936,318	-0,43
936,742	-0,43
937,166	-0,43
937,59	-0,43
938,014	-0,46
938,437	-0,47
938,861	-0,49
939,285	-0,5
939,709	-0,49
940,132	-0,5
940,556	-0,5
940,98	-0,5
941,403	-0,48
941,827	-0,49
942,25	-0,49
942,674	-0,48
943,097	-0,47
943,521	-0,45
943,944	-0,46
944,368	-0,46
944,791	-0,44
945,214	-0,46
945,638	-0,47
946,061	-0,5
946,484	-0,51
946,907	-0,5
947,331	-0,5
947,754	-0,55
948,177	-0,52
948,6	-0,53
949,023	-0,52
949,446	-0,53
949,869	-0,5
950,292	-0,5
950,715	-0,47
951,138	-0,45
951,561	-0,42
951,984	-0,42
952,407	-0,4
952,83	-0,38
953,252	-0,34
953,675	-0,35
954,098	-0,36
954,521	-0,35
954,943	-0,34
955,366	-0,35
955,789	-0,34
956,211	-0,36
956,634	-0,37
957,056	-0,34
957,479	-0,35
957,902	-0,37
958,324	-0,37
958,746	-0,35
959,169	-0,37
959,591	-0,37
960,014	-0,38
960,436	-0,38
960,858	-0,37
961,281	-0,37
961,703	-0,39
962,125	-0,4
962,547	-0,38
962,969	-0,38
963,391	-0,39
963,814	-0,4
964,236	-0,39
964,658	-0,36
965,08	-0,37
965,502	-0,36
965,924	-0,34
966,346	-0,33
966,768	-0,32
967,189	-0,35
967,611	-0,34
968,033	-0,34
968,455	-0,31
968,877	-0,32
969,298	-0,33
969,72	-0,34
970,142	-0,34
970,563	-0,35
970,985	-0,33
971,407	-0,33
971,828	-0,31
972,25	-0,3
972,671	-0,29
973,093	-0,29
973,514	-0,28
973,936	-0,26
974,357	-0,25
974,778	-0,25
975,2	-0,25
975,621	-0,25
976,042	-0,23
976,464	-0,22
976,885	-0,21
977,306	-0,2
977,727	-0,2
978,148	-0,19
978,57	-0,18
978,991	-0,16
979,412	-0,14
979,833	-0,13
980,254	-0,12
980,675	-0,13
981,096	-0,12
981,517	-0,11
981,937	-0,11
982,358	-0,09
982,779	-0,08
983,2	-0,08
983,621	-0,08
984,042	-0,07
984,462	-0,07
984,883	-0,06
985,304	-0,04
985,724	-0,04
986,145	-0,03
986,565	-0,01
986,986	-0,01
987,407	-0
987,827	0,01
988,248	0,02
988,668	0,03
989,088	0,04
989,509	0,05
989,929	0,05
990,35	0,06
990,77	0,07
991,19	0,08
991,61	0,09
992,031	0,1
992,451	0,1
992,871	0,11
993,291	0,11
993,711	0,12
994,131	0,12
994,551	0,13
994,971	0,13
995,391	0,13
995,811	0,14
996,231	0,14
996,651	0,14
997,071	0,15
997,491	0,15
997,911	0,16
998,331	0,16
998,75	0,17
999,17	0,17
999,59	0,17
1000,009	0,18
1000,429	0,18
1000,849	0,18
1001,268	0,19
1001,688	0,19
1002,107	0,19
1002,527	0,19
1002,946	0,2
1003,366	0,2
1003,785	0,2
1004,205	0,2
1004,624	0,2
1005,044	0,2
1005,463	0,2
1005,882	0,2
1006,301	0,2
1006,721	0,21
1007,14	0,21
1007,559	0,21
1007,978	0,21
1008,397	0,21
1008,816	0,21
1009,235	0,21
1009,655	0,2
1010,074	0,2
1010,492	0,2
1010,911	0,2
1011,33	0,2
1011,749	0,2
1012,168	0,2
1012,587	0,2
1013,006	0,2
1013,425	0,2
1013,843	0,19
1014,262	0,19
1014,681	0,19
1015,099	0,19
1015,518	0,19
1015,937	0,19
1016,355	0,19
1016,774	0,19
1017,192	0,2
1017,611	0,2
1018,029	0,2
1018,448	0,2
1018,866	0,2
1019,285	0,2
1019,703	0,2
1020,121	0,2
1020,54	0,2
1020,958	0,2
1021,376	0,2
1021,794	0,2
1022,213	0,2
1022,631	0,2
1023,049	0,2
1023,467	0,2
1023,885	0,2
1024,303	0,2
1024,721	0,2
1025,139	0,2
1025,557	0,2
1025,975	0,2
1026,393	0,19
1026,811	0,19
1027,229	0,19
1027,647	0,19
1028,065	0,19
1028,482	0,19
1028,9	0,19
1029,318	0,19
1029,735	0,19
1030,153	0,19
1030,571	0,19
1030,988	0,19
1031,406	0,19
1031,823	0,19
1032,241	0,19
1032,659	0,19
1033,076	0,19
1033,493	0,19
1033,911	0,19
1034,328	0,19
1034,746	0,19
1035,163	0,19
1035,58	0,19
1035,997	0,19
1036,415	0,19
1036,832	0,19
1037,249	0,19
1037,666	0,19
1038,083	0,19
1038,501	0,19
1038,918	0,19
1039,335	0,19
1039,752	0,18
1040,169	0,18
1040,586	0,18
1041,003	0,18
1041,419	0,18
1041,836	0,18
1042,253	0,18
1042,67	0,18
1043,087	0,18
1043,504	0,18
1043,92	0,18
1044,337	0,18
1044,754	0,18
1045,17	0,18
1045,587	0,18
1046,004	0,18
1046,42	0,18
1046,837	0,18
1047,253	0,18
1047,67	0,18
1048,086	0,18
1048,503	0,18
1048,919	0,17
1049,335	0,17
1049,752	0,18
1050,168	0,17
1050,584	0,18
1051,001	0,18
1051,417	0,18
1051,833	0,18
1052,249	0,18
1052,665	0,18
1053,081	0,18
1053,497	0,18
1053,914	0,18
1054,33	0,18
1054,746	0,18
1055,162	0,18
1055,578	0,18
1055,993	0,18
1056,409	0,18
1056,825	0,18
1057,241	0,18
1057,657	0,18
1058,073	0,18
1058,488	0,18
1058,904	0,18
1059,32	0,18
1059,736	0,18
1060,151	0,18
1060,567	0,18
1060,982	0,18
1061,398	0,18
1061,813	0,18
1062,229	0,18
1062,644	0,18
1063,06	0,18
1063,475	0,18
1063,891	0,18
1064,306	0,18
1064,721	0,18
1065,137	0,18
1065,552	0,18
1065,967	0,18
1066,382	0,18
1066,798	0,18
1067,213	0,18
1067,628	0,18
1068,043	0,18
1068,458	0,18
1068,873	0,18
1069,288	0,18
1069,703	0,18
1070,118	0,18
1070,533	0,18
1070,948	0,18
1071,363	0,18
1071,778	0,19
1072,193	0,19
1072,607	0,19
1073,022	0,19
1073,437	0,19
1073,852	0,19
1074,266	0,19
1074,681	0,19
1075,096	0,19
1075,51	0,19
1075,925	0,19
1076,339	0,19
1076,754	0,19
1077,168	0,19
1077,583	0,19
1077,997	0,19
1078,412	0,19
1078,826	0,19
1079,24	0,18
1079,655	0,18
1080,069	0,18
1080,483	0,18
1080,897	0,18
1081,312	0,18
1081,726	0,18
1082,14	0,18
1082,554	0,18
1082,968	0,18
1083,382	0,18
1083,796	0,18
1084,21	0,18
1084,624	0,18
1085,038	0,17
1085,452	0,17
1085,866	0,17
1086,28	0,17
1086,694	0,17
1087,108	0,17
1087,521	0,17
1087,935	0,17
1088,349	0,17
1088,763	0,17
1089,176	0,16
1089,59	0,16
1090,004	0,16
1090,417	0,16
1090,831	0,16
1091,244	0,16
1091,658	0,15
1092,071	0,15
1092,485	0,15
1092,898	0,15
1093,312	0,15
1093,725	0,15
1094,138	0,15
1094,552	0,15
1094,965	0,15
1095,378	0,14
1095,791	0,14
1096,205	0,14
1096,618	0,14
1097,031	0,14
1097,444	0,14
1097,857	0,14
1098,27	0,14
1098,683	0,14
1099,096	0,13
1099,509	0,13
1099,922	0,13
1100,335	0,13
1100,748	0,12
1101,161	0,12
1101,574	0,12
1101,986	0,12
1102,399	0,12
1102,812	0,11
1103,225	0,11
1103,637	0,11
1104,05	0,11
1104,463	0,11
1104,875	0,11
1105,288	0,1
1105,7	0,1
1106,113	0,1
1106,525	0,1
1106,938	0,1
1107,35	0,09
1107,763	0,09
1108,175	0,09
1108,588	0,09
1109	0,08
1109,412	0,08
1109,824	0,08
1110,237	0,08
1110,649	0,08
1111,061	0,06
