Data from 18C-808nm-8A_Absorbance__254__00254.txt Node

Date: Mon Jul 17 16:26:58 CEST 2023
User: Laser008
Spectrometer: MAYP115816
Trigger mode: 0
Integration Time (sec): 2,500000E-1
Scans to average: 10
Electric dark correction enabled: true
Nonlinearity correction enabled: true
Boxcar width: 5
XAxis mode: Wavelengths
Number of Pixels in Spectrum: 2068
>>>>>Begin Spectral Data<<<<<
198,914	-0,53
199,384	-0,37
199,855	-0,26
200,325	-0,22
200,796	-0,18
201,266	-0,13
201,737	-0,11
202,207	-0,11
202,677	-0,1
203,147	-0,08
203,618	-0,06
204,088	-0,04
204,558	-0,03
205,028	-0,03
205,498	-0,03
205,968	-0,04
206,439	-0,06
206,909	-0,06
207,379	-0,05
207,849	-0,06
208,319	-0,07
208,789	-0,08
209,258	-0,07
209,728	-0,08
210,198	-0,08
210,668	-0,08
211,138	-0,07
211,608	-0,07
212,077	-0,07
212,547	-0,07
213,017	-0,07
213,486	-0,06
213,956	-0,06
214,426	-0,07
214,895	-0,07
215,365	-0,07
215,834	-0,08
216,304	-0,08
216,773	-0,08
217,243	-0,1
217,712	-0,11
218,181	-0,11
218,651	-0,12
219,12	-0,11
219,589	-0,1
220,058	-0,09
220,528	-0,09
220,997	-0,09
221,466	-0,1
221,935	-0,1
222,404	-0,09
222,873	-0,09
223,342	-0,08
223,812	-0,08
224,281	-0,08
224,749	-0,09
225,218	-0,11
225,687	-0,11
226,156	-0,11
226,625	-0,1
227,094	-0,09
227,563	-0,09
228,031	-0,11
228,5	-0,11
228,969	-0,12
229,438	-0,12
229,906	-0,12
230,375	-0,1
230,844	-0,1
231,312	-0,1
231,781	-0,1
232,249	-0,09
232,718	-0,08
233,186	-0,06
233,655	-0,07
234,123	-0,07
234,591	-0,07
235,06	-0,07
235,528	-0,08
235,996	-0,08
236,465	-0,08
236,933	-0,09
237,401	-0,09
237,869	-0,08
238,337	-0,09
238,805	-0,08
239,274	-0,08
239,742	-0,07
240,21	-0,07
240,678	-0,06
241,146	-0,05
241,614	-0,05
242,081	-0,05
242,549	-0,05
243,017	-0,06
243,485	-0,05
243,953	-0,05
244,421	-0,05
244,888	-0,05
245,356	-0,05
245,824	-0,05
246,291	-0,05
246,759	-0,05
247,227	-0,06
247,694	-0,05
248,162	-0,04
248,629	-0,04
249,097	-0,04
249,564	-0,05
250,032	-0,06
250,499	-0,06
250,967	-0,07
251,434	-0,07
251,901	-0,07
252,369	-0,06
252,836	-0,07
253,303	-0,07
253,77	-0,08
254,237	-0,08
254,705	-0,08
255,172	-0,07
255,639	-0,07
256,106	-0,08
256,573	-0,08
257,04	-0,08
257,507	-0,09
257,974	-0,09
258,441	-0,07
258,908	-0,08
259,375	-0,08
259,841	-0,09
260,308	-0,1
260,775	-0,09
261,242	-0,08
261,709	-0,08
262,175	-0,09
262,642	-0,09
263,109	-0,09
263,575	-0,1
264,042	-0,09
264,508	-0,09
264,975	-0,1
265,441	-0,11
265,908	-0,13
266,374	-0,11
266,841	-0,12
267,307	-0,12
267,773	-0,11
268,24	-0,11
268,706	-0,11
269,172	-0,12
269,639	-0,12
270,105	-0,1
270,571	-0,1
271,037	-0,08
271,503	-0,11
271,969	-0,1
272,435	-0,1
272,902	-0,13
273,368	-0,13
273,834	-0,13
274,3	-0,13
274,765	-0,14
275,231	-0,13
275,697	-0,13
276,163	-0,12
276,629	-0,12
277,095	-0,11
277,56	-0,11
278,026	-0,11
278,492	-0,09
278,958	-0,09
279,423	-0,1
279,889	-0,08
280,354	-0,08
280,82	-0,08
281,286	-0,1
281,751	-0,08
282,217	-0,08
282,682	-0,07
283,147	-0,07
283,613	-0,07
284,078	-0,07
284,544	-0,07
285,009	-0,09
285,474	-0,09
285,939	-0,1
286,405	-0,09
286,87	-0,08
287,335	-0,09
287,8	-0,09
288,265	-0,08
288,73	-0,09
289,195	-0,11
289,66	-0,12
290,125	-0,1
290,59	-0,11
291,055	-0,1
291,52	-0,12
291,985	-0,12
292,45	-0,13
292,915	-0,12
293,38	-0,12
293,844	-0,11
294,309	-0,09
294,774	-0,07
295,239	-0,1
295,703	-0,09
296,168	-0,08
296,632	-0,08
297,097	-0,08
297,562	-0,07
298,026	-0,07
298,491	-0,07
298,955	-0,07
299,419	-0,07
299,884	-0,07
300,348	-0,05
300,813	-0,05
301,277	-0,06
301,741	-0,06
302,205	-0,06
302,67	-0,05
303,134	-0,05
303,598	-0,05
304,062	-0,05
304,526	-0,04
304,99	-0,06
305,454	-0,06
305,919	-0,06
306,383	-0,06
306,847	-0,05
307,31	-0,06
307,774	-0,07
308,238	-0,07
308,702	-0,07
309,166	-0,09
309,63	-0,08
310,094	-0,05
310,557	-0,06
311,021	-0,05
311,485	-0,04
311,948	-0,04
312,412	-0,04
312,876	-0,03
313,339	-0,03
313,803	-0,04
314,266	-0,02
314,73	-0,03
315,193	-0,04
315,657	-0,04
316,12	-0,04
316,584	-0,03
317,047	-0,03
317,51	-0,03
317,973	-0,02
318,437	-0,01
318,9	0
319,363	0
319,826	0,02
320,29	0,02
320,753	0,01
321,216	0,02
321,679	0,01
322,142	0,02
322,605	0
323,068	-0
323,531	-0,01
323,994	-0,02
324,457	-0,02
324,92	-0,01
325,382	-0,02
325,845	-0,01
326,308	-0
326,771	0
327,233	-0
327,696	0
328,159	0,01
328,622	0,02
329,084	0,02
329,547	0,03
330,009	0,03
330,472	0,04
330,934	0,05
331,397	0,05
331,859	0,06
332,322	0,06
332,784	0,07
333,246	0,07
333,709	0,06
334,171	0,07
334,633	0,06
335,096	0,06
335,558	0,06
336,02	0,05
336,482	0,06
336,944	0,06
337,406	0,07
337,868	0,07
338,331	0,07
338,793	0,07
339,255	0,07
339,717	0,08
340,178	0,08
340,64	0,08
341,102	0,08
341,564	0,08
342,026	0,08
342,488	0,08
342,949	0,08
343,411	0,09
343,873	0,1
344,335	0,12
344,796	0,14
345,258	0,15
345,719	0,17
346,181	0,18
346,643	0,2
347,104	0,2
347,566	0,22
348,027	0,22
348,488	0,23
348,95	0,24
349,411	0,24
349,873	0,24
350,334	0,25
350,795	0,25
351,256	0,25
351,718	0,26
352,179	0,26
352,64	0,26
353,101	0,26
353,562	0,26
354,023	0,26
354,484	0,26
354,945	0,26
355,406	0,26
355,867	0,26
356,328	0,26
356,789	0,27
357,25	0,27
357,711	0,27
358,172	0,27
358,633	0,27
359,093	0,27
359,554	0,27
360,015	0,27
360,476	0,27
360,936	0,27
361,397	0,27
361,858	0,27
362,318	0,27
362,779	0,27
363,239	0,27
363,7	0,27
364,16	0,27
364,621	0,27
365,081	0,27
365,541	0,27
366,002	0,27
366,462	0,27
366,922	0,27
367,383	0,27
367,843	0,27
368,303	0,27
368,763	0,27
369,223	0,27
369,684	0,27
370,144	0,27
370,604	0,27
371,064	0,27
371,524	0,27
371,984	0,27
372,444	0,27
372,904	0,27
373,363	0,27
373,823	0,27
374,283	0,27
374,743	0,27
375,203	0,27
375,663	0,26
376,122	0,26
376,582	0,26
377,042	0,26
377,501	0,26
377,961	0,26
378,42	0,26
378,88	0,26
379,34	0,26
379,799	0,26
380,259	0,26
380,718	0,26
381,177	0,26
381,637	0,26
382,096	0,26
382,555	0,26
383,015	0,26
383,474	0,26
383,933	0,26
384,393	0,26
384,852	0,26
385,311	0,26
385,77	0,26
386,229	0,26
386,688	0,26
387,147	0,26
387,606	0,26
388,065	0,26
388,524	0,26
388,983	0,26
389,442	0,26
389,901	0,26
390,36	0,26
390,819	0,26
391,277	0,26
391,736	0,26
392,195	0,26
392,654	0,26
393,112	0,26
393,571	0,26
394,03	0,26
394,488	0,26
394,947	0,26
395,405	0,26
395,864	0,26
396,322	0,26
396,781	0,26
397,239	0,26
397,698	0,26
398,156	0,26
398,614	0,26
399,073	0,26
399,531	0,26
399,989	0,25
400,447	0,25
400,905	0,25
401,364	0,25
401,822	0,25
402,28	0,25
402,738	0,25
403,196	0,25
403,654	0,25
404,112	0,25
404,57	0,25
405,028	0,25
405,486	0,25
405,944	0,25
406,402	0,25
406,859	0,25
407,317	0,25
407,775	0,25
408,233	0,25
408,691	0,25
409,148	0,25
409,606	0,25
410,064	0,25
410,521	0,25
410,979	0,25
411,436	0,25
411,894	0,25
412,351	0,25
412,809	0,25
413,266	0,25
413,724	0,25
414,181	0,25
414,638	0,25
415,096	0,25
415,553	0,25
416,01	0,25
416,467	0,25
416,925	0,25
417,382	0,25
417,839	0,25
418,296	0,25
418,753	0,25
419,21	0,25
419,667	0,25
420,124	0,25
420,581	0,25
421,038	0,25
421,495	0,25
421,952	0,25
422,409	0,25
422,866	0,25
423,322	0,25
423,779	0,25
424,236	0,25
424,693	0,25
425,149	0,25
425,606	0,25
426,063	0,25
426,519	0,25
426,976	0,25
427,433	0,25
427,889	0,25
428,346	0,25
428,802	0,25
429,258	0,25
429,715	0,24
430,171	0,24
430,628	0,24
431,084	0,24
431,54	0,24
431,997	0,24
432,453	0,24
432,909	0,24
433,365	0,24
433,821	0,24
434,277	0,24
434,734	0,24
435,19	0,24
435,646	0,24
436,102	0,24
436,558	0,24
437,014	0,24
437,47	0,24
437,925	0,24
438,381	0,24
438,837	0,24
439,293	0,24
439,749	0,24
440,205	0,24
440,66	0,24
441,116	0,24
441,572	0,24
442,027	0,24
442,483	0,24
442,939	0,24
443,394	0,24
443,85	0,24
444,305	0,24
444,761	0,24
445,216	0,24
445,672	0,24
446,127	0,24
446,582	0,24
447,038	0,24
447,493	0,24
447,948	0,24
448,403	0,24
448,859	0,24
449,314	0,24
449,769	0,24
450,224	0,24
450,679	0,24
451,134	0,24
451,589	0,24
452,044	0,24
452,499	0,24
452,954	0,24
453,409	0,24
453,864	0,24
454,319	0,24
454,774	0,24
455,229	0,24
455,684	0,24
456,138	0,24
456,593	0,24
457,048	0,24
457,503	0,24
457,957	0,24
458,412	0,24
458,866	0,24
459,321	0,24
459,776	0,24
460,23	0,24
460,685	0,24
461,139	0,24
461,593	0,24
462,048	0,24
462,502	0,24
462,957	0,24
463,411	0,24
463,865	0,24
464,319	0,24
464,774	0,24
465,228	0,24
465,682	0,24
466,136	0,24
466,59	0,24
467,044	0,24
467,499	0,24
467,953	0,24
468,407	0,25
468,861	0,25
469,315	0,25
469,768	0,25
470,222	0,25
470,676	0,25
471,13	0,25
471,584	0,25
472,038	0,25
472,491	0,25
472,945	0,25
473,399	0,25
473,852	0,25
474,306	0,25
474,76	0,25
475,213	0,25
475,667	0,25
476,12	0,25
476,574	0,25
477,027	0,25
477,481	0,25
477,934	0,25
478,388	0,25
478,841	0,25
479,294	0,25
479,748	0,25
480,201	0,25
480,654	0,25
481,107	0,25
481,561	0,25
482,014	0,26
482,467	0,26
482,92	0,26
483,373	0,26
483,826	0,26
484,279	0,26
484,732	0,26
485,185	0,26
485,638	0,26
486,091	0,26
486,544	0,26
486,997	0,26
487,449	0,26
487,902	0,26
488,355	0,26
488,808	0,27
489,26	0,27
489,713	0,27
490,166	0,27
490,618	0,27
491,071	0,27
491,523	0,27
491,976	0,27
492,429	0,27
492,881	0,28
493,333	0,28
493,786	0,28
494,238	0,28
494,691	0,28
495,143	0,28
495,595	0,28
496,048	0,28
496,5	0,29
496,952	0,29
497,404	0,29
497,856	0,29
498,309	0,29
498,761	0,29
499,213	0,29
499,665	0,3
500,117	0,3
500,569	0,3
501,021	0,3
501,473	0,3
501,925	0,3
502,377	0,31
502,828	0,31
503,28	0,31
503,732	0,31
504,184	0,31
504,636	0,31
505,087	0,32
505,539	0,32
505,991	0,32
506,442	0,32
506,894	0,32
507,345	0,32
507,797	0,33
508,249	0,33
508,7	0,33
509,151	0,33
509,603	0,33
510,054	0,33
510,506	0,34
510,957	0,34
511,408	0,34
511,86	0,34
512,311	0,34
512,762	0,34
513,213	0,34
513,665	0,35
514,116	0,35
514,567	0,35
515,018	0,35
515,469	0,35
515,92	0,35
516,371	0,36
516,822	0,36
517,273	0,36
517,724	0,36
518,175	0,36
518,626	0,36
519,076	0,36
519,527	0,37
519,978	0,37
520,429	0,37
520,88	0,37
521,33	0,37
521,781	0,37
522,232	0,37
522,682	0,37
523,133	0,37
523,583	0,38
524,034	0,38
524,484	0,38
524,935	0,38
525,385	0,38
525,836	0,38
526,286	0,38
526,736	0,38
527,187	0,38
527,637	0,38
528,087	0,38
528,538	0,38
528,988	0,38
529,438	0,38
529,888	0,38
530,338	0,38
530,788	0,38
531,238	0,38
531,688	0,38
532,139	0,38
532,589	0,38
533,038	0,38
533,488	0,38
533,938	0,38
534,388	0,38
534,838	0,38
535,288	0,38
535,738	0,38
536,187	0,38
536,637	0,38
537,087	0,38
537,537	0,38
537,986	0,38
538,436	0,37
538,885	0,37
539,335	0,37
539,785	0,37
540,234	0,37
540,684	0,37
541,133	0,37
541,582	0,36
542,032	0,36
542,481	0,36
542,931	0,36
543,38	0,36
543,829	0,36
544,278	0,36
544,728	0,36
545,177	0,36
545,626	0,36
546,075	0,36
546,524	0,35
546,973	0,35
547,422	0,35
547,871	0,35
548,32	0,35
548,769	0,35
549,218	0,35
549,667	0,35
550,116	0,35
550,565	0,35
551,014	0,35
551,463	0,35
551,911	0,35
552,36	0,35
552,809	0,34
553,258	0,34
553,706	0,34
554,155	0,34
554,603	0,34
555,052	0,34
555,501	0,34
555,949	0,34
556,398	0,33
556,846	0,33
557,294	0,33
557,743	0,33
558,191	0,33
558,64	0,33
559,088	0,33
559,536	0,33
559,985	0,32
560,433	0,32
560,881	0,32
561,329	0,32
561,777	0,32
562,225	0,32
562,674	0,32
563,122	0,32
563,57	0,32
564,018	0,32
564,466	0,32
564,914	0,31
565,362	0,31
565,809	0,31
566,257	0,31
566,705	0,31
567,153	0,31
567,601	0,31
568,048	0,31
568,496	0,31
568,944	0,3
569,392	0,3
569,839	0,3
570,287	0,3
570,734	0,3
571,182	0,3
571,63	0,3
572,077	0,3
572,525	0,3
572,972	0,3
573,419	0,3
573,867	0,3
574,314	0,29
574,761	0,29
575,209	0,29
575,656	0,29
576,103	0,29
576,551	0,29
576,998	0,29
577,445	0,29
577,892	0,29
578,339	0,29
578,786	0,29
579,233	0,29
579,68	0,29
580,127	0,28
580,574	0,28
581,021	0,28
581,468	0,28
581,915	0,28
582,362	0,28
582,809	0,28
583,255	0,28
583,702	0,28
584,149	0,28
584,596	0,28
585,042	0,28
585,489	0,28
585,936	0,28
586,382	0,28
586,829	0,27
587,275	0,27
587,722	0,27
588,168	0,27
588,615	0,27
589,061	0,27
589,508	0,27
589,954	0,27
590,4	0,27
590,847	0,27
591,293	0,27
591,739	0,27
592,185	0,27
592,632	0,27
593,078	0,27
593,524	0,27
593,97	0,27
594,416	0,27
594,862	0,27
595,308	0,27
595,754	0,27
596,2	0,27
596,646	0,26
597,092	0,26
597,538	0,26
597,984	0,26
598,43	0,26
598,876	0,26
599,321	0,26
599,767	0,26
600,213	0,26
600,659	0,26
601,104	0,26
601,55	0,26
601,995	0,26
602,441	0,26
602,887	0,26
603,332	0,26
603,778	0,26
604,223	0,26
604,668	0,26
605,114	0,26
605,559	0,26
606,005	0,26
606,45	0,26
606,895	0,26
607,341	0,26
607,786	0,26
608,231	0,25
608,676	0,25
609,121	0,25
609,566	0,25
610,012	0,25
610,457	0,24
610,902	0,24
611,347	0,24
611,792	0,24
612,237	0,24
612,682	0,24
613,127	0,24
613,571	0,24
614,016	0,24
614,461	0,24
614,906	0,24
615,351	0,24
615,795	0,24
616,24	0,24
616,685	0,24
617,129	0,24
617,574	0,24
618,019	0,24
618,463	0,24
618,908	0,24
619,352	0,24
619,797	0,24
620,241	0,24
620,686	0,24
621,13	0,24
621,574	0,24
622,019	0,24
622,463	0,24
622,907	0,24
623,352	0,24
623,796	0,24
624,24	0,24
624,684	0,24
625,128	0,24
625,572	0,24
626,016	0,24
626,461	0,24
626,905	0,24
627,349	0,24
627,793	0,24
628,236	0,24
628,68	0,24
629,124	0,24
629,568	0,24
630,012	0,24
630,456	0,24
630,9	0,24
631,343	0,24
631,787	0,24
632,231	0,24
632,674	0,24
633,118	0,24
633,562	0,24
634,005	0,24
634,449	0,24
634,892	0,24
635,336	0,24
635,779	0,24
636,223	0,24
636,666	0,24
637,109	0,24
637,553	0,24
637,996	0,24
638,439	0,24
638,883	0,24
639,326	0,24
639,769	0,23
640,212	0,23
640,655	0,23
641,099	0,23
641,542	0,23
641,985	0,23
642,428	0,23
642,871	0,23
643,314	0,23
643,757	0,23
644,2	0,23
644,643	0,23
645,085	0,23
645,528	0,23
645,971	0,23
646,414	0,23
646,857	0,23
647,299	0,23
647,742	0,23
648,185	0,23
648,627	0,23
649,07	0,23
649,513	0,23
649,955	0,23
650,398	0,23
650,84	0,23
651,283	0,23
651,725	0,23
652,168	0,23
652,61	0,23
653,052	0,23
653,495	0,23
653,937	0,18
654,379	0,15
654,821	0,15
655,264	0,15
655,706	0,15
656,148	0,15
656,59	0,15
657,032	0,15
657,474	0,15
657,916	0,15
658,358	0,15
658,8	0,18
659,242	0,22
659,684	0,23
660,126	0,23
660,568	0,23
661,01	0,22
661,452	0,22
661,894	0,22
662,335	0,22
662,777	0,22
663,219	0,22
663,661	0,22
664,102	0,22
664,544	0,22
664,985	0,22
665,427	0,22
665,869	0,22
666,31	0,22
666,752	0,22
667,193	0,22
667,634	0,22
668,076	0,22
668,517	0,22
668,959	0,22
669,4	0,22
669,841	0,22
670,282	0,22
670,724	0,22
671,165	0,22
671,606	0,22
672,047	0,22
672,488	0,22
672,929	0,22
673,37	0,22
673,811	0,22
674,252	0,22
674,693	0,22
675,134	0,22
675,575	0,22
676,016	0,22
676,457	0,22
676,898	0,22
677,339	0,22
677,78	0,22
678,22	0,22
678,661	0,22
679,102	0,21
679,542	0,21
679,983	0,21
680,424	0,21
680,864	0,21
681,305	0,21
681,745	0,21
682,186	0,21
682,626	0,22
683,067	0,22
683,507	0,22
683,948	0,22
684,388	0,22
684,828	0,22
685,269	0,22
685,709	0,22
686,149	0,22
686,589	0,22
687,029	0,21
687,47	0,21
687,91	0,21
688,35	0,21
688,79	0,21
689,23	0,21
689,67	0,21
690,11	0,21
690,55	0,21
690,99	0,21
691,43	0,21
691,87	0,21
692,31	0,21
692,749	0,21
693,189	0,21
693,629	0,21
694,069	0,21
694,508	0,2
694,948	0,2
695,388	0,2
695,827	0,2
696,267	0,21
696,706	0,21
697,146	0,21
697,586	0,21
698,025	0,21
698,464	0,21
698,904	0,21
699,343	0,21
699,783	0,21
700,222	0,21
700,661	0,21
701,101	0,21
701,54	0,21
701,979	0,21
702,418	0,21
702,857	0,21
703,297	0,21
703,736	0,2
704,175	0,2
704,614	0,2
705,053	0,2
705,492	0,2
705,931	0,2
706,37	0,2
706,809	0,2
707,248	0,2
707,687	0,2
708,125	0,2
708,564	0,2
709,003	0,2
709,442	0,2
709,88	0,2
710,319	0,2
710,758	0,2
711,196	0,2
711,635	0,2
712,074	0,2
712,512	0,2
712,951	0,2
713,389	0,2
713,828	0,2
714,266	0,2
714,705	0,2
715,143	0,19
715,581	0,19
716,02	0,19
716,458	0,19
716,896	0,19
717,334	0,19
717,773	0,19
718,211	0,19
718,649	0,19
719,087	0,19
719,525	0,19
719,963	0,19
720,401	0,19
720,839	0,19
721,277	0,19
721,715	0,19
722,153	0,19
722,591	0,19
723,029	0,19
723,467	0,19
723,905	0,19
724,342	0,19
724,78	0,19
725,218	0,19
725,656	0,19
726,093	0,19
726,531	0,19
726,969	0,19
727,406	0,19
727,844	0,19
728,281	0,19
728,719	0,19
729,156	0,19
729,594	0,19
730,031	0,19
730,469	0,19
730,906	0,19
731,343	0,19
731,781	0,19
732,218	0,19
732,655	0,19
733,092	0,18
733,53	0,18
733,967	0,18
734,404	0,18
734,841	0,18
735,278	0,18
735,715	0,18
736,152	0,18
736,589	0,18
737,026	0,18
737,463	0,18
737,9	0,18
738,337	0,18
738,774	0,18
739,211	0,18
739,647	0,18
740,084	0,17
740,521	0,17
740,958	0,17
741,394	0,17
741,831	0,17
742,268	0,17
742,704	0,17
743,141	0,17
743,577	0,17
744,014	0,17
744,45	0,17
744,887	0,17
745,323	0,17
745,76	0,17
746,196	0,17
746,632	0,17
747,069	0,17
747,505	0,17
747,941	0,17
748,378	0,17
748,814	0,17
749,25	0,17
749,686	0,17
750,122	0,17
750,558	0,17
750,994	0,17
751,43	0,17
751,866	0,18
752,302	0,18
752,738	0,18
753,174	0,18
753,61	0,18
754,046	0,18
754,482	0,18
754,918	0,18
755,354	0,18
755,789	0,18
756,225	0,18
756,661	0,18
757,096	0,18
757,532	0,18
757,968	0,18
758,403	0,18
758,839	0,18
759,274	0,18
759,71	0,17
760,145	0,17
760,581	0,17
761,016	0,17
761,452	0,16
761,887	0,16
762,322	0,16
762,758	0,16
763,193	0,15
763,628	0,15
764,063	0,15
764,499	0,14
764,934	0,14
765,369	0,14
765,804	0,13
766,239	0,13
766,674	0,13
767,109	0,12
767,544	0,12
767,979	0,12
768,414	0,11
768,849	0,1
769,284	0,1
769,719	0,1
770,154	0,09
770,588	0,09
771,023	0,08
771,458	0,08
771,893	0,07
772,327	0,07
772,762	0,07
773,197	0,06
773,631	0,06
774,066	0,06
774,5	0,05
774,935	0,05
775,369	0,04
775,804	0,04
776,238	0,03
776,673	0,03
777,107	0,02
777,541	0,01
777,976	0,01
778,41	0
778,844	-0
779,279	-0,01
779,713	-0,01
780,147	-0,02
780,581	-0,02
781,015	-0,03
781,449	-0,04
781,883	-0,04
782,317	-0,05
782,751	-0,06
783,185	-0,06
783,619	-0,07
784,053	-0,08
784,487	-0,09
784,921	-0,09
785,355	-0,1
785,789	-0,11
786,223	-0,12
786,656	-0,13
787,09	-0,14
787,524	-0,15
787,957	-0,16
788,391	-0,18
788,825	-0,19
789,258	-0,21
789,692	-0,23
790,125	-0,25
790,559	-0,26
790,992	-0,28
791,426	-0,31
791,859	-0,33
792,293	-0,36
792,726	-0,39
793,159	-0,41
793,593	-0,43
794,026	-0,46
794,459	-0,49
794,892	-0,52
795,326	-0,56
795,759	-0,6
796,192	-0,65
796,625	-0,7
797,058	-0,74
797,491	-0,79
797,924	-0,83
798,357	-0,89
798,79	-0,94
799,223	-0,99
799,656	-1,05
800,089	-1,1
800,522	-1,15
800,955	-1,2
801,387	-1,26
801,82	-1,32
802,253	-1,38
802,686	-1,47
803,118	-1,53
803,551	-1,59
803,984	-1,65
804,416	-1,76
804,849	-1,98
805,281	-2,32
805,714	-2,56
806,146	-2,77
806,579	-2,94
807,011	-3,05
807,444	-3,06
807,876	-3,09
808,308	-3,11
808,741	-3,13
809,173	-3,18
809,605	-3,18
810,037	-3,19
810,47	-3,04
810,902	-2,79
811,334	-2,57
811,766	-2,21
812,198	-1,93
812,63	-1,79
813,062	-1,72
813,494	-1,65
813,926	-1,57
814,358	-1,52
814,79	-1,44
815,222	-1,38
815,654	-1,34
816,086	-1,27
816,518	-1,22
816,949	-1,17
817,381	-1,12
817,813	-1,1
818,245	-1,06
818,676	-1,02
819,108	-0,98
819,54	-0,97
819,971	-0,94
820,403	-0,89
820,834	-0,87
821,266	-0,83
821,697	-0,8
822,129	-0,78
822,56	-0,75
822,991	-0,73
823,423	-0,7
823,854	-0,69
824,286	-0,66
824,717	-0,64
825,148	-0,62
825,579	-0,61
826,01	-0,59
826,442	-0,58
826,873	-0,56
827,304	-0,52
827,735	-0,51
828,166	-0,5
828,597	-0,5
829,028	-0,49
829,459	-0,49
829,89	-0,49
830,321	-0,45
830,752	-0,45
831,183	-0,43
831,613	-0,43
832,044	-0,43
832,475	-0,42
832,906	-0,43
833,336	-0,43
833,767	-0,44
834,198	-0,44
834,628	-0,42
835,059	-0,46
835,49	-0,46
835,92	-0,43
836,351	-0,42
836,781	-0,42
837,212	-0,44
837,642	-0,44
838,072	-0,42
838,503	-0,43
838,933	-0,4
839,364	-0,42
839,794	-0,38
840,224	-0,38
840,654	-0,42
841,085	-0,43
841,515	-0,41
841,945	-0,41
842,375	-0,36
842,805	-0,35
843,235	-0,34
843,665	-0,35
844,095	-0,32
844,525	-0,34
844,955	-0,33
845,385	-0,3
845,815	-0,29
846,245	-0,3
846,675	-0,31
847,105	-0,32
847,534	-0,33
847,964	-0,31
848,394	-0,29
848,824	-0,34
849,253	-0,33
849,683	-0,34
850,112	-0,36
850,542	-0,38
850,972	-0,38
851,401	-0,36
851,831	-0,35
852,26	-0,34
852,69	-0,37
853,119	-0,36
853,548	-0,36
853,978	-0,36
854,407	-0,35
854,836	-0,35
855,266	-0,34
855,695	-0,35
856,124	-0,36
856,553	-0,37
856,983	-0,39
857,412	-0,39
857,841	-0,41
858,27	-0,4
858,699	-0,41
859,128	-0,44
859,557	-0,45
859,986	-0,46
860,415	-0,44
860,844	-0,42
861,273	-0,42
861,702	-0,42
862,13	-0,4
862,559	-0,42
862,988	-0,41
863,417	-0,39
863,845	-0,37
864,274	-0,39
864,703	-0,39
865,131	-0,39
865,56	-0,39
865,989	-0,42
866,417	-0,39
866,846	-0,4
867,274	-0,38
867,703	-0,4
868,131	-0,41
868,559	-0,41
868,988	-0,41
869,416	-0,39
869,844	-0,4
870,273	-0,43
870,701	-0,39
871,129	-0,42
871,557	-0,44
871,986	-0,45
872,414	-0,47
872,842	-0,45
873,27	-0,44
873,698	-0,41
874,126	-0,46
874,554	-0,45
874,982	-0,46
875,41	-0,49
875,838	-0,45
876,266	-0,43
876,694	-0,44
877,122	-0,41
877,549	-0,45
877,977	-0,43
878,405	-0,47
878,833	-0,44
879,26	-0,42
879,688	-0,41
880,116	-0,4
880,543	-0,37
880,971	-0,36
881,399	-0,37
881,826	-0,4
882,254	-0,38
882,681	-0,41
883,109	-0,36
883,536	-0,37
883,963	-0,38
884,391	-0,36
884,818	-0,35
885,245	-0,39
885,673	-0,42
886,1	-0,39
886,527	-0,39
886,954	-0,36
887,381	-0,37
887,809	-0,4
888,236	-0,42
888,663	-0,43
889,09	-0,47
889,517	-0,49
889,944	-0,5
890,371	-0,48
890,798	-0,49
891,225	-0,48
891,652	-0,52
892,078	-0,5
892,505	-0,51
892,932	-0,46
893,359	-0,47
893,786	-0,46
894,212	-0,43
894,639	-0,44
895,066	-0,45
895,492	-0,4
895,919	-0,39
896,346	-0,37
896,772	-0,36
897,199	-0,33
897,625	-0,35
898,052	-0,32
898,478	-0,3
898,904	-0,31
899,331	-0,31
899,757	-0,32
900,183	-0,34
900,61	-0,34
901,036	-0,36
901,462	-0,36
901,888	-0,36
902,315	-0,35
902,741	-0,4
903,167	-0,4
903,593	-0,43
904,019	-0,4
904,445	-0,38
904,871	-0,41
905,297	-0,43
905,723	-0,42
906,149	-0,41
906,575	-0,4
907,001	-0,38
907,427	-0,35
907,852	-0,36
908,278	-0,36
908,704	-0,34
909,13	-0,33
909,555	-0,33
909,981	-0,32
910,407	-0,32
910,832	-0,32
911,258	-0,34
911,684	-0,36
912,109	-0,37
912,535	-0,37
912,96	-0,33
913,386	-0,37
913,811	-0,38
914,236	-0,39
914,662	-0,36
915,087	-0,4
915,512	-0,4
915,938	-0,41
916,363	-0,4
916,788	-0,41
917,213	-0,39
917,639	-0,45
918,064	-0,42
918,489	-0,42
918,914	-0,43
919,339	-0,44
919,764	-0,41
920,189	-0,42
920,614	-0,45
921,039	-0,45
921,464	-0,4
921,889	-0,42
922,314	-0,42
922,738	-0,45
923,163	-0,46
923,588	-0,46
924,013	-0,46
924,437	-0,46
924,862	-0,48
925,287	-0,44
925,711	-0,45
926,136	-0,48
926,561	-0,47
926,985	-0,45
927,41	-0,42
927,834	-0,41
928,259	-0,39
928,683	-0,37
929,108	-0,34
929,532	-0,35
929,956	-0,34
930,381	-0,33
930,805	-0,32
931,229	-0,31
931,653	-0,29
932,078	-0,29
932,502	-0,3
932,926	-0,31
933,35	-0,31
933,774	-0,31
934,198	-0,28
934,622	-0,28
935,046	-0,29
935,47	-0,29
935,894	-0,3
936,318	-0,3
936,742	-0,3
937,166	-0,31
937,59	-0,3
938,014	-0,32
938,437	-0,33
938,861	-0,35
939,285	-0,36
939,709	-0,35
940,132	-0,35
940,556	-0,37
940,98	-0,36
941,403	-0,35
941,827	-0,33
942,25	-0,34
942,674	-0,33
943,097	-0,33
943,521	-0,32
943,944	-0,31
944,368	-0,3
944,791	-0,29
945,214	-0,3
945,638	-0,3
946,061	-0,33
946,484	-0,34
946,907	-0,33
947,331	-0,33
947,754	-0,36
948,177	-0,34
948,6	-0,34
949,023	-0,34
949,446	-0,33
949,869	-0,31
950,292	-0,31
950,715	-0,28
951,138	-0,28
951,561	-0,25
951,984	-0,24
952,407	-0,24
952,83	-0,22
953,252	-0,19
953,675	-0,21
954,098	-0,22
954,521	-0,21
954,943	-0,2
955,366	-0,22
955,789	-0,2
956,211	-0,22
956,634	-0,24
957,056	-0,22
957,479	-0,23
957,902	-0,25
958,324	-0,25
958,746	-0,23
959,169	-0,24
959,591	-0,26
960,014	-0,27
960,436	-0,26
960,858	-0,25
961,281	-0,25
961,703	-0,27
962,125	-0,28
962,547	-0,26
962,969	-0,26
963,391	-0,27
963,814	-0,28
964,236	-0,26
964,658	-0,23
965,08	-0,24
965,502	-0,24
965,924	-0,22
966,346	-0,21
966,768	-0,21
967,189	-0,23
967,611	-0,22
968,033	-0,22
968,455	-0,2
968,877	-0,22
969,298	-0,25
969,72	-0,25
970,142	-0,24
970,563	-0,24
970,985	-0,24
971,407	-0,23
971,828	-0,21
972,25	-0,21
972,671	-0,19
973,093	-0,19
973,514	-0,17
973,936	-0,16
974,357	-0,14
974,778	-0,15
975,2	-0,15
975,621	-0,14
976,042	-0,13
976,464	-0,12
976,885	-0,12
977,306	-0,12
977,727	-0,12
978,148	-0,11
978,57	-0,1
978,991	-0,09
979,412	-0,07
979,833	-0,06
980,254	-0,06
980,675	-0,07
981,096	-0,06
981,517	-0,05
981,937	-0,05
982,358	-0,04
982,779	-0,03
983,2	-0,03
983,621	-0,03
984,042	-0,02
984,462	-0,02
984,883	-0,02
985,304	-0,01
985,724	-0
986,145	-0
986,565	0,01
986,986	0,01
987,407	0,01
987,827	0,02
988,248	0,03
988,668	0,03
989,088	0,03
989,509	0,03
989,929	0,04
990,35	0,04
990,77	0,04
991,19	0,05
991,61	0,05
992,031	0,06
992,451	0,06
992,871	0,06
993,291	0,06
993,711	0,07
994,131	0,07
994,551	0,07
994,971	0,07
995,391	0,07
995,811	0,07
996,231	0,07
996,651	0,07
997,071	0,08
997,491	0,08
997,911	0,08
998,331	0,08
998,75	0,08
999,17	0,09
999,59	0,09
1000,009	0,09
1000,429	0,09
1000,849	0,09
1001,268	0,09
1001,688	0,1
1002,107	0,1
1002,527	0,1
1002,946	0,1
1003,366	0,1
1003,785	0,1
1004,205	0,1
1004,624	0,1
1005,044	0,1
1005,463	0,1
1005,882	0,1
1006,301	0,1
1006,721	0,1
1007,14	0,1
1007,559	0,1
1007,978	0,1
1008,397	0,1
1008,816	0,1
1009,235	0,1
1009,655	0,1
1010,074	0,1
1010,492	0,1
1010,911	0,1
1011,33	0,1
1011,749	0,1
1012,168	0,09
1012,587	0,09
1013,006	0,09
1013,425	0,09
1013,843	0,09
1014,262	0,09
1014,681	0,09
1015,099	0,09
1015,518	0,09
1015,937	0,09
1016,355	0,09
1016,774	0,09
1017,192	0,09
1017,611	0,09
1018,029	0,09
1018,448	0,1
1018,866	0,1
1019,285	0,1
1019,703	0,1
1020,121	0,1
1020,54	0,1
1020,958	0,1
1021,376	0,1
1021,794	0,1
1022,213	0,1
1022,631	0,1
1023,049	0,1
1023,467	0,1
1023,885	0,1
1024,303	0,1
1024,721	0,1
1025,139	0,1
1025,557	0,1
1025,975	0,1
1026,393	0,09
1026,811	0,09
1027,229	0,09
1027,647	0,09
1028,065	0,09
1028,482	0,09
1028,9	0,09
1029,318	0,09
1029,735	0,09
1030,153	0,09
1030,571	0,09
1030,988	0,09
1031,406	0,09
1031,823	0,09
1032,241	0,09
1032,659	0,09
1033,076	0,09
1033,493	0,09
1033,911	0,09
1034,328	0,09
1034,746	0,09
1035,163	0,09
1035,58	0,09
1035,997	0,09
1036,415	0,09
1036,832	0,09
1037,249	0,09
1037,666	0,09
1038,083	0,09
1038,501	0,09
1038,918	0,09
1039,335	0,09
1039,752	0,09
1040,169	0,09
1040,586	0,09
1041,003	0,09
1041,419	0,09
1041,836	0,09
1042,253	0,09
1042,67	0,09
1043,087	0,09
1043,504	0,09
1043,92	0,09
1044,337	0,09
1044,754	0,09
1045,17	0,09
1045,587	0,09
1046,004	0,09
1046,42	0,09
1046,837	0,09
1047,253	0,09
1047,67	0,09
1048,086	0,09
1048,503	0,09
1048,919	0,09
1049,335	0,09
1049,752	0,09
1050,168	0,09
1050,584	0,09
1051,001	0,09
1051,417	0,09
1051,833	0,09
1052,249	0,09
1052,665	0,09
1053,081	0,09
1053,497	0,09
1053,914	0,09
1054,33	0,09
1054,746	0,09
1055,162	0,09
1055,578	0,09
1055,993	0,09
1056,409	0,09
1056,825	0,09
1057,241	0,09
1057,657	0,09
1058,073	0,09
1058,488	0,09
1058,904	0,09
1059,32	0,09
1059,736	0,09
1060,151	0,08
1060,567	0,08
1060,982	0,08
1061,398	0,08
1061,813	0,08
1062,229	0,08
1062,644	0,08
1063,06	0,08
1063,475	0,08
1063,891	0,08
1064,306	0,08
1064,721	0,08
1065,137	0,08
1065,552	0,08
1065,967	0,08
1066,382	0,08
1066,798	0,08
1067,213	0,08
1067,628	0,08
1068,043	0,08
1068,458	0,08
1068,873	0,08
1069,288	0,08
1069,703	0,08
1070,118	0,08
1070,533	0,08
1070,948	0,09
1071,363	0,09
1071,778	0,09
1072,193	0,09
1072,607	0,09
1073,022	0,09
1073,437	0,09
1073,852	0,09
1074,266	0,09
1074,681	0,09
1075,096	0,09
1075,51	0,09
1075,925	0,09
1076,339	0,09
1076,754	0,08
1077,168	0,08
1077,583	0,08
1077,997	0,08
1078,412	0,08
1078,826	0,08
1079,24	0,08
1079,655	0,08
1080,069	0,08
1080,483	0,08
1080,897	0,08
1081,312	0,08
1081,726	0,08
1082,14	0,08
1082,554	0,08
1082,968	0,08
1083,382	0,08
1083,796	0,08
1084,21	0,08
1084,624	0,08
1085,038	0,08
1085,452	0,08
1085,866	0,08
1086,28	0,08
1086,694	0,08
1087,108	0,08
1087,521	0,08
1087,935	0,07
1088,349	0,07
1088,763	0,07
1089,176	0,07
1089,59	0,07
1090,004	0,07
1090,417	0,07
1090,831	0,07
1091,244	0,07
1091,658	0,07
1092,071	0,07
1092,485	0,06
1092,898	0,06
1093,312	0,06
1093,725	0,06
1094,138	0,06
1094,552	0,06
1094,965	0,06
1095,378	0,06
1095,791	0,06
1096,205	0,06
1096,618	0,06
1097,031	0,06
1097,444	0,06
1097,857	0,06
1098,27	0,06
1098,683	0,06
1099,096	0,06
1099,509	0,06
1099,922	0,05
1100,335	0,05
1100,748	0,05
1101,161	0,05
1101,574	0,05
1101,986	0,05
1102,399	0,05
1102,812	0,04
1103,225	0,04
1103,637	0,04
1104,05	0,04
1104,463	0,04
1104,875	0,04
1105,288	0,04
1105,7	0,04
1106,113	0,04
1106,525	0,04
1106,938	0,03
1107,35	0,03
1107,763	0,03
1108,175	0,03
1108,588	0,03
1109	0,03
1109,412	0,02
1109,824	0,02
1110,237	0,02
1110,649	0,02
1111,061	-0
