Data from 18C-808nm-8A_Absorbance__1402__01402.txt Node

Date: Mon Jul 17 17:14:48 CEST 2023
User: Laser008
Spectrometer: MAYP115816
Trigger mode: 0
Integration Time (sec): 2,500000E-1
Scans to average: 10
Electric dark correction enabled: true
Nonlinearity correction enabled: true
Boxcar width: 5
XAxis mode: Wavelengths
Number of Pixels in Spectrum: 2068
>>>>>Begin Spectral Data<<<<<
198,914	-0,68
199,384	-0,48
199,855	-0,35
200,325	-0,28
200,796	-0,24
201,266	-0,2
201,737	-0,18
202,207	-0,18
202,677	-0,16
203,147	-0,15
203,618	-0,12
204,088	-0,11
204,558	-0,1
205,028	-0,09
205,498	-0,1
205,968	-0,1
206,439	-0,11
206,909	-0,1
207,379	-0,1
207,849	-0,11
208,319	-0,11
208,789	-0,12
209,258	-0,12
209,728	-0,13
210,198	-0,13
210,668	-0,13
211,138	-0,12
211,608	-0,13
212,077	-0,12
212,547	-0,12
213,017	-0,12
213,486	-0,12
213,956	-0,13
214,426	-0,13
214,895	-0,13
215,365	-0,13
215,834	-0,13
216,304	-0,14
216,773	-0,13
217,243	-0,15
217,712	-0,16
218,181	-0,16
218,651	-0,17
219,12	-0,16
219,589	-0,17
220,058	-0,16
220,528	-0,16
220,997	-0,17
221,466	-0,18
221,935	-0,19
222,404	-0,18
222,873	-0,17
223,342	-0,17
223,812	-0,17
224,281	-0,17
224,749	-0,17
225,218	-0,18
225,687	-0,19
226,156	-0,17
226,625	-0,16
227,094	-0,17
227,563	-0,17
228,031	-0,18
228,5	-0,18
228,969	-0,19
229,438	-0,18
229,906	-0,17
230,375	-0,16
230,844	-0,16
231,312	-0,16
231,781	-0,17
232,249	-0,16
232,718	-0,16
233,186	-0,14
233,655	-0,15
234,123	-0,15
234,591	-0,15
235,06	-0,15
235,528	-0,16
235,996	-0,15
236,465	-0,15
236,933	-0,14
237,401	-0,15
237,869	-0,14
238,337	-0,15
238,805	-0,14
239,274	-0,13
239,742	-0,13
240,21	-0,13
240,678	-0,12
241,146	-0,12
241,614	-0,12
242,081	-0,12
242,549	-0,12
243,017	-0,12
243,485	-0,12
243,953	-0,12
244,421	-0,12
244,888	-0,11
245,356	-0,11
245,824	-0,12
246,291	-0,12
246,759	-0,12
247,227	-0,13
247,694	-0,12
248,162	-0,12
248,629	-0,11
249,097	-0,12
249,564	-0,13
250,032	-0,14
250,499	-0,14
250,967	-0,15
251,434	-0,15
251,901	-0,14
252,369	-0,14
252,836	-0,15
253,303	-0,16
253,77	-0,17
254,237	-0,17
254,705	-0,16
255,172	-0,16
255,639	-0,16
256,106	-0,17
256,573	-0,17
257,04	-0,18
257,507	-0,19
257,974	-0,19
258,441	-0,17
258,908	-0,17
259,375	-0,19
259,841	-0,2
260,308	-0,2
260,775	-0,2
261,242	-0,19
261,709	-0,19
262,175	-0,19
262,642	-0,18
263,109	-0,18
263,575	-0,19
264,042	-0,18
264,508	-0,18
264,975	-0,19
265,441	-0,2
265,908	-0,2
266,374	-0,19
266,841	-0,2
267,307	-0,2
267,773	-0,19
268,24	-0,2
268,706	-0,19
269,172	-0,2
269,639	-0,21
270,105	-0,19
270,571	-0,19
271,037	-0,19
271,503	-0,2
271,969	-0,2
272,435	-0,2
272,902	-0,21
273,368	-0,23
273,834	-0,23
274,3	-0,24
274,765	-0,23
275,231	-0,24
275,697	-0,24
276,163	-0,24
276,629	-0,23
277,095	-0,24
277,56	-0,24
278,026	-0,24
278,492	-0,22
278,958	-0,22
279,423	-0,22
279,889	-0,21
280,354	-0,22
280,82	-0,21
281,286	-0,22
281,751	-0,23
282,217	-0,21
282,682	-0,2
283,147	-0,21
283,613	-0,21
284,078	-0,21
284,544	-0,22
285,009	-0,23
285,474	-0,22
285,939	-0,24
286,405	-0,23
286,87	-0,23
287,335	-0,23
287,8	-0,23
288,265	-0,21
288,73	-0,23
289,195	-0,25
289,66	-0,24
290,125	-0,23
290,59	-0,22
291,055	-0,21
291,52	-0,21
291,985	-0,21
292,45	-0,22
292,915	-0,22
293,38	-0,22
293,844	-0,21
294,309	-0,19
294,774	-0,18
295,239	-0,2
295,703	-0,21
296,168	-0,2
296,632	-0,2
297,097	-0,18
297,562	-0,17
298,026	-0,18
298,491	-0,18
298,955	-0,18
299,419	-0,17
299,884	-0,17
300,348	-0,16
300,813	-0,15
301,277	-0,16
301,741	-0,16
302,205	-0,16
302,67	-0,16
303,134	-0,15
303,598	-0,16
304,062	-0,16
304,526	-0,15
304,99	-0,16
305,454	-0,16
305,919	-0,15
306,383	-0,14
306,847	-0,13
307,31	-0,14
307,774	-0,15
308,238	-0,15
308,702	-0,13
309,166	-0,15
309,63	-0,15
310,094	-0,12
310,557	-0,11
311,021	-0,11
311,485	-0,11
311,948	-0,11
312,412	-0,1
312,876	-0,1
313,339	-0,1
313,803	-0,11
314,266	-0,1
314,73	-0,11
315,193	-0,12
315,657	-0,12
316,12	-0,13
316,584	-0,12
317,047	-0,11
317,51	-0,11
317,973	-0,11
318,437	-0,1
318,9	-0,09
319,363	-0,08
319,826	-0,07
320,29	-0,08
320,753	-0,07
321,216	-0,07
321,679	-0,07
322,142	-0,07
322,605	-0,08
323,068	-0,08
323,531	-0,08
323,994	-0,07
324,457	-0,07
324,92	-0,06
325,382	-0,06
325,845	-0,06
326,308	-0,05
326,771	-0,04
327,233	-0,03
327,696	-0,02
328,159	-0,02
328,622	-0,01
329,084	-0,01
329,547	-0
330,009	-0
330,472	0,01
330,934	0,01
331,397	0,02
331,859	0,02
332,322	0,02
332,784	0,02
333,246	0,03
333,709	0,02
334,171	0,03
334,633	0,04
335,096	0,03
335,558	0,03
336,02	0,03
336,482	0,04
336,944	0,04
337,406	0,05
337,868	0,05
338,331	0,06
338,793	0,06
339,255	0,06
339,717	0,07
340,178	0,08
340,64	0,09
341,102	0,09
341,564	0,09
342,026	0,1
342,488	0,11
342,949	0,13
343,411	0,15
343,873	0,17
344,335	0,19
344,796	0,22
345,258	0,26
345,719	0,29
346,181	0,33
346,643	0,36
347,104	0,38
347,566	0,4
348,027	0,42
348,488	0,43
348,95	0,44
349,411	0,46
349,873	0,47
350,334	0,49
350,795	0,5
351,256	0,5
351,718	0,51
352,179	0,51
352,64	0,52
353,101	0,52
353,562	0,52
354,023	0,52
354,484	0,52
354,945	0,53
355,406	0,53
355,867	0,53
356,328	0,53
356,789	0,53
357,25	0,53
357,711	0,53
358,172	0,53
358,633	0,53
359,093	0,54
359,554	0,54
360,015	0,54
360,476	0,54
360,936	0,54
361,397	0,54
361,858	0,54
362,318	0,54
362,779	0,54
363,239	0,54
363,7	0,54
364,16	0,54
364,621	0,54
365,081	0,54
365,541	0,54
366,002	0,54
366,462	0,54
366,922	0,54
367,383	0,54
367,843	0,54
368,303	0,54
368,763	0,54
369,223	0,54
369,684	0,54
370,144	0,54
370,604	0,54
371,064	0,54
371,524	0,54
371,984	0,54
372,444	0,54
372,904	0,54
373,363	0,54
373,823	0,54
374,283	0,54
374,743	0,54
375,203	0,54
375,663	0,54
376,122	0,54
376,582	0,53
377,042	0,53
377,501	0,53
377,961	0,53
378,42	0,53
378,88	0,53
379,34	0,53
379,799	0,53
380,259	0,53
380,718	0,53
381,177	0,53
381,637	0,53
382,096	0,53
382,555	0,53
383,015	0,53
383,474	0,53
383,933	0,53
384,393	0,53
384,852	0,53
385,311	0,53
385,77	0,53
386,229	0,53
386,688	0,53
387,147	0,53
387,606	0,53
388,065	0,53
388,524	0,53
388,983	0,53
389,442	0,53
389,901	0,53
390,36	0,52
390,819	0,52
391,277	0,52
391,736	0,52
392,195	0,52
392,654	0,52
393,112	0,52
393,571	0,52
394,03	0,52
394,488	0,52
394,947	0,52
395,405	0,52
395,864	0,52
396,322	0,52
396,781	0,52
397,239	0,52
397,698	0,52
398,156	0,52
398,614	0,52
399,073	0,52
399,531	0,52
399,989	0,52
400,447	0,52
400,905	0,52
401,364	0,52
401,822	0,52
402,28	0,52
402,738	0,52
403,196	0,52
403,654	0,52
404,112	0,52
404,57	0,52
405,028	0,52
405,486	0,52
405,944	0,52
406,402	0,52
406,859	0,52
407,317	0,52
407,775	0,52
408,233	0,52
408,691	0,52
409,148	0,51
409,606	0,51
410,064	0,51
410,521	0,51
410,979	0,51
411,436	0,51
411,894	0,51
412,351	0,51
412,809	0,51
413,266	0,51
413,724	0,51
414,181	0,51
414,638	0,51
415,096	0,51
415,553	0,51
416,01	0,51
416,467	0,51
416,925	0,51
417,382	0,51
417,839	0,51
418,296	0,51
418,753	0,51
419,21	0,51
419,667	0,51
420,124	0,51
420,581	0,51
421,038	0,51
421,495	0,51
421,952	0,51
422,409	0,51
422,866	0,51
423,322	0,51
423,779	0,51
424,236	0,51
424,693	0,51
425,149	0,51
425,606	0,51
426,063	0,51
426,519	0,51
426,976	0,51
427,433	0,51
427,889	0,51
428,346	0,51
428,802	0,51
429,258	0,51
429,715	0,51
430,171	0,51
430,628	0,51
431,084	0,51
431,54	0,51
431,997	0,51
432,453	0,51
432,909	0,51
433,365	0,5
433,821	0,5
434,277	0,5
434,734	0,5
435,19	0,5
435,646	0,5
436,102	0,5
436,558	0,5
437,014	0,5
437,47	0,5
437,925	0,5
438,381	0,5
438,837	0,51
439,293	0,51
439,749	0,51
440,205	0,5
440,66	0,5
441,116	0,5
441,572	0,5
442,027	0,5
442,483	0,5
442,939	0,5
443,394	0,5
443,85	0,5
444,305	0,5
444,761	0,51
445,216	0,51
445,672	0,51
446,127	0,51
446,582	0,51
447,038	0,51
447,493	0,51
447,948	0,51
448,403	0,51
448,859	0,51
449,314	0,51
449,769	0,51
450,224	0,51
450,679	0,51
451,134	0,51
451,589	0,51
452,044	0,51
452,499	0,51
452,954	0,51
453,409	0,51
453,864	0,51
454,319	0,51
454,774	0,51
455,229	0,51
455,684	0,51
456,138	0,51
456,593	0,51
457,048	0,51
457,503	0,51
457,957	0,51
458,412	0,51
458,866	0,51
459,321	0,51
459,776	0,51
460,23	0,51
460,685	0,51
461,139	0,51
461,593	0,51
462,048	0,51
462,502	0,51
462,957	0,51
463,411	0,51
463,865	0,52
464,319	0,52
464,774	0,52
465,228	0,52
465,682	0,52
466,136	0,52
466,59	0,52
467,044	0,52
467,499	0,52
467,953	0,52
468,407	0,52
468,861	0,52
469,315	0,52
469,768	0,52
470,222	0,52
470,676	0,52
471,13	0,52
471,584	0,52
472,038	0,53
472,491	0,53
472,945	0,53
473,399	0,53
473,852	0,53
474,306	0,53
474,76	0,53
475,213	0,53
475,667	0,53
476,12	0,53
476,574	0,53
477,027	0,53
477,481	0,53
477,934	0,53
478,388	0,54
478,841	0,54
479,294	0,54
479,748	0,54
480,201	0,54
480,654	0,54
481,107	0,54
481,561	0,54
482,014	0,55
482,467	0,55
482,92	0,55
483,373	0,55
483,826	0,55
484,279	0,55
484,732	0,55
485,185	0,55
485,638	0,56
486,091	0,56
486,544	0,56
486,997	0,56
487,449	0,56
487,902	0,56
488,355	0,57
488,808	0,57
489,26	0,57
489,713	0,57
490,166	0,57
490,618	0,58
491,071	0,58
491,523	0,58
491,976	0,58
492,429	0,58
492,881	0,59
493,333	0,59
493,786	0,59
494,238	0,59
494,691	0,6
495,143	0,6
495,595	0,6
496,048	0,6
496,5	0,61
496,952	0,61
497,404	0,61
497,856	0,61
498,309	0,62
498,761	0,62
499,213	0,62
499,665	0,62
500,117	0,63
500,569	0,63
501,021	0,63
501,473	0,64
501,925	0,64
502,377	0,64
502,828	0,65
503,28	0,65
503,732	0,65
504,184	0,65
504,636	0,66
505,087	0,66
505,539	0,66
505,991	0,67
506,442	0,67
506,894	0,67
507,345	0,67
507,797	0,68
508,249	0,68
508,7	0,68
509,151	0,69
509,603	0,69
510,054	0,69
510,506	0,7
510,957	0,7
511,408	0,7
511,86	0,7
512,311	0,71
512,762	0,71
513,213	0,71
513,665	0,71
514,116	0,72
514,567	0,72
515,018	0,72
515,469	0,73
515,92	0,73
516,371	0,73
516,822	0,73
517,273	0,74
517,724	0,74
518,175	0,74
518,626	0,74
519,076	0,74
519,527	0,74
519,978	0,75
520,429	0,75
520,88	0,75
521,33	0,75
521,781	0,75
522,232	0,75
522,682	0,76
523,133	0,76
523,583	0,76
524,034	0,76
524,484	0,76
524,935	0,76
525,385	0,76
525,836	0,76
526,286	0,76
526,736	0,76
527,187	0,76
527,637	0,76
528,087	0,76
528,538	0,76
528,988	0,76
529,438	0,76
529,888	0,76
530,338	0,76
530,788	0,76
531,238	0,76
531,688	0,76
532,139	0,76
532,589	0,76
533,038	0,76
533,488	0,75
533,938	0,75
534,388	0,75
534,838	0,75
535,288	0,75
535,738	0,74
536,187	0,74
536,637	0,74
537,087	0,74
537,537	0,73
537,986	0,73
538,436	0,73
538,885	0,73
539,335	0,72
539,785	0,72
540,234	0,72
540,684	0,71
541,133	0,71
541,582	0,71
542,032	0,7
542,481	0,7
542,931	0,7
543,38	0,69
543,829	0,69
544,278	0,69
544,728	0,68
545,177	0,68
545,626	0,68
546,075	0,67
546,524	0,67
546,973	0,67
547,422	0,66
547,871	0,66
548,32	0,66
548,769	0,66
549,218	0,66
549,667	0,66
550,116	0,65
550,565	0,65
551,014	0,65
551,463	0,64
551,911	0,64
552,36	0,64
552,809	0,64
553,258	0,63
553,706	0,63
554,155	0,63
554,603	0,62
555,052	0,62
555,501	0,62
555,949	0,61
556,398	0,61
556,846	0,61
557,294	0,6
557,743	0,6
558,191	0,6
558,64	0,59
559,088	0,59
559,536	0,59
559,985	0,58
560,433	0,58
560,881	0,58
561,329	0,58
561,777	0,57
562,225	0,57
562,674	0,57
563,122	0,56
563,57	0,56
564,018	0,56
564,466	0,56
564,914	0,55
565,362	0,55
565,809	0,55
566,257	0,54
566,705	0,54
567,153	0,54
567,601	0,54
568,048	0,53
568,496	0,53
568,944	0,53
569,392	0,52
569,839	0,52
570,287	0,52
570,734	0,52
571,182	0,52
571,63	0,51
572,077	0,51
572,525	0,51
572,972	0,5
573,419	0,5
573,867	0,5
574,314	0,5
574,761	0,49
575,209	0,49
575,656	0,49
576,103	0,49
576,551	0,49
576,998	0,49
577,445	0,48
577,892	0,48
578,339	0,48
578,786	0,48
579,233	0,48
579,68	0,47
580,127	0,47
580,574	0,47
581,021	0,47
581,468	0,47
581,915	0,46
582,362	0,46
582,809	0,46
583,255	0,46
583,702	0,46
584,149	0,46
584,596	0,45
585,042	0,45
585,489	0,45
585,936	0,45
586,382	0,45
586,829	0,45
587,275	0,45
587,722	0,44
588,168	0,44
588,615	0,44
589,061	0,44
589,508	0,44
589,954	0,44
590,4	0,44
590,847	0,43
591,293	0,43
591,739	0,43
592,185	0,43
592,632	0,43
593,078	0,43
593,524	0,43
593,97	0,43
594,416	0,43
594,862	0,43
595,308	0,42
595,754	0,42
596,2	0,42
596,646	0,42
597,092	0,42
597,538	0,42
597,984	0,42
598,43	0,42
598,876	0,41
599,321	0,41
599,767	0,41
600,213	0,41
600,659	0,41
601,104	0,41
601,55	0,41
601,995	0,41
602,441	0,41
602,887	0,41
603,332	0,4
603,778	0,4
604,223	0,4
604,668	0,4
605,114	0,4
605,559	0,4
606,005	0,4
606,45	0,4
606,895	0,4
607,341	0,4
607,786	0,4
608,231	0,4
608,676	0,4
609,121	0,39
609,566	0,39
610,012	0,38
610,457	0,38
610,902	0,38
611,347	0,38
611,792	0,37
612,237	0,37
612,682	0,37
613,127	0,37
613,571	0,37
614,016	0,38
614,461	0,38
614,906	0,38
615,351	0,38
615,795	0,38
616,24	0,38
616,685	0,38
617,129	0,38
617,574	0,38
618,019	0,38
618,463	0,38
618,908	0,38
619,352	0,38
619,797	0,38
620,241	0,38
620,686	0,38
621,13	0,38
621,574	0,38
622,019	0,38
622,463	0,37
622,907	0,37
623,352	0,37
623,796	0,37
624,24	0,37
624,684	0,37
625,128	0,37
625,572	0,37
626,016	0,37
626,461	0,37
626,905	0,37
627,349	0,37
627,793	0,37
628,236	0,37
628,68	0,37
629,124	0,37
629,568	0,37
630,012	0,37
630,456	0,37
630,9	0,37
631,343	0,37
631,787	0,37
632,231	0,37
632,674	0,37
633,118	0,37
633,562	0,37
634,005	0,37
634,449	0,37
634,892	0,36
635,336	0,36
635,779	0,36
636,223	0,36
636,666	0,36
637,109	0,36
637,553	0,36
637,996	0,36
638,439	0,36
638,883	0,36
639,326	0,36
639,769	0,36
640,212	0,36
640,655	0,36
641,099	0,36
641,542	0,36
641,985	0,36
642,428	0,36
642,871	0,36
643,314	0,36
643,757	0,36
644,2	0,36
644,643	0,36
645,085	0,36
645,528	0,36
645,971	0,36
646,414	0,36
646,857	0,35
647,299	0,35
647,742	0,35
648,185	0,35
648,627	0,35
649,07	0,35
649,513	0,35
649,955	0,35
650,398	0,35
650,84	0,35
651,283	0,35
651,725	0,35
652,168	0,35
652,61	0,35
653,052	0,35
653,495	0,35
653,937	0,27
654,379	0,22
654,821	0,22
655,264	0,22
655,706	0,22
656,148	0,22
656,59	0,22
657,032	0,22
657,474	0,23
657,916	0,22
658,358	0,22
658,8	0,27
659,242	0,35
659,684	0,35
660,126	0,35
660,568	0,35
661,01	0,35
661,452	0,35
661,894	0,35
662,335	0,35
662,777	0,35
663,219	0,35
663,661	0,35
664,102	0,35
664,544	0,35
664,985	0,35
665,427	0,35
665,869	0,35
666,31	0,35
666,752	0,35
667,193	0,35
667,634	0,35
668,076	0,35
668,517	0,35
668,959	0,35
669,4	0,35
669,841	0,35
670,282	0,35
670,724	0,35
671,165	0,35
671,606	0,35
672,047	0,35
672,488	0,34
672,929	0,34
673,37	0,34
673,811	0,34
674,252	0,34
674,693	0,34
675,134	0,34
675,575	0,34
676,016	0,34
676,457	0,34
676,898	0,34
677,339	0,34
677,78	0,34
678,22	0,34
678,661	0,34
679,102	0,34
679,542	0,34
679,983	0,34
680,424	0,34
680,864	0,34
681,305	0,34
681,745	0,34
682,186	0,34
682,626	0,34
683,067	0,34
683,507	0,34
683,948	0,34
684,388	0,34
684,828	0,34
685,269	0,34
685,709	0,34
686,149	0,33
686,589	0,33
687,029	0,33
687,47	0,33
687,91	0,33
688,35	0,33
688,79	0,33
689,23	0,33
689,67	0,33
690,11	0,33
690,55	0,33
690,99	0,33
691,43	0,33
691,87	0,33
692,31	0,33
692,749	0,33
693,189	0,33
693,629	0,33
694,069	0,33
694,508	0,32
694,948	0,32
695,388	0,33
695,827	0,33
696,267	0,33
696,706	0,33
697,146	0,33
697,586	0,33
698,025	0,33
698,464	0,33
698,904	0,33
699,343	0,33
699,783	0,33
700,222	0,33
700,661	0,33
701,101	0,33
701,54	0,33
701,979	0,33
702,418	0,33
702,857	0,33
703,297	0,33
703,736	0,33
704,175	0,33
704,614	0,33
705,053	0,33
705,492	0,33
705,931	0,33
706,37	0,33
706,809	0,32
707,248	0,32
707,687	0,32
708,125	0,32
708,564	0,32
709,003	0,32
709,442	0,32
709,88	0,32
710,319	0,32
710,758	0,32
711,196	0,32
711,635	0,32
712,074	0,32
712,512	0,32
712,951	0,32
713,389	0,32
713,828	0,32
714,266	0,32
714,705	0,32
715,143	0,32
715,581	0,32
716,02	0,31
716,458	0,31
716,896	0,31
717,334	0,31
717,773	0,31
718,211	0,31
718,649	0,31
719,087	0,31
719,525	0,31
719,963	0,31
720,401	0,31
720,839	0,31
721,277	0,31
721,715	0,31
722,153	0,31
722,591	0,31
723,029	0,31
723,467	0,31
723,905	0,31
724,342	0,31
724,78	0,31
725,218	0,31
725,656	0,31
726,093	0,31
726,531	0,31
726,969	0,31
727,406	0,31
727,844	0,31
728,281	0,31
728,719	0,31
729,156	0,31
729,594	0,31
730,031	0,31
730,469	0,31
730,906	0,31
731,343	0,31
731,781	0,31
732,218	0,31
732,655	0,31
733,092	0,31
733,53	0,31
733,967	0,31
734,404	0,31
734,841	0,31
735,278	0,31
735,715	0,31
736,152	0,31
736,589	0,31
737,026	0,31
737,463	0,31
737,9	0,31
738,337	0,31
738,774	0,3
739,211	0,3
739,647	0,3
740,084	0,3
740,521	0,3
740,958	0,3
741,394	0,3
741,831	0,3
742,268	0,3
742,704	0,3
743,141	0,3
743,577	0,3
744,014	0,3
744,45	0,29
744,887	0,29
745,323	0,29
745,76	0,29
746,196	0,29
746,632	0,29
747,069	0,29
747,505	0,29
747,941	0,29
748,378	0,29
748,814	0,29
749,25	0,29
749,686	0,29
750,122	0,3
750,558	0,3
750,994	0,3
751,43	0,3
751,866	0,3
752,302	0,3
752,738	0,3
753,174	0,31
753,61	0,31
754,046	0,31
754,482	0,31
754,918	0,31
755,354	0,31
755,789	0,31
756,225	0,31
756,661	0,3
757,096	0,3
757,532	0,3
757,968	0,3
758,403	0,3
758,839	0,3
759,274	0,3
759,71	0,29
760,145	0,29
760,581	0,28
761,016	0,28
761,452	0,28
761,887	0,27
762,322	0,27
762,758	0,27
763,193	0,26
763,628	0,26
764,063	0,25
764,499	0,25
764,934	0,24
765,369	0,24
765,804	0,23
766,239	0,23
766,674	0,22
767,109	0,22
767,544	0,21
767,979	0,2
768,414	0,19
768,849	0,18
769,284	0,18
769,719	0,17
770,154	0,17
770,588	0,16
771,023	0,15
771,458	0,14
771,893	0,13
772,327	0,12
772,762	0,12
773,197	0,11
773,631	0,1
774,066	0,1
774,5	0,09
774,935	0,08
775,369	0,07
775,804	0,06
776,238	0,06
776,673	0,05
777,107	0,03
777,541	0,03
777,976	0,02
778,41	0,01
778,844	0
779,279	-0
779,713	-0,01
780,147	-0,01
780,581	-0,02
781,015	-0,03
781,449	-0,04
781,883	-0,04
782,317	-0,05
782,751	-0,05
783,185	-0,06
783,619	-0,07
784,053	-0,07
784,487	-0,08
784,921	-0,09
785,355	-0,1
785,789	-0,11
786,223	-0,12
786,656	-0,12
787,09	-0,14
787,524	-0,14
787,957	-0,16
788,391	-0,17
788,825	-0,19
789,258	-0,2
789,692	-0,22
790,125	-0,23
790,559	-0,24
790,992	-0,26
791,426	-0,29
791,859	-0,3
792,293	-0,33
792,726	-0,35
793,159	-0,37
793,593	-0,38
794,026	-0,41
794,459	-0,43
794,892	-0,46
795,326	-0,49
795,759	-0,52
796,192	-0,57
796,625	-0,61
797,058	-0,64
797,491	-0,68
797,924	-0,72
798,357	-0,76
798,79	-0,8
799,223	-0,85
799,656	-0,9
800,089	-0,95
800,522	-0,99
800,955	-1,03
801,387	-1,09
801,82	-1,14
802,253	-1,2
802,686	-1,28
803,118	-1,34
803,551	-1,39
803,984	-1,43
804,416	-1,47
804,849	-1,5
805,281	-1,6
805,714	-1,93
806,146	-2,4
806,579	-2,68
807,011	-2,85
807,444	-2,95
807,876	-3,04
808,308	-3,08
808,741	-3,11
809,173	-3,16
809,605	-3,18
810,037	-3,26
810,47	-3,18
810,902	-2,99
811,334	-2,85
811,766	-2,7
812,198	-2,47
812,63	-2,03
813,062	-1,8
813,494	-1,7
813,926	-1,61
814,358	-1,56
814,79	-1,48
815,222	-1,42
815,654	-1,37
816,086	-1,3
816,518	-1,25
816,949	-1,2
817,381	-1,15
817,813	-1,14
818,245	-1,1
818,676	-1,06
819,108	-1,02
819,54	-1,01
819,971	-0,98
820,403	-0,93
820,834	-0,91
821,266	-0,87
821,697	-0,85
822,129	-0,83
822,56	-0,8
822,991	-0,78
823,423	-0,75
823,854	-0,74
824,286	-0,71
824,717	-0,7
825,148	-0,68
825,579	-0,67
826,01	-0,66
826,442	-0,65
826,873	-0,63
827,304	-0,6
827,735	-0,6
828,166	-0,6
828,597	-0,6
829,028	-0,59
829,459	-0,6
829,89	-0,6
830,321	-0,56
830,752	-0,56
831,183	-0,55
831,613	-0,54
832,044	-0,54
832,475	-0,53
832,906	-0,55
833,336	-0,56
833,767	-0,56
834,198	-0,56
834,628	-0,53
835,059	-0,56
835,49	-0,57
835,92	-0,55
836,351	-0,55
836,781	-0,56
837,212	-0,57
837,642	-0,57
838,072	-0,55
838,503	-0,56
838,933	-0,53
839,364	-0,54
839,794	-0,52
840,224	-0,51
840,654	-0,55
841,085	-0,55
841,515	-0,53
841,945	-0,53
842,375	-0,49
842,805	-0,47
843,235	-0,46
843,665	-0,48
844,095	-0,46
844,525	-0,48
844,955	-0,48
845,385	-0,46
845,815	-0,44
846,245	-0,46
846,675	-0,47
847,105	-0,48
847,534	-0,49
847,964	-0,47
848,394	-0,46
848,824	-0,49
849,253	-0,48
849,683	-0,48
850,112	-0,49
850,542	-0,52
850,972	-0,52
851,401	-0,5
851,831	-0,47
852,26	-0,48
852,69	-0,52
853,119	-0,51
853,548	-0,52
853,978	-0,52
854,407	-0,5
854,836	-0,5
855,266	-0,5
855,695	-0,51
856,124	-0,52
856,553	-0,53
856,983	-0,55
857,412	-0,54
857,841	-0,56
858,27	-0,57
858,699	-0,58
859,128	-0,6
859,557	-0,62
859,986	-0,63
860,415	-0,6
860,844	-0,58
861,273	-0,59
861,702	-0,6
862,13	-0,58
862,559	-0,6
862,988	-0,57
863,417	-0,56
863,845	-0,55
864,274	-0,56
864,703	-0,55
865,131	-0,56
865,56	-0,57
865,989	-0,59
866,417	-0,55
866,846	-0,55
867,274	-0,54
867,703	-0,56
868,131	-0,57
868,559	-0,56
868,988	-0,58
869,416	-0,57
869,844	-0,59
870,273	-0,62
870,701	-0,6
871,129	-0,64
871,557	-0,66
871,986	-0,67
872,414	-0,67
872,842	-0,65
873,27	-0,64
873,698	-0,61
874,126	-0,64
874,554	-0,62
874,982	-0,62
875,41	-0,64
875,838	-0,6
876,266	-0,57
876,694	-0,57
877,122	-0,57
877,549	-0,63
877,977	-0,59
878,405	-0,62
878,833	-0,6
879,26	-0,58
879,688	-0,59
880,116	-0,58
880,543	-0,55
880,971	-0,54
881,399	-0,58
881,826	-0,58
882,254	-0,56
882,681	-0,59
883,109	-0,55
883,536	-0,56
883,963	-0,59
884,391	-0,56
884,818	-0,54
885,245	-0,58
885,673	-0,6
886,1	-0,56
886,527	-0,56
886,954	-0,52
887,381	-0,53
887,809	-0,55
888,236	-0,56
888,663	-0,56
889,09	-0,6
889,517	-0,62
889,944	-0,62
890,371	-0,6
890,798	-0,6
891,225	-0,61
891,652	-0,64
892,078	-0,62
892,505	-0,64
892,932	-0,6
893,359	-0,6
893,786	-0,6
894,212	-0,57
894,639	-0,58
895,066	-0,61
895,492	-0,56
895,919	-0,56
896,346	-0,55
896,772	-0,55
897,199	-0,52
897,625	-0,55
898,052	-0,51
898,478	-0,5
898,904	-0,51
899,331	-0,51
899,757	-0,52
900,183	-0,55
900,61	-0,53
901,036	-0,53
901,462	-0,53
901,888	-0,53
902,315	-0,52
902,741	-0,58
903,167	-0,57
903,593	-0,59
904,019	-0,57
904,445	-0,55
904,871	-0,58
905,297	-0,6
905,723	-0,6
906,149	-0,59
906,575	-0,6
907,001	-0,6
907,427	-0,57
907,852	-0,57
908,278	-0,58
908,704	-0,56
909,13	-0,55
909,555	-0,53
909,981	-0,52
910,407	-0,52
910,832	-0,52
911,258	-0,52
911,684	-0,52
912,109	-0,52
912,535	-0,53
912,96	-0,49
913,386	-0,53
913,811	-0,53
914,236	-0,55
914,662	-0,54
915,087	-0,57
915,512	-0,57
915,938	-0,59
916,363	-0,57
916,788	-0,59
917,213	-0,56
917,639	-0,61
918,064	-0,58
918,489	-0,58
918,914	-0,59
919,339	-0,6
919,764	-0,57
920,189	-0,57
920,614	-0,58
921,039	-0,6
921,464	-0,55
921,889	-0,57
922,314	-0,58
922,738	-0,6
923,163	-0,62
923,588	-0,61
924,013	-0,6
924,437	-0,6
924,862	-0,61
925,287	-0,58
925,711	-0,58
926,136	-0,6
926,561	-0,58
926,985	-0,56
927,41	-0,54
927,834	-0,51
928,259	-0,48
928,683	-0,46
929,108	-0,44
929,532	-0,46
929,956	-0,45
930,381	-0,45
930,805	-0,45
931,229	-0,45
931,653	-0,44
932,078	-0,44
932,502	-0,46
932,926	-0,47
933,35	-0,47
933,774	-0,46
934,198	-0,44
934,622	-0,44
935,046	-0,45
935,47	-0,45
935,894	-0,45
936,318	-0,45
936,742	-0,45
937,166	-0,45
937,59	-0,44
938,014	-0,47
938,437	-0,48
938,861	-0,49
939,285	-0,5
939,709	-0,49
940,132	-0,49
940,556	-0,5
940,98	-0,49
941,403	-0,49
941,827	-0,49
942,25	-0,51
942,674	-0,49
943,097	-0,49
943,521	-0,49
943,944	-0,5
944,368	-0,49
944,791	-0,48
945,214	-0,5
945,638	-0,51
946,061	-0,54
946,484	-0,54
946,907	-0,52
947,331	-0,52
947,754	-0,55
948,177	-0,52
948,6	-0,52
949,023	-0,51
949,446	-0,51
949,869	-0,49
950,292	-0,49
950,715	-0,45
951,138	-0,43
951,561	-0,41
951,984	-0,41
952,407	-0,39
952,83	-0,37
953,252	-0,34
953,675	-0,34
954,098	-0,34
954,521	-0,33
954,943	-0,32
955,366	-0,33
955,789	-0,31
956,211	-0,34
956,634	-0,34
957,056	-0,33
957,479	-0,35
957,902	-0,37
958,324	-0,37
958,746	-0,35
959,169	-0,37
959,591	-0,38
960,014	-0,39
960,436	-0,39
960,858	-0,38
961,281	-0,38
961,703	-0,39
962,125	-0,38
962,547	-0,37
962,969	-0,37
963,391	-0,38
963,814	-0,39
964,236	-0,38
964,658	-0,35
965,08	-0,36
965,502	-0,35
965,924	-0,33
966,346	-0,34
966,768	-0,33
967,189	-0,35
967,611	-0,35
968,033	-0,34
968,455	-0,32
968,877	-0,33
969,298	-0,34
969,72	-0,36
970,142	-0,35
970,563	-0,36
970,985	-0,34
971,407	-0,33
971,828	-0,3
972,25	-0,3
972,671	-0,28
973,093	-0,28
973,514	-0,27
973,936	-0,25
974,357	-0,23
974,778	-0,24
975,2	-0,23
975,621	-0,22
976,042	-0,21
976,464	-0,21
976,885	-0,2
977,306	-0,2
977,727	-0,19
978,148	-0,18
978,57	-0,17
978,991	-0,15
979,412	-0,14
979,833	-0,13
980,254	-0,13
980,675	-0,13
981,096	-0,12
981,517	-0,1
981,937	-0,1
982,358	-0,08
982,779	-0,06
983,2	-0,07
983,621	-0,07
984,042	-0,05
984,462	-0,04
984,883	-0,03
985,304	-0,01
985,724	-0,01
986,145	0
986,565	0,02
986,986	0,02
987,407	0,02
987,827	0,04
988,248	0,06
988,668	0,07
989,088	0,08
989,509	0,09
989,929	0,09
990,35	0,11
990,77	0,12
991,19	0,13
991,61	0,14
992,031	0,15
992,451	0,15
992,871	0,16
993,291	0,17
993,711	0,17
994,131	0,18
994,551	0,18
994,971	0,19
995,391	0,19
995,811	0,19
996,231	0,2
996,651	0,2
997,071	0,21
997,491	0,21
997,911	0,22
998,331	0,22
998,75	0,23
999,17	0,23
999,59	0,23
1000,009	0,24
1000,429	0,24
1000,849	0,24
1001,268	0,25
1001,688	0,25
1002,107	0,25
1002,527	0,25
1002,946	0,26
1003,366	0,26
1003,785	0,26
1004,205	0,26
1004,624	0,26
1005,044	0,26
1005,463	0,27
1005,882	0,27
1006,301	0,27
1006,721	0,27
1007,14	0,27
1007,559	0,27
1007,978	0,27
1008,397	0,27
1008,816	0,27
1009,235	0,27
1009,655	0,27
1010,074	0,27
1010,492	0,27
1010,911	0,27
1011,33	0,27
1011,749	0,26
1012,168	0,26
1012,587	0,26
1013,006	0,26
1013,425	0,26
1013,843	0,26
1014,262	0,26
1014,681	0,26
1015,099	0,26
1015,518	0,26
1015,937	0,26
1016,355	0,26
1016,774	0,26
1017,192	0,26
1017,611	0,26
1018,029	0,26
1018,448	0,26
1018,866	0,26
1019,285	0,26
1019,703	0,26
1020,121	0,26
1020,54	0,26
1020,958	0,26
1021,376	0,26
1021,794	0,26
1022,213	0,26
1022,631	0,26
1023,049	0,26
1023,467	0,26
1023,885	0,26
1024,303	0,26
1024,721	0,26
1025,139	0,26
1025,557	0,26
1025,975	0,26
1026,393	0,26
1026,811	0,25
1027,229	0,25
1027,647	0,25
1028,065	0,25
1028,482	0,26
1028,9	0,26
1029,318	0,25
1029,735	0,25
1030,153	0,25
1030,571	0,25
1030,988	0,25
1031,406	0,25
1031,823	0,25
1032,241	0,25
1032,659	0,25
1033,076	0,25
1033,493	0,25
1033,911	0,25
1034,328	0,25
1034,746	0,25
1035,163	0,25
1035,58	0,25
1035,997	0,25
1036,415	0,25
1036,832	0,25
1037,249	0,25
1037,666	0,25
1038,083	0,25
1038,501	0,25
1038,918	0,25
1039,335	0,25
1039,752	0,25
1040,169	0,25
1040,586	0,25
1041,003	0,25
1041,419	0,25
1041,836	0,25
1042,253	0,25
1042,67	0,25
1043,087	0,25
1043,504	0,25
1043,92	0,25
1044,337	0,25
1044,754	0,25
1045,17	0,24
1045,587	0,24
1046,004	0,24
1046,42	0,24
1046,837	0,24
1047,253	0,24
1047,67	0,24
1048,086	0,24
1048,503	0,24
1048,919	0,24
1049,335	0,24
1049,752	0,24
1050,168	0,24
1050,584	0,24
1051,001	0,24
1051,417	0,24
1051,833	0,24
1052,249	0,24
1052,665	0,24
1053,081	0,25
1053,497	0,25
1053,914	0,25
1054,33	0,25
1054,746	0,25
1055,162	0,25
1055,578	0,25
1055,993	0,25
1056,409	0,25
1056,825	0,25
1057,241	0,25
1057,657	0,25
1058,073	0,25
1058,488	0,25
1058,904	0,25
1059,32	0,25
1059,736	0,25
1060,151	0,25
1060,567	0,25
1060,982	0,25
1061,398	0,25
1061,813	0,25
1062,229	0,25
1062,644	0,25
1063,06	0,25
1063,475	0,25
1063,891	0,25
1064,306	0,25
1064,721	0,25
1065,137	0,25
1065,552	0,25
1065,967	0,25
1066,382	0,25
1066,798	0,25
1067,213	0,25
1067,628	0,25
1068,043	0,25
1068,458	0,25
1068,873	0,25
1069,288	0,25
1069,703	0,25
1070,118	0,25
1070,533	0,25
1070,948	0,25
1071,363	0,25
1071,778	0,25
1072,193	0,25
1072,607	0,25
1073,022	0,25
1073,437	0,26
1073,852	0,26
1074,266	0,26
1074,681	0,26
1075,096	0,26
1075,51	0,26
1075,925	0,26
1076,339	0,26
1076,754	0,25
1077,168	0,25
1077,583	0,25
1077,997	0,25
1078,412	0,25
1078,826	0,25
1079,24	0,25
1079,655	0,25
1080,069	0,25
1080,483	0,25
1080,897	0,25
1081,312	0,25
1081,726	0,25
1082,14	0,25
1082,554	0,25
1082,968	0,24
1083,382	0,24
1083,796	0,24
1084,21	0,24
1084,624	0,24
1085,038	0,24
1085,452	0,24
1085,866	0,24
1086,28	0,24
1086,694	0,24
1087,108	0,24
1087,521	0,23
1087,935	0,23
1088,349	0,23
1088,763	0,23
1089,176	0,23
1089,59	0,23
1090,004	0,22
1090,417	0,22
1090,831	0,22
1091,244	0,22
1091,658	0,22
1092,071	0,22
1092,485	0,21
1092,898	0,21
1093,312	0,21
1093,725	0,21
1094,138	0,21
1094,552	0,21
1094,965	0,2
1095,378	0,2
1095,791	0,2
1096,205	0,2
1096,618	0,2
1097,031	0,2
1097,444	0,19
1097,857	0,19
1098,27	0,19
1098,683	0,19
1099,096	0,19
1099,509	0,18
1099,922	0,18
1100,335	0,18
1100,748	0,17
1101,161	0,17
1101,574	0,17
1101,986	0,17
1102,399	0,16
1102,812	0,16
1103,225	0,16
1103,637	0,15
1104,05	0,15
1104,463	0,15
1104,875	0,15
1105,288	0,15
1105,7	0,14
1106,113	0,14
1106,525	0,14
1106,938	0,14
1107,35	0,13
1107,763	0,13
1108,175	0,13
1108,588	0,13
1109	0,13
1109,412	0,12
1109,824	0,12
1110,237	0,12
1110,649	0,12
1111,061	0,1
