Data from 18C-808nm-8A_Absorbance__1266__01266.txt Node

Date: Mon Jul 17 17:09:08 CEST 2023
User: Laser008
Spectrometer: MAYP115816
Trigger mode: 0
Integration Time (sec): 2,500000E-1
Scans to average: 10
Electric dark correction enabled: true
Nonlinearity correction enabled: true
Boxcar width: 5
XAxis mode: Wavelengths
Number of Pixels in Spectrum: 2068
>>>>>Begin Spectral Data<<<<<
198,914	-0,72
199,384	-0,5
199,855	-0,38
200,325	-0,29
200,796	-0,25
201,266	-0,2
201,737	-0,19
202,207	-0,18
202,677	-0,17
203,147	-0,15
203,618	-0,12
204,088	-0,1
204,558	-0,09
205,028	-0,08
205,498	-0,08
205,968	-0,09
206,439	-0,1
206,909	-0,09
207,379	-0,1
207,849	-0,1
208,319	-0,11
208,789	-0,11
209,258	-0,11
209,728	-0,12
210,198	-0,12
210,668	-0,13
211,138	-0,12
211,608	-0,12
212,077	-0,12
212,547	-0,12
213,017	-0,12
213,486	-0,12
213,956	-0,13
214,426	-0,13
214,895	-0,13
215,365	-0,14
215,834	-0,14
216,304	-0,15
216,773	-0,16
217,243	-0,17
217,712	-0,18
218,181	-0,17
218,651	-0,18
219,12	-0,18
219,589	-0,18
220,058	-0,18
220,528	-0,18
220,997	-0,19
221,466	-0,2
221,935	-0,21
222,404	-0,2
222,873	-0,19
223,342	-0,2
223,812	-0,2
224,281	-0,2
224,749	-0,2
225,218	-0,21
225,687	-0,21
226,156	-0,2
226,625	-0,19
227,094	-0,18
227,563	-0,18
228,031	-0,2
228,5	-0,2
228,969	-0,21
229,438	-0,2
229,906	-0,19
230,375	-0,18
230,844	-0,18
231,312	-0,18
231,781	-0,18
232,249	-0,17
232,718	-0,18
233,186	-0,15
233,655	-0,16
234,123	-0,15
234,591	-0,15
235,06	-0,15
235,528	-0,16
235,996	-0,15
236,465	-0,16
236,933	-0,15
237,401	-0,16
237,869	-0,15
238,337	-0,15
238,805	-0,13
239,274	-0,12
239,742	-0,12
240,21	-0,12
240,678	-0,11
241,146	-0,11
241,614	-0,11
242,081	-0,1
242,549	-0,1
243,017	-0,1
243,485	-0,1
243,953	-0,11
244,421	-0,12
244,888	-0,12
245,356	-0,12
245,824	-0,12
246,291	-0,12
246,759	-0,13
247,227	-0,13
247,694	-0,12
248,162	-0,11
248,629	-0,1
249,097	-0,11
249,564	-0,12
250,032	-0,12
250,499	-0,12
250,967	-0,12
251,434	-0,12
251,901	-0,13
252,369	-0,13
252,836	-0,14
253,303	-0,16
253,77	-0,18
254,237	-0,17
254,705	-0,16
255,172	-0,16
255,639	-0,16
256,106	-0,17
256,573	-0,18
257,04	-0,18
257,507	-0,19
257,974	-0,19
258,441	-0,17
258,908	-0,17
259,375	-0,19
259,841	-0,19
260,308	-0,2
260,775	-0,2
261,242	-0,2
261,709	-0,2
262,175	-0,21
262,642	-0,21
263,109	-0,21
263,575	-0,22
264,042	-0,2
264,508	-0,2
264,975	-0,21
265,441	-0,22
265,908	-0,22
266,374	-0,21
266,841	-0,21
267,307	-0,2
267,773	-0,19
268,24	-0,2
268,706	-0,2
269,172	-0,2
269,639	-0,22
270,105	-0,2
270,571	-0,2
271,037	-0,21
271,503	-0,22
271,969	-0,21
272,435	-0,21
272,902	-0,23
273,368	-0,23
273,834	-0,23
274,3	-0,23
274,765	-0,23
275,231	-0,24
275,697	-0,22
276,163	-0,22
276,629	-0,22
277,095	-0,23
277,56	-0,23
278,026	-0,22
278,492	-0,21
278,958	-0,21
279,423	-0,21
279,889	-0,2
280,354	-0,21
280,82	-0,21
281,286	-0,23
281,751	-0,22
282,217	-0,2
282,682	-0,21
283,147	-0,21
283,613	-0,22
284,078	-0,23
284,544	-0,24
285,009	-0,24
285,474	-0,23
285,939	-0,25
286,405	-0,24
286,87	-0,24
287,335	-0,24
287,8	-0,23
288,265	-0,22
288,73	-0,23
289,195	-0,25
289,66	-0,24
290,125	-0,23
290,59	-0,23
291,055	-0,22
291,52	-0,22
291,985	-0,22
292,45	-0,23
292,915	-0,23
293,38	-0,24
293,844	-0,21
294,309	-0,2
294,774	-0,2
295,239	-0,21
295,703	-0,21
296,168	-0,2
296,632	-0,2
297,097	-0,18
297,562	-0,17
298,026	-0,17
298,491	-0,17
298,955	-0,17
299,419	-0,16
299,884	-0,16
300,348	-0,15
300,813	-0,14
301,277	-0,15
301,741	-0,15
302,205	-0,15
302,67	-0,15
303,134	-0,14
303,598	-0,14
304,062	-0,13
304,526	-0,13
304,99	-0,15
305,454	-0,15
305,919	-0,15
306,383	-0,14
306,847	-0,14
307,31	-0,16
307,774	-0,16
308,238	-0,16
308,702	-0,16
309,166	-0,17
309,63	-0,17
310,094	-0,14
310,557	-0,13
311,021	-0,13
311,485	-0,13
311,948	-0,12
312,412	-0,11
312,876	-0,11
313,339	-0,12
313,803	-0,12
314,266	-0,12
314,73	-0,12
315,193	-0,13
315,657	-0,11
316,12	-0,12
316,584	-0,1
317,047	-0,1
317,51	-0,09
317,973	-0,08
318,437	-0,06
318,9	-0,05
319,363	-0,04
319,826	-0,03
320,29	-0,04
320,753	-0,04
321,216	-0,04
321,679	-0,04
322,142	-0,04
322,605	-0,06
323,068	-0,07
323,531	-0,07
323,994	-0,06
324,457	-0,06
324,92	-0,05
325,382	-0,05
325,845	-0,05
326,308	-0,04
326,771	-0,04
327,233	-0,03
327,696	-0,03
328,159	-0,02
328,622	-0,01
329,084	-0,01
329,547	-0,01
330,009	-0,01
330,472	0
330,934	0,01
331,397	0,01
331,859	0,02
332,322	0,02
332,784	0,02
333,246	0,03
333,709	0,02
334,171	0,02
334,633	0,03
335,096	0,02
335,558	0,02
336,02	0,02
336,482	0,02
336,944	0,03
337,406	0,04
337,868	0,04
338,331	0,04
338,793	0,05
339,255	0,05
339,717	0,06
340,178	0,07
340,64	0,08
341,102	0,09
341,564	0,09
342,026	0,1
342,488	0,11
342,949	0,13
343,411	0,15
343,873	0,17
344,335	0,19
344,796	0,22
345,258	0,26
345,719	0,29
346,181	0,32
346,643	0,35
347,104	0,37
347,566	0,39
348,027	0,41
348,488	0,42
348,95	0,44
349,411	0,45
349,873	0,46
350,334	0,47
350,795	0,48
351,256	0,49
351,718	0,5
352,179	0,5
352,64	0,5
353,101	0,5
353,562	0,51
354,023	0,51
354,484	0,51
354,945	0,51
355,406	0,51
355,867	0,51
356,328	0,51
356,789	0,52
357,25	0,52
357,711	0,52
358,172	0,52
358,633	0,52
359,093	0,52
359,554	0,52
360,015	0,52
360,476	0,52
360,936	0,53
361,397	0,53
361,858	0,53
362,318	0,53
362,779	0,53
363,239	0,53
363,7	0,53
364,16	0,53
364,621	0,53
365,081	0,53
365,541	0,53
366,002	0,53
366,462	0,53
366,922	0,53
367,383	0,53
367,843	0,53
368,303	0,53
368,763	0,53
369,223	0,53
369,684	0,53
370,144	0,53
370,604	0,53
371,064	0,53
371,524	0,53
371,984	0,53
372,444	0,53
372,904	0,53
373,363	0,53
373,823	0,53
374,283	0,52
374,743	0,52
375,203	0,52
375,663	0,52
376,122	0,52
376,582	0,52
377,042	0,52
377,501	0,52
377,961	0,52
378,42	0,52
378,88	0,52
379,34	0,52
379,799	0,52
380,259	0,52
380,718	0,52
381,177	0,52
381,637	0,52
382,096	0,52
382,555	0,52
383,015	0,52
383,474	0,52
383,933	0,52
384,393	0,52
384,852	0,52
385,311	0,52
385,77	0,52
386,229	0,52
386,688	0,52
387,147	0,52
387,606	0,52
388,065	0,52
388,524	0,52
388,983	0,52
389,442	0,51
389,901	0,51
390,36	0,51
390,819	0,51
391,277	0,51
391,736	0,51
392,195	0,51
392,654	0,51
393,112	0,51
393,571	0,51
394,03	0,51
394,488	0,51
394,947	0,51
395,405	0,51
395,864	0,51
396,322	0,51
396,781	0,51
397,239	0,51
397,698	0,51
398,156	0,51
398,614	0,51
399,073	0,51
399,531	0,51
399,989	0,51
400,447	0,51
400,905	0,51
401,364	0,51
401,822	0,51
402,28	0,51
402,738	0,51
403,196	0,51
403,654	0,51
404,112	0,51
404,57	0,51
405,028	0,51
405,486	0,51
405,944	0,51
406,402	0,51
406,859	0,51
407,317	0,51
407,775	0,51
408,233	0,51
408,691	0,51
409,148	0,51
409,606	0,51
410,064	0,5
410,521	0,5
410,979	0,5
411,436	0,5
411,894	0,5
412,351	0,5
412,809	0,5
413,266	0,5
413,724	0,5
414,181	0,5
414,638	0,5
415,096	0,5
415,553	0,5
416,01	0,5
416,467	0,5
416,925	0,5
417,382	0,5
417,839	0,5
418,296	0,5
418,753	0,5
419,21	0,5
419,667	0,5
420,124	0,5
420,581	0,5
421,038	0,5
421,495	0,5
421,952	0,5
422,409	0,5
422,866	0,5
423,322	0,5
423,779	0,5
424,236	0,5
424,693	0,5
425,149	0,5
425,606	0,5
426,063	0,5
426,519	0,5
426,976	0,5
427,433	0,5
427,889	0,5
428,346	0,5
428,802	0,5
429,258	0,5
429,715	0,5
430,171	0,5
430,628	0,5
431,084	0,5
431,54	0,5
431,997	0,5
432,453	0,5
432,909	0,5
433,365	0,5
433,821	0,49
434,277	0,49
434,734	0,49
435,19	0,49
435,646	0,49
436,102	0,49
436,558	0,49
437,014	0,49
437,47	0,49
437,925	0,49
438,381	0,5
438,837	0,5
439,293	0,5
439,749	0,5
440,205	0,5
440,66	0,5
441,116	0,5
441,572	0,5
442,027	0,5
442,483	0,5
442,939	0,49
443,394	0,5
443,85	0,5
444,305	0,5
444,761	0,5
445,216	0,5
445,672	0,5
446,127	0,5
446,582	0,5
447,038	0,5
447,493	0,5
447,948	0,5
448,403	0,5
448,859	0,5
449,314	0,5
449,769	0,5
450,224	0,5
450,679	0,5
451,134	0,5
451,589	0,5
452,044	0,5
452,499	0,5
452,954	0,5
453,409	0,5
453,864	0,5
454,319	0,5
454,774	0,5
455,229	0,5
455,684	0,5
456,138	0,5
456,593	0,5
457,048	0,5
457,503	0,5
457,957	0,5
458,412	0,5
458,866	0,5
459,321	0,5
459,776	0,5
460,23	0,5
460,685	0,5
461,139	0,5
461,593	0,5
462,048	0,5
462,502	0,5
462,957	0,5
463,411	0,5
463,865	0,51
464,319	0,51
464,774	0,51
465,228	0,51
465,682	0,51
466,136	0,51
466,59	0,51
467,044	0,51
467,499	0,51
467,953	0,51
468,407	0,51
468,861	0,51
469,315	0,51
469,768	0,51
470,222	0,51
470,676	0,51
471,13	0,51
471,584	0,51
472,038	0,51
472,491	0,51
472,945	0,51
473,399	0,51
473,852	0,52
474,306	0,52
474,76	0,52
475,213	0,52
475,667	0,52
476,12	0,52
476,574	0,52
477,027	0,52
477,481	0,52
477,934	0,52
478,388	0,52
478,841	0,52
479,294	0,53
479,748	0,53
480,201	0,53
480,654	0,53
481,107	0,53
481,561	0,53
482,014	0,53
482,467	0,53
482,92	0,53
483,373	0,54
483,826	0,54
484,279	0,54
484,732	0,54
485,185	0,54
485,638	0,54
486,091	0,54
486,544	0,54
486,997	0,54
487,449	0,55
487,902	0,55
488,355	0,55
488,808	0,55
489,26	0,55
489,713	0,56
490,166	0,56
490,618	0,56
491,071	0,56
491,523	0,56
491,976	0,57
492,429	0,57
492,881	0,57
493,333	0,57
493,786	0,57
494,238	0,58
494,691	0,58
495,143	0,58
495,595	0,58
496,048	0,58
496,5	0,59
496,952	0,59
497,404	0,59
497,856	0,59
498,309	0,59
498,761	0,6
499,213	0,6
499,665	0,6
500,117	0,61
500,569	0,61
501,021	0,61
501,473	0,61
501,925	0,62
502,377	0,62
502,828	0,62
503,28	0,63
503,732	0,63
504,184	0,63
504,636	0,63
505,087	0,64
505,539	0,64
505,991	0,64
506,442	0,64
506,894	0,65
507,345	0,65
507,797	0,65
508,249	0,65
508,7	0,66
509,151	0,66
509,603	0,66
510,054	0,67
510,506	0,67
510,957	0,67
511,408	0,67
511,86	0,68
512,311	0,68
512,762	0,68
513,213	0,68
513,665	0,69
514,116	0,69
514,567	0,69
515,018	0,69
515,469	0,7
515,92	0,7
516,371	0,7
516,822	0,7
517,273	0,71
517,724	0,71
518,175	0,71
518,626	0,71
519,076	0,71
519,527	0,71
519,978	0,72
520,429	0,72
520,88	0,72
521,33	0,72
521,781	0,72
522,232	0,72
522,682	0,72
523,133	0,72
523,583	0,73
524,034	0,73
524,484	0,73
524,935	0,73
525,385	0,73
525,836	0,73
526,286	0,73
526,736	0,73
527,187	0,73
527,637	0,73
528,087	0,73
528,538	0,73
528,988	0,73
529,438	0,73
529,888	0,73
530,338	0,73
530,788	0,73
531,238	0,73
531,688	0,73
532,139	0,73
532,589	0,73
533,038	0,72
533,488	0,72
533,938	0,72
534,388	0,72
534,838	0,72
535,288	0,72
535,738	0,72
536,187	0,71
536,637	0,71
537,087	0,71
537,537	0,71
537,986	0,7
538,436	0,7
538,885	0,7
539,335	0,7
539,785	0,69
540,234	0,69
540,684	0,69
541,133	0,68
541,582	0,68
542,032	0,68
542,481	0,68
542,931	0,67
543,38	0,67
543,829	0,67
544,278	0,66
544,728	0,66
545,177	0,66
545,626	0,65
546,075	0,65
546,524	0,65
546,973	0,65
547,422	0,64
547,871	0,64
548,32	0,64
548,769	0,64
549,218	0,64
549,667	0,64
550,116	0,64
550,565	0,63
551,014	0,63
551,463	0,63
551,911	0,63
552,36	0,62
552,809	0,62
553,258	0,62
553,706	0,62
554,155	0,61
554,603	0,61
555,052	0,61
555,501	0,61
555,949	0,6
556,398	0,6
556,846	0,6
557,294	0,6
557,743	0,59
558,191	0,59
558,64	0,59
559,088	0,58
559,536	0,58
559,985	0,58
560,433	0,58
560,881	0,57
561,329	0,57
561,777	0,57
562,225	0,57
562,674	0,56
563,122	0,56
563,57	0,56
564,018	0,56
564,466	0,55
564,914	0,55
565,362	0,55
565,809	0,55
566,257	0,54
566,705	0,54
567,153	0,54
567,601	0,54
568,048	0,53
568,496	0,53
568,944	0,53
569,392	0,53
569,839	0,52
570,287	0,52
570,734	0,52
571,182	0,52
571,63	0,52
572,077	0,51
572,525	0,51
572,972	0,51
573,419	0,51
573,867	0,5
574,314	0,5
574,761	0,5
575,209	0,5
575,656	0,5
576,103	0,49
576,551	0,49
576,998	0,49
577,445	0,49
577,892	0,49
578,339	0,49
578,786	0,49
579,233	0,48
579,68	0,48
580,127	0,48
580,574	0,48
581,021	0,48
581,468	0,48
581,915	0,47
582,362	0,47
582,809	0,47
583,255	0,47
583,702	0,47
584,149	0,47
584,596	0,46
585,042	0,46
585,489	0,46
585,936	0,46
586,382	0,46
586,829	0,46
587,275	0,46
587,722	0,46
588,168	0,45
588,615	0,45
589,061	0,45
589,508	0,45
589,954	0,45
590,4	0,45
590,847	0,45
591,293	0,45
591,739	0,45
592,185	0,44
592,632	0,44
593,078	0,44
593,524	0,44
593,97	0,44
594,416	0,44
594,862	0,44
595,308	0,44
595,754	0,44
596,2	0,44
596,646	0,44
597,092	0,43
597,538	0,43
597,984	0,43
598,43	0,43
598,876	0,43
599,321	0,43
599,767	0,43
600,213	0,43
600,659	0,43
601,104	0,43
601,55	0,43
601,995	0,43
602,441	0,42
602,887	0,42
603,332	0,42
603,778	0,42
604,223	0,42
604,668	0,42
605,114	0,42
605,559	0,42
606,005	0,42
606,45	0,42
606,895	0,42
607,341	0,42
607,786	0,42
608,231	0,42
608,676	0,41
609,121	0,41
609,566	0,4
610,012	0,4
610,457	0,4
610,902	0,4
611,347	0,39
611,792	0,39
612,237	0,39
612,682	0,39
613,127	0,39
613,571	0,39
614,016	0,39
614,461	0,4
614,906	0,4
615,351	0,4
615,795	0,4
616,24	0,4
616,685	0,4
617,129	0,4
617,574	0,4
618,019	0,4
618,463	0,4
618,908	0,4
619,352	0,4
619,797	0,4
620,241	0,4
620,686	0,4
621,13	0,4
621,574	0,4
622,019	0,4
622,463	0,4
622,907	0,4
623,352	0,39
623,796	0,39
624,24	0,39
624,684	0,39
625,128	0,39
625,572	0,39
626,016	0,39
626,461	0,39
626,905	0,39
627,349	0,39
627,793	0,39
628,236	0,39
628,68	0,39
629,124	0,39
629,568	0,39
630,012	0,39
630,456	0,39
630,9	0,39
631,343	0,39
631,787	0,39
632,231	0,39
632,674	0,39
633,118	0,39
633,562	0,39
634,005	0,39
634,449	0,39
634,892	0,39
635,336	0,39
635,779	0,39
636,223	0,39
636,666	0,39
637,109	0,39
637,553	0,39
637,996	0,38
638,439	0,38
638,883	0,38
639,326	0,38
639,769	0,38
640,212	0,38
640,655	0,38
641,099	0,38
641,542	0,38
641,985	0,38
642,428	0,38
642,871	0,38
643,314	0,38
643,757	0,38
644,2	0,38
644,643	0,38
645,085	0,38
645,528	0,38
645,971	0,38
646,414	0,38
646,857	0,38
647,299	0,38
647,742	0,38
648,185	0,38
648,627	0,38
649,07	0,37
649,513	0,37
649,955	0,37
650,398	0,37
650,84	0,37
651,283	0,37
651,725	0,37
652,168	0,37
652,61	0,37
653,052	0,37
653,495	0,37
653,937	0,29
654,379	0,24
654,821	0,24
655,264	0,24
655,706	0,24
656,148	0,24
656,59	0,24
657,032	0,24
657,474	0,24
657,916	0,24
658,358	0,24
658,8	0,3
659,242	0,37
659,684	0,37
660,126	0,37
660,568	0,37
661,01	0,37
661,452	0,37
661,894	0,37
662,335	0,37
662,777	0,37
663,219	0,37
663,661	0,37
664,102	0,37
664,544	0,37
664,985	0,37
665,427	0,37
665,869	0,37
666,31	0,37
666,752	0,37
667,193	0,37
667,634	0,37
668,076	0,37
668,517	0,37
668,959	0,37
669,4	0,37
669,841	0,37
670,282	0,37
670,724	0,37
671,165	0,37
671,606	0,37
672,047	0,37
672,488	0,37
672,929	0,37
673,37	0,37
673,811	0,37
674,252	0,37
674,693	0,37
675,134	0,36
675,575	0,36
676,016	0,36
676,457	0,36
676,898	0,36
677,339	0,36
677,78	0,36
678,22	0,36
678,661	0,36
679,102	0,36
679,542	0,36
679,983	0,36
680,424	0,36
680,864	0,36
681,305	0,36
681,745	0,36
682,186	0,36
682,626	0,36
683,067	0,36
683,507	0,36
683,948	0,36
684,388	0,36
684,828	0,36
685,269	0,36
685,709	0,36
686,149	0,36
686,589	0,36
687,029	0,36
687,47	0,35
687,91	0,35
688,35	0,35
688,79	0,35
689,23	0,35
689,67	0,35
690,11	0,35
690,55	0,35
690,99	0,35
691,43	0,35
691,87	0,35
692,31	0,35
692,749	0,35
693,189	0,35
693,629	0,35
694,069	0,35
694,508	0,35
694,948	0,35
695,388	0,35
695,827	0,35
696,267	0,35
696,706	0,35
697,146	0,35
697,586	0,35
698,025	0,35
698,464	0,36
698,904	0,36
699,343	0,36
699,783	0,36
700,222	0,36
700,661	0,36
701,101	0,36
701,54	0,36
701,979	0,36
702,418	0,35
702,857	0,35
703,297	0,35
703,736	0,35
704,175	0,35
704,614	0,35
705,053	0,35
705,492	0,35
705,931	0,35
706,37	0,35
706,809	0,35
707,248	0,35
707,687	0,35
708,125	0,35
708,564	0,35
709,003	0,35
709,442	0,34
709,88	0,34
710,319	0,34
710,758	0,34
711,196	0,34
711,635	0,34
712,074	0,34
712,512	0,34
712,951	0,34
713,389	0,34
713,828	0,34
714,266	0,34
714,705	0,34
715,143	0,34
715,581	0,34
716,02	0,34
716,458	0,34
716,896	0,34
717,334	0,34
717,773	0,34
718,211	0,34
718,649	0,34
719,087	0,34
719,525	0,34
719,963	0,34
720,401	0,34
720,839	0,34
721,277	0,34
721,715	0,34
722,153	0,34
722,591	0,34
723,029	0,34
723,467	0,34
723,905	0,34
724,342	0,34
724,78	0,34
725,218	0,34
725,656	0,34
726,093	0,34
726,531	0,34
726,969	0,34
727,406	0,34
727,844	0,34
728,281	0,34
728,719	0,34
729,156	0,34
729,594	0,34
730,031	0,33
730,469	0,33
730,906	0,33
731,343	0,33
731,781	0,33
732,218	0,33
732,655	0,33
733,092	0,33
733,53	0,33
733,967	0,33
734,404	0,33
734,841	0,33
735,278	0,33
735,715	0,33
736,152	0,33
736,589	0,33
737,026	0,33
737,463	0,33
737,9	0,33
738,337	0,33
738,774	0,33
739,211	0,33
739,647	0,32
740,084	0,32
740,521	0,32
740,958	0,32
741,394	0,32
741,831	0,32
742,268	0,32
742,704	0,32
743,141	0,32
743,577	0,32
744,014	0,32
744,45	0,32
744,887	0,31
745,323	0,31
745,76	0,31
746,196	0,31
746,632	0,31
747,069	0,31
747,505	0,31
747,941	0,31
748,378	0,31
748,814	0,31
749,25	0,31
749,686	0,32
750,122	0,32
750,558	0,32
750,994	0,32
751,43	0,32
751,866	0,32
752,302	0,32
752,738	0,32
753,174	0,32
753,61	0,33
754,046	0,33
754,482	0,33
754,918	0,33
755,354	0,33
755,789	0,33
756,225	0,33
756,661	0,32
757,096	0,32
757,532	0,32
757,968	0,32
758,403	0,32
758,839	0,32
759,274	0,31
759,71	0,31
760,145	0,31
760,581	0,3
761,016	0,3
761,452	0,29
761,887	0,29
762,322	0,29
762,758	0,28
763,193	0,28
763,628	0,27
764,063	0,27
764,499	0,26
764,934	0,26
765,369	0,26
765,804	0,25
766,239	0,25
766,674	0,24
767,109	0,23
767,544	0,23
767,979	0,22
768,414	0,21
768,849	0,2
769,284	0,2
769,719	0,19
770,154	0,18
770,588	0,18
771,023	0,17
771,458	0,16
771,893	0,15
772,327	0,14
772,762	0,13
773,197	0,12
773,631	0,11
774,066	0,11
774,5	0,1
774,935	0,09
775,369	0,08
775,804	0,07
776,238	0,06
776,673	0,05
777,107	0,04
777,541	0,03
777,976	0,02
778,41	0,01
778,844	0
779,279	0
779,713	-0,01
780,147	-0,01
780,581	-0,02
781,015	-0,03
781,449	-0,03
781,883	-0,04
782,317	-0,05
782,751	-0,06
783,185	-0,07
783,619	-0,07
784,053	-0,08
784,487	-0,09
784,921	-0,1
785,355	-0,11
785,789	-0,11
786,223	-0,12
786,656	-0,13
787,09	-0,15
787,524	-0,15
787,957	-0,16
788,391	-0,18
788,825	-0,19
789,258	-0,2
789,692	-0,21
790,125	-0,23
790,559	-0,25
790,992	-0,27
791,426	-0,29
791,859	-0,3
792,293	-0,33
792,726	-0,35
793,159	-0,38
793,593	-0,4
794,026	-0,42
794,459	-0,46
794,892	-0,48
795,326	-0,51
795,759	-0,54
796,192	-0,59
796,625	-0,64
797,058	-0,66
797,491	-0,7
797,924	-0,73
798,357	-0,78
798,79	-0,83
799,223	-0,87
799,656	-0,92
800,089	-0,97
800,522	-1,02
800,955	-1,06
801,387	-1,11
801,82	-1,17
802,253	-1,23
802,686	-1,31
803,118	-1,37
803,551	-1,42
803,984	-1,46
804,416	-1,5
804,849	-1,53
805,281	-1,64
805,714	-2
806,146	-2,46
806,579	-2,71
807,011	-2,87
807,444	-2,97
807,876	-3,06
808,308	-3,09
808,741	-3,12
809,173	-3,17
809,605	-3,2
810,037	-3,27
810,47	-3,19
810,902	-2,99
811,334	-2,85
811,766	-2,7
812,198	-2,47
812,63	-2,05
813,062	-1,82
813,494	-1,72
813,926	-1,63
814,358	-1,57
814,79	-1,49
815,222	-1,43
815,654	-1,38
816,086	-1,32
816,518	-1,26
816,949	-1,21
817,381	-1,17
817,813	-1,15
818,245	-1,11
818,676	-1,07
819,108	-1,03
819,54	-1,02
819,971	-1
820,403	-0,95
820,834	-0,93
821,266	-0,89
821,697	-0,86
822,129	-0,85
822,56	-0,82
822,991	-0,8
823,423	-0,77
823,854	-0,76
824,286	-0,73
824,717	-0,71
825,148	-0,7
825,579	-0,69
826,01	-0,67
826,442	-0,66
826,873	-0,64
827,304	-0,61
827,735	-0,6
828,166	-0,6
828,597	-0,6
829,028	-0,59
829,459	-0,6
829,89	-0,6
830,321	-0,55
830,752	-0,56
831,183	-0,55
831,613	-0,54
832,044	-0,54
832,475	-0,53
832,906	-0,54
833,336	-0,55
833,767	-0,55
834,198	-0,54
834,628	-0,52
835,059	-0,55
835,49	-0,57
835,92	-0,53
836,351	-0,53
836,781	-0,54
837,212	-0,55
837,642	-0,56
838,072	-0,54
838,503	-0,55
838,933	-0,53
839,364	-0,54
839,794	-0,52
840,224	-0,5
840,654	-0,55
841,085	-0,55
841,515	-0,53
841,945	-0,53
842,375	-0,49
842,805	-0,47
843,235	-0,46
843,665	-0,47
844,095	-0,46
844,525	-0,47
844,955	-0,47
845,385	-0,45
845,815	-0,43
846,245	-0,45
846,675	-0,45
847,105	-0,47
847,534	-0,48
847,964	-0,47
848,394	-0,45
848,824	-0,48
849,253	-0,48
849,683	-0,48
850,112	-0,5
850,542	-0,53
850,972	-0,53
851,401	-0,51
851,831	-0,49
852,26	-0,49
852,69	-0,52
853,119	-0,51
853,548	-0,51
853,978	-0,51
854,407	-0,49
854,836	-0,49
855,266	-0,48
855,695	-0,49
856,124	-0,51
856,553	-0,53
856,983	-0,54
857,412	-0,53
857,841	-0,55
858,27	-0,55
858,699	-0,56
859,128	-0,6
859,557	-0,62
859,986	-0,63
860,415	-0,61
860,844	-0,58
861,273	-0,59
861,702	-0,6
862,13	-0,58
862,559	-0,6
862,988	-0,58
863,417	-0,56
863,845	-0,55
864,274	-0,55
864,703	-0,55
865,131	-0,55
865,56	-0,56
865,989	-0,59
866,417	-0,55
866,846	-0,56
867,274	-0,55
867,703	-0,57
868,131	-0,58
868,559	-0,58
868,988	-0,61
869,416	-0,6
869,844	-0,61
870,273	-0,63
870,701	-0,6
871,129	-0,64
871,557	-0,66
871,986	-0,67
872,414	-0,68
872,842	-0,64
873,27	-0,63
873,698	-0,59
874,126	-0,63
874,554	-0,61
874,982	-0,61
875,41	-0,64
875,838	-0,6
876,266	-0,57
876,694	-0,57
877,122	-0,56
877,549	-0,62
877,977	-0,59
878,405	-0,62
878,833	-0,59
879,26	-0,59
879,688	-0,59
880,116	-0,57
880,543	-0,54
880,971	-0,53
881,399	-0,56
881,826	-0,57
882,254	-0,53
882,681	-0,57
883,109	-0,53
883,536	-0,54
883,963	-0,55
884,391	-0,54
884,818	-0,53
885,245	-0,57
885,673	-0,59
886,1	-0,56
886,527	-0,55
886,954	-0,52
887,381	-0,53
887,809	-0,55
888,236	-0,56
888,663	-0,57
889,09	-0,61
889,517	-0,63
889,944	-0,63
890,371	-0,61
890,798	-0,62
891,225	-0,63
891,652	-0,66
892,078	-0,64
892,505	-0,66
892,932	-0,61
893,359	-0,62
893,786	-0,61
894,212	-0,58
894,639	-0,59
895,066	-0,61
895,492	-0,56
895,919	-0,55
896,346	-0,55
896,772	-0,55
897,199	-0,52
897,625	-0,55
898,052	-0,51
898,478	-0,5
898,904	-0,51
899,331	-0,51
899,757	-0,53
900,183	-0,56
900,61	-0,54
901,036	-0,54
901,462	-0,55
901,888	-0,54
902,315	-0,52
902,741	-0,58
903,167	-0,56
903,593	-0,6
904,019	-0,58
904,445	-0,55
904,871	-0,57
905,297	-0,6
905,723	-0,6
906,149	-0,58
906,575	-0,59
907,001	-0,59
907,427	-0,55
907,852	-0,55
908,278	-0,55
908,704	-0,53
909,13	-0,53
909,555	-0,53
909,981	-0,51
910,407	-0,51
910,832	-0,51
911,258	-0,51
911,684	-0,51
912,109	-0,52
912,535	-0,54
912,96	-0,49
913,386	-0,52
913,811	-0,52
914,236	-0,53
914,662	-0,52
915,087	-0,55
915,512	-0,55
915,938	-0,57
916,363	-0,56
916,788	-0,57
917,213	-0,55
917,639	-0,6
918,064	-0,59
918,489	-0,59
918,914	-0,59
919,339	-0,6
919,764	-0,56
920,189	-0,56
920,614	-0,58
921,039	-0,59
921,464	-0,55
921,889	-0,58
922,314	-0,59
922,738	-0,61
923,163	-0,63
923,588	-0,64
924,013	-0,63
924,437	-0,63
924,862	-0,64
925,287	-0,61
925,711	-0,62
926,136	-0,63
926,561	-0,61
926,985	-0,59
927,41	-0,57
927,834	-0,54
928,259	-0,5
928,683	-0,49
929,108	-0,46
929,532	-0,46
929,956	-0,45
930,381	-0,44
930,805	-0,45
931,229	-0,44
931,653	-0,43
932,078	-0,43
932,502	-0,44
932,926	-0,45
933,35	-0,44
933,774	-0,44
934,198	-0,43
934,622	-0,42
935,046	-0,42
935,47	-0,42
935,894	-0,42
936,318	-0,42
936,742	-0,43
937,166	-0,43
937,59	-0,42
938,014	-0,44
938,437	-0,45
938,861	-0,47
939,285	-0,48
939,709	-0,48
940,132	-0,49
940,556	-0,49
940,98	-0,49
941,403	-0,48
941,827	-0,47
942,25	-0,49
942,674	-0,49
943,097	-0,49
943,521	-0,48
943,944	-0,49
944,368	-0,49
944,791	-0,47
945,214	-0,49
945,638	-0,5
946,061	-0,53
946,484	-0,54
946,907	-0,52
947,331	-0,51
947,754	-0,55
948,177	-0,52
948,6	-0,52
949,023	-0,51
949,446	-0,5
949,869	-0,48
950,292	-0,47
950,715	-0,44
951,138	-0,43
951,561	-0,41
951,984	-0,42
952,407	-0,4
952,83	-0,4
953,252	-0,35
953,675	-0,35
954,098	-0,36
954,521	-0,35
954,943	-0,34
955,366	-0,35
955,789	-0,33
956,211	-0,35
956,634	-0,35
957,056	-0,34
957,479	-0,35
957,902	-0,38
958,324	-0,38
958,746	-0,36
959,169	-0,38
959,591	-0,38
960,014	-0,39
960,436	-0,38
960,858	-0,38
961,281	-0,38
961,703	-0,39
962,125	-0,38
962,547	-0,36
962,969	-0,36
963,391	-0,37
963,814	-0,37
964,236	-0,37
964,658	-0,34
965,08	-0,35
965,502	-0,34
965,924	-0,32
966,346	-0,32
966,768	-0,31
967,189	-0,33
967,611	-0,33
968,033	-0,33
968,455	-0,31
968,877	-0,32
969,298	-0,34
969,72	-0,34
970,142	-0,34
970,563	-0,35
970,985	-0,33
971,407	-0,32
971,828	-0,31
972,25	-0,3
972,671	-0,29
973,093	-0,28
973,514	-0,26
973,936	-0,24
974,357	-0,22
974,778	-0,22
975,2	-0,22
975,621	-0,21
976,042	-0,19
976,464	-0,18
976,885	-0,17
977,306	-0,16
977,727	-0,16
978,148	-0,16
978,57	-0,14
978,991	-0,13
979,412	-0,12
979,833	-0,11
980,254	-0,1
980,675	-0,11
981,096	-0,1
981,517	-0,09
981,937	-0,08
982,358	-0,06
982,779	-0,05
983,2	-0,05
983,621	-0,05
984,042	-0,04
984,462	-0,03
984,883	-0,01
985,304	-0
985,724	0,01
986,145	0,01
986,565	0,03
986,986	0,03
987,407	0,04
987,827	0,05
988,248	0,07
988,668	0,08
989,088	0,09
989,509	0,1
989,929	0,11
990,35	0,12
990,77	0,13
991,19	0,14
991,61	0,15
992,031	0,15
992,451	0,16
992,871	0,17
993,291	0,17
993,711	0,18
994,131	0,19
994,551	0,19
994,971	0,2
995,391	0,2
995,811	0,2
996,231	0,21
996,651	0,21
997,071	0,22
997,491	0,22
997,911	0,23
998,331	0,23
998,75	0,24
999,17	0,24
999,59	0,24
1000,009	0,25
1000,429	0,25
1000,849	0,26
1001,268	0,26
1001,688	0,26
1002,107	0,26
1002,527	0,27
1002,946	0,27
1003,366	0,27
1003,785	0,27
1004,205	0,28
1004,624	0,28
1005,044	0,28
1005,463	0,28
1005,882	0,28
1006,301	0,28
1006,721	0,28
1007,14	0,29
1007,559	0,29
1007,978	0,29
1008,397	0,29
1008,816	0,29
1009,235	0,29
1009,655	0,28
1010,074	0,28
1010,492	0,28
1010,911	0,28
1011,33	0,28
1011,749	0,28
1012,168	0,28
1012,587	0,28
1013,006	0,28
1013,425	0,28
1013,843	0,28
1014,262	0,28
1014,681	0,27
1015,099	0,27
1015,518	0,27
1015,937	0,27
1016,355	0,28
1016,774	0,28
1017,192	0,28
1017,611	0,28
1018,029	0,28
1018,448	0,28
1018,866	0,28
1019,285	0,28
1019,703	0,28
1020,121	0,28
1020,54	0,28
1020,958	0,28
1021,376	0,28
1021,794	0,28
1022,213	0,28
1022,631	0,28
1023,049	0,28
1023,467	0,28
1023,885	0,28
1024,303	0,28
1024,721	0,28
1025,139	0,28
1025,557	0,27
1025,975	0,27
1026,393	0,27
1026,811	0,27
1027,229	0,27
1027,647	0,27
1028,065	0,27
1028,482	0,27
1028,9	0,27
1029,318	0,27
1029,735	0,27
1030,153	0,27
1030,571	0,27
1030,988	0,27
1031,406	0,27
1031,823	0,27
1032,241	0,27
1032,659	0,27
1033,076	0,27
1033,493	0,27
1033,911	0,27
1034,328	0,27
1034,746	0,27
1035,163	0,27
1035,58	0,27
1035,997	0,27
1036,415	0,27
1036,832	0,27
1037,249	0,27
1037,666	0,27
1038,083	0,27
1038,501	0,27
1038,918	0,27
1039,335	0,27
1039,752	0,27
1040,169	0,27
1040,586	0,26
1041,003	0,26
1041,419	0,26
1041,836	0,26
1042,253	0,26
1042,67	0,26
1043,087	0,26
1043,504	0,26
1043,92	0,26
1044,337	0,26
1044,754	0,26
1045,17	0,26
1045,587	0,26
1046,004	0,26
1046,42	0,26
1046,837	0,26
1047,253	0,26
1047,67	0,26
1048,086	0,26
1048,503	0,26
1048,919	0,26
1049,335	0,26
1049,752	0,26
1050,168	0,26
1050,584	0,26
1051,001	0,26
1051,417	0,26
1051,833	0,26
1052,249	0,26
1052,665	0,26
1053,081	0,26
1053,497	0,26
1053,914	0,26
1054,33	0,26
1054,746	0,26
1055,162	0,26
1055,578	0,26
1055,993	0,26
1056,409	0,26
1056,825	0,26
1057,241	0,26
1057,657	0,26
1058,073	0,26
1058,488	0,27
1058,904	0,27
1059,32	0,26
1059,736	0,27
1060,151	0,27
1060,567	0,27
1060,982	0,27
1061,398	0,27
1061,813	0,27
1062,229	0,27
1062,644	0,27
1063,06	0,27
1063,475	0,26
1063,891	0,26
1064,306	0,26
1064,721	0,26
1065,137	0,26
1065,552	0,26
1065,967	0,26
1066,382	0,26
1066,798	0,26
1067,213	0,26
1067,628	0,26
1068,043	0,26
1068,458	0,26
1068,873	0,26
1069,288	0,26
1069,703	0,26
1070,118	0,27
1070,533	0,27
1070,948	0,27
1071,363	0,27
1071,778	0,27
1072,193	0,27
1072,607	0,27
1073,022	0,27
1073,437	0,27
1073,852	0,27
1074,266	0,27
1074,681	0,27
1075,096	0,27
1075,51	0,27
1075,925	0,27
1076,339	0,27
1076,754	0,27
1077,168	0,27
1077,583	0,27
1077,997	0,27
1078,412	0,27
1078,826	0,27
1079,24	0,27
1079,655	0,26
1080,069	0,26
1080,483	0,26
1080,897	0,26
1081,312	0,26
1081,726	0,26
1082,14	0,26
1082,554	0,26
1082,968	0,26
1083,382	0,26
1083,796	0,25
1084,21	0,25
1084,624	0,25
1085,038	0,25
1085,452	0,25
1085,866	0,25
1086,28	0,25
1086,694	0,25
1087,108	0,25
1087,521	0,25
1087,935	0,24
1088,349	0,24
1088,763	0,24
1089,176	0,24
1089,59	0,24
1090,004	0,24
1090,417	0,23
1090,831	0,23
1091,244	0,23
1091,658	0,23
1092,071	0,23
1092,485	0,23
1092,898	0,23
1093,312	0,23
1093,725	0,22
1094,138	0,22
1094,552	0,22
1094,965	0,22
1095,378	0,22
1095,791	0,22
1096,205	0,22
1096,618	0,22
1097,031	0,21
1097,444	0,21
1097,857	0,21
1098,27	0,21
1098,683	0,21
1099,096	0,2
1099,509	0,2
1099,922	0,2
1100,335	0,19
1100,748	0,19
1101,161	0,19
1101,574	0,18
1101,986	0,18
1102,399	0,18
1102,812	0,17
1103,225	0,17
1103,637	0,17
1104,05	0,16
1104,463	0,16
1104,875	0,16
1105,288	0,16
1105,7	0,15
1106,113	0,15
1106,525	0,14
1106,938	0,14
1107,35	0,14
1107,763	0,13
1108,175	0,13
1108,588	0,13
1109	0,12
1109,412	0,12
1109,824	0,11
1110,237	0,11
1110,649	0,11
1111,061	0,11
