Data from 18C-808nm-8A_Absorbance__626__00626.txt Node

Date: Mon Jul 17 16:42:28 CEST 2023
User: Laser008
Spectrometer: MAYP115816
Trigger mode: 0
Integration Time (sec): 2,500000E-1
Scans to average: 10
Electric dark correction enabled: true
Nonlinearity correction enabled: true
Boxcar width: 5
XAxis mode: Wavelengths
Number of Pixels in Spectrum: 2068
>>>>>Begin Spectral Data<<<<<
198,914	-0,69
199,384	-0,45
199,855	-0,34
200,325	-0,27
200,796	-0,26
201,266	-0,21
201,737	-0,2
202,207	-0,19
202,677	-0,18
203,147	-0,17
203,618	-0,15
204,088	-0,14
204,558	-0,14
205,028	-0,14
205,498	-0,14
205,968	-0,14
206,439	-0,16
206,909	-0,15
207,379	-0,16
207,849	-0,16
208,319	-0,17
208,789	-0,17
209,258	-0,17
209,728	-0,18
210,198	-0,17
210,668	-0,18
211,138	-0,17
211,608	-0,16
212,077	-0,16
212,547	-0,15
213,017	-0,16
213,486	-0,15
213,956	-0,16
214,426	-0,17
214,895	-0,16
215,365	-0,16
215,834	-0,16
216,304	-0,17
216,773	-0,19
217,243	-0,2
217,712	-0,21
218,181	-0,21
218,651	-0,21
219,12	-0,21
219,589	-0,21
220,058	-0,2
220,528	-0,21
220,997	-0,22
221,466	-0,22
221,935	-0,22
222,404	-0,22
222,873	-0,2
223,342	-0,2
223,812	-0,2
224,281	-0,2
224,749	-0,2
225,218	-0,22
225,687	-0,21
226,156	-0,2
226,625	-0,18
227,094	-0,18
227,563	-0,18
228,031	-0,2
228,5	-0,2
228,969	-0,2
229,438	-0,2
229,906	-0,19
230,375	-0,18
230,844	-0,19
231,312	-0,19
231,781	-0,2
232,249	-0,2
232,718	-0,19
233,186	-0,18
233,655	-0,19
234,123	-0,19
234,591	-0,19
235,06	-0,19
235,528	-0,19
235,996	-0,19
236,465	-0,18
236,933	-0,18
237,401	-0,18
237,869	-0,17
238,337	-0,18
238,805	-0,17
239,274	-0,16
239,742	-0,16
240,21	-0,15
240,678	-0,15
241,146	-0,14
241,614	-0,14
242,081	-0,14
242,549	-0,13
243,017	-0,14
243,485	-0,14
243,953	-0,14
244,421	-0,13
244,888	-0,13
245,356	-0,13
245,824	-0,14
246,291	-0,14
246,759	-0,15
247,227	-0,15
247,694	-0,15
248,162	-0,14
248,629	-0,13
249,097	-0,13
249,564	-0,14
250,032	-0,15
250,499	-0,15
250,967	-0,15
251,434	-0,16
251,901	-0,15
252,369	-0,15
252,836	-0,16
253,303	-0,18
253,77	-0,19
254,237	-0,18
254,705	-0,19
255,172	-0,18
255,639	-0,18
256,106	-0,19
256,573	-0,19
257,04	-0,2
257,507	-0,2
257,974	-0,21
258,441	-0,19
258,908	-0,19
259,375	-0,21
259,841	-0,2
260,308	-0,21
260,775	-0,21
261,242	-0,2
261,709	-0,21
262,175	-0,21
262,642	-0,21
263,109	-0,21
263,575	-0,21
264,042	-0,2
264,508	-0,19
264,975	-0,21
265,441	-0,23
265,908	-0,23
266,374	-0,22
266,841	-0,22
267,307	-0,22
267,773	-0,21
268,24	-0,22
268,706	-0,22
269,172	-0,22
269,639	-0,23
270,105	-0,2
270,571	-0,2
271,037	-0,21
271,503	-0,21
271,969	-0,2
272,435	-0,2
272,902	-0,22
273,368	-0,22
273,834	-0,22
274,3	-0,23
274,765	-0,24
275,231	-0,25
275,697	-0,24
276,163	-0,24
276,629	-0,24
277,095	-0,24
277,56	-0,23
278,026	-0,24
278,492	-0,22
278,958	-0,22
279,423	-0,22
279,889	-0,21
280,354	-0,22
280,82	-0,22
281,286	-0,22
281,751	-0,23
282,217	-0,23
282,682	-0,23
283,147	-0,23
283,613	-0,24
284,078	-0,23
284,544	-0,25
285,009	-0,26
285,474	-0,25
285,939	-0,26
286,405	-0,25
286,87	-0,25
287,335	-0,25
287,8	-0,24
288,265	-0,23
288,73	-0,24
289,195	-0,26
289,66	-0,25
290,125	-0,24
290,59	-0,24
291,055	-0,24
291,52	-0,24
291,985	-0,24
292,45	-0,25
292,915	-0,25
293,38	-0,25
293,844	-0,24
294,309	-0,22
294,774	-0,22
295,239	-0,23
295,703	-0,23
296,168	-0,21
296,632	-0,21
297,097	-0,19
297,562	-0,18
298,026	-0,18
298,491	-0,18
298,955	-0,17
299,419	-0,17
299,884	-0,16
300,348	-0,15
300,813	-0,14
301,277	-0,16
301,741	-0,16
302,205	-0,16
302,67	-0,15
303,134	-0,15
303,598	-0,16
304,062	-0,16
304,526	-0,15
304,99	-0,16
305,454	-0,16
305,919	-0,16
306,383	-0,16
306,847	-0,16
307,31	-0,17
307,774	-0,18
308,238	-0,18
308,702	-0,17
309,166	-0,19
309,63	-0,2
310,094	-0,17
310,557	-0,17
311,021	-0,17
311,485	-0,17
311,948	-0,17
312,412	-0,16
312,876	-0,15
313,339	-0,16
313,803	-0,16
314,266	-0,15
314,73	-0,16
315,193	-0,16
315,657	-0,16
316,12	-0,15
316,584	-0,15
317,047	-0,15
317,51	-0,13
317,973	-0,13
318,437	-0,12
318,9	-0,11
319,363	-0,1
319,826	-0,1
320,29	-0,1
320,753	-0,1
321,216	-0,1
321,679	-0,1
322,142	-0,09
322,605	-0,1
323,068	-0,1
323,531	-0,1
323,994	-0,1
324,457	-0,1
324,92	-0,09
325,382	-0,08
325,845	-0,08
326,308	-0,08
326,771	-0,07
327,233	-0,07
327,696	-0,06
328,159	-0,05
328,622	-0,04
329,084	-0,04
329,547	-0,03
330,009	-0,03
330,472	-0,02
330,934	-0,02
331,397	-0,02
331,859	-0,01
332,322	-0,01
332,784	-0,01
333,246	-0,01
333,709	-0,01
334,171	-0,01
334,633	-0,01
335,096	-0,02
335,558	-0,02
336,02	-0,02
336,482	-0,02
336,944	-0,01
337,406	-0,01
337,868	-0,01
338,331	-0,01
338,793	-0,01
339,255	-0,01
339,717	-0
340,178	0
340,64	0,01
341,102	0,02
341,564	0,03
342,026	0,03
342,488	0,03
342,949	0,04
343,411	0,06
343,873	0,08
344,335	0,09
344,796	0,11
345,258	0,14
345,719	0,16
346,181	0,18
346,643	0,19
347,104	0,21
347,566	0,22
348,027	0,23
348,488	0,24
348,95	0,25
349,411	0,25
349,873	0,26
350,334	0,27
350,795	0,27
351,256	0,28
351,718	0,28
352,179	0,29
352,64	0,29
353,101	0,29
353,562	0,29
354,023	0,29
354,484	0,29
354,945	0,29
355,406	0,29
355,867	0,29
356,328	0,29
356,789	0,29
357,25	0,29
357,711	0,3
358,172	0,3
358,633	0,3
359,093	0,3
359,554	0,3
360,015	0,3
360,476	0,3
360,936	0,3
361,397	0,3
361,858	0,3
362,318	0,3
362,779	0,3
363,239	0,3
363,7	0,3
364,16	0,3
364,621	0,3
365,081	0,3
365,541	0,3
366,002	0,3
366,462	0,3
366,922	0,3
367,383	0,3
367,843	0,3
368,303	0,3
368,763	0,3
369,223	0,3
369,684	0,3
370,144	0,3
370,604	0,3
371,064	0,3
371,524	0,3
371,984	0,3
372,444	0,3
372,904	0,3
373,363	0,3
373,823	0,3
374,283	0,3
374,743	0,3
375,203	0,3
375,663	0,3
376,122	0,3
376,582	0,3
377,042	0,3
377,501	0,3
377,961	0,3
378,42	0,3
378,88	0,3
379,34	0,3
379,799	0,3
380,259	0,3
380,718	0,29
381,177	0,29
381,637	0,29
382,096	0,29
382,555	0,29
383,015	0,29
383,474	0,29
383,933	0,29
384,393	0,29
384,852	0,29
385,311	0,29
385,77	0,29
386,229	0,29
386,688	0,29
387,147	0,29
387,606	0,29
388,065	0,29
388,524	0,29
388,983	0,29
389,442	0,29
389,901	0,29
390,36	0,29
390,819	0,29
391,277	0,29
391,736	0,29
392,195	0,29
392,654	0,29
393,112	0,29
393,571	0,29
394,03	0,29
394,488	0,29
394,947	0,29
395,405	0,29
395,864	0,29
396,322	0,29
396,781	0,29
397,239	0,29
397,698	0,29
398,156	0,29
398,614	0,29
399,073	0,29
399,531	0,29
399,989	0,29
400,447	0,29
400,905	0,29
401,364	0,29
401,822	0,29
402,28	0,29
402,738	0,29
403,196	0,28
403,654	0,28
404,112	0,28
404,57	0,28
405,028	0,28
405,486	0,28
405,944	0,28
406,402	0,28
406,859	0,28
407,317	0,28
407,775	0,28
408,233	0,28
408,691	0,28
409,148	0,28
409,606	0,28
410,064	0,28
410,521	0,28
410,979	0,28
411,436	0,28
411,894	0,28
412,351	0,28
412,809	0,28
413,266	0,28
413,724	0,28
414,181	0,28
414,638	0,28
415,096	0,28
415,553	0,28
416,01	0,28
416,467	0,28
416,925	0,28
417,382	0,28
417,839	0,28
418,296	0,28
418,753	0,28
419,21	0,28
419,667	0,28
420,124	0,28
420,581	0,28
421,038	0,28
421,495	0,28
421,952	0,28
422,409	0,28
422,866	0,28
423,322	0,28
423,779	0,28
424,236	0,28
424,693	0,28
425,149	0,28
425,606	0,28
426,063	0,28
426,519	0,28
426,976	0,28
427,433	0,28
427,889	0,28
428,346	0,28
428,802	0,28
429,258	0,28
429,715	0,28
430,171	0,28
430,628	0,28
431,084	0,28
431,54	0,28
431,997	0,28
432,453	0,28
432,909	0,27
433,365	0,27
433,821	0,27
434,277	0,27
434,734	0,27
435,19	0,27
435,646	0,27
436,102	0,27
436,558	0,27
437,014	0,27
437,47	0,27
437,925	0,27
438,381	0,27
438,837	0,27
439,293	0,27
439,749	0,27
440,205	0,27
440,66	0,27
441,116	0,27
441,572	0,27
442,027	0,27
442,483	0,27
442,939	0,27
443,394	0,27
443,85	0,27
444,305	0,27
444,761	0,27
445,216	0,27
445,672	0,27
446,127	0,27
446,582	0,27
447,038	0,27
447,493	0,27
447,948	0,27
448,403	0,27
448,859	0,27
449,314	0,27
449,769	0,27
450,224	0,27
450,679	0,27
451,134	0,27
451,589	0,27
452,044	0,27
452,499	0,27
452,954	0,27
453,409	0,27
453,864	0,27
454,319	0,27
454,774	0,27
455,229	0,27
455,684	0,27
456,138	0,27
456,593	0,27
457,048	0,27
457,503	0,27
457,957	0,27
458,412	0,27
458,866	0,27
459,321	0,27
459,776	0,27
460,23	0,27
460,685	0,27
461,139	0,27
461,593	0,27
462,048	0,27
462,502	0,27
462,957	0,27
463,411	0,27
463,865	0,27
464,319	0,28
464,774	0,28
465,228	0,28
465,682	0,28
466,136	0,28
466,59	0,28
467,044	0,28
467,499	0,28
467,953	0,28
468,407	0,28
468,861	0,28
469,315	0,28
469,768	0,28
470,222	0,28
470,676	0,28
471,13	0,28
471,584	0,28
472,038	0,28
472,491	0,28
472,945	0,28
473,399	0,28
473,852	0,28
474,306	0,28
474,76	0,28
475,213	0,28
475,667	0,28
476,12	0,28
476,574	0,28
477,027	0,28
477,481	0,28
477,934	0,28
478,388	0,28
478,841	0,28
479,294	0,28
479,748	0,29
480,201	0,29
480,654	0,29
481,107	0,29
481,561	0,29
482,014	0,29
482,467	0,29
482,92	0,29
483,373	0,29
483,826	0,29
484,279	0,29
484,732	0,29
485,185	0,29
485,638	0,29
486,091	0,29
486,544	0,29
486,997	0,3
487,449	0,3
487,902	0,3
488,355	0,3
488,808	0,3
489,26	0,3
489,713	0,3
490,166	0,3
490,618	0,3
491,071	0,31
491,523	0,31
491,976	0,31
492,429	0,31
492,881	0,31
493,333	0,31
493,786	0,31
494,238	0,32
494,691	0,32
495,143	0,32
495,595	0,32
496,048	0,32
496,5	0,32
496,952	0,32
497,404	0,32
497,856	0,33
498,309	0,33
498,761	0,33
499,213	0,33
499,665	0,33
500,117	0,33
500,569	0,34
501,021	0,34
501,473	0,34
501,925	0,34
502,377	0,34
502,828	0,35
503,28	0,35
503,732	0,35
504,184	0,35
504,636	0,35
505,087	0,35
505,539	0,36
505,991	0,36
506,442	0,36
506,894	0,36
507,345	0,36
507,797	0,36
508,249	0,37
508,7	0,37
509,151	0,37
509,603	0,37
510,054	0,37
510,506	0,38
510,957	0,38
511,408	0,38
511,86	0,38
512,311	0,38
512,762	0,38
513,213	0,38
513,665	0,39
514,116	0,39
514,567	0,39
515,018	0,39
515,469	0,39
515,92	0,39
516,371	0,4
516,822	0,4
517,273	0,4
517,724	0,4
518,175	0,4
518,626	0,4
519,076	0,4
519,527	0,41
519,978	0,41
520,429	0,41
520,88	0,41
521,33	0,41
521,781	0,41
522,232	0,41
522,682	0,41
523,133	0,41
523,583	0,42
524,034	0,42
524,484	0,42
524,935	0,42
525,385	0,42
525,836	0,42
526,286	0,42
526,736	0,42
527,187	0,42
527,637	0,42
528,087	0,42
528,538	0,42
528,988	0,42
529,438	0,42
529,888	0,42
530,338	0,42
530,788	0,42
531,238	0,42
531,688	0,42
532,139	0,42
532,589	0,42
533,038	0,42
533,488	0,42
533,938	0,42
534,388	0,42
534,838	0,42
535,288	0,42
535,738	0,42
536,187	0,41
536,637	0,41
537,087	0,41
537,537	0,41
537,986	0,41
538,436	0,41
538,885	0,41
539,335	0,41
539,785	0,4
540,234	0,4
540,684	0,4
541,133	0,4
541,582	0,4
542,032	0,4
542,481	0,39
542,931	0,39
543,38	0,39
543,829	0,39
544,278	0,39
544,728	0,39
545,177	0,39
545,626	0,38
546,075	0,38
546,524	0,38
546,973	0,38
547,422	0,38
547,871	0,38
548,32	0,38
548,769	0,38
549,218	0,38
549,667	0,38
550,116	0,38
550,565	0,38
551,014	0,38
551,463	0,37
551,911	0,37
552,36	0,37
552,809	0,37
553,258	0,37
553,706	0,37
554,155	0,37
554,603	0,37
555,052	0,36
555,501	0,36
555,949	0,36
556,398	0,36
556,846	0,36
557,294	0,36
557,743	0,36
558,191	0,35
558,64	0,35
559,088	0,35
559,536	0,35
559,985	0,35
560,433	0,35
560,881	0,35
561,329	0,34
561,777	0,34
562,225	0,34
562,674	0,34
563,122	0,34
563,57	0,34
564,018	0,34
564,466	0,34
564,914	0,34
565,362	0,33
565,809	0,33
566,257	0,33
566,705	0,33
567,153	0,33
567,601	0,33
568,048	0,33
568,496	0,32
568,944	0,32
569,392	0,32
569,839	0,32
570,287	0,32
570,734	0,32
571,182	0,32
571,63	0,32
572,077	0,32
572,525	0,31
572,972	0,31
573,419	0,31
573,867	0,31
574,314	0,31
574,761	0,31
575,209	0,31
575,656	0,31
576,103	0,31
576,551	0,31
576,998	0,31
577,445	0,31
577,892	0,3
578,339	0,3
578,786	0,3
579,233	0,3
579,68	0,3
580,127	0,3
580,574	0,3
581,021	0,3
581,468	0,3
581,915	0,3
582,362	0,3
582,809	0,3
583,255	0,29
583,702	0,29
584,149	0,29
584,596	0,29
585,042	0,29
585,489	0,29
585,936	0,29
586,382	0,29
586,829	0,29
587,275	0,29
587,722	0,29
588,168	0,29
588,615	0,29
589,061	0,29
589,508	0,28
589,954	0,28
590,4	0,28
590,847	0,28
591,293	0,28
591,739	0,28
592,185	0,28
592,632	0,28
593,078	0,28
593,524	0,28
593,97	0,28
594,416	0,28
594,862	0,28
595,308	0,28
595,754	0,28
596,2	0,28
596,646	0,28
597,092	0,28
597,538	0,28
597,984	0,28
598,43	0,28
598,876	0,27
599,321	0,27
599,767	0,27
600,213	0,27
600,659	0,27
601,104	0,27
601,55	0,27
601,995	0,27
602,441	0,27
602,887	0,27
603,332	0,27
603,778	0,27
604,223	0,27
604,668	0,27
605,114	0,27
605,559	0,27
606,005	0,27
606,45	0,27
606,895	0,27
607,341	0,27
607,786	0,27
608,231	0,27
608,676	0,27
609,121	0,26
609,566	0,26
610,012	0,26
610,457	0,26
610,902	0,25
611,347	0,25
611,792	0,25
612,237	0,25
612,682	0,25
613,127	0,25
613,571	0,25
614,016	0,25
614,461	0,25
614,906	0,25
615,351	0,26
615,795	0,26
616,24	0,26
616,685	0,26
617,129	0,26
617,574	0,26
618,019	0,26
618,463	0,26
618,908	0,26
619,352	0,26
619,797	0,26
620,241	0,26
620,686	0,26
621,13	0,26
621,574	0,26
622,019	0,26
622,463	0,25
622,907	0,25
623,352	0,25
623,796	0,25
624,24	0,25
624,684	0,25
625,128	0,25
625,572	0,25
626,016	0,25
626,461	0,25
626,905	0,25
627,349	0,25
627,793	0,25
628,236	0,25
628,68	0,25
629,124	0,25
629,568	0,25
630,012	0,25
630,456	0,25
630,9	0,25
631,343	0,25
631,787	0,25
632,231	0,25
632,674	0,25
633,118	0,25
633,562	0,25
634,005	0,25
634,449	0,25
634,892	0,25
635,336	0,25
635,779	0,25
636,223	0,25
636,666	0,25
637,109	0,25
637,553	0,25
637,996	0,25
638,439	0,25
638,883	0,25
639,326	0,25
639,769	0,25
640,212	0,25
640,655	0,25
641,099	0,25
641,542	0,25
641,985	0,25
642,428	0,25
642,871	0,25
643,314	0,25
643,757	0,25
644,2	0,25
644,643	0,25
645,085	0,25
645,528	0,25
645,971	0,25
646,414	0,24
646,857	0,24
647,299	0,24
647,742	0,24
648,185	0,24
648,627	0,24
649,07	0,24
649,513	0,24
649,955	0,24
650,398	0,24
650,84	0,24
651,283	0,24
651,725	0,24
652,168	0,24
652,61	0,24
653,052	0,24
653,495	0,24
653,937	0,19
654,379	0,16
654,821	0,16
655,264	0,16
655,706	0,16
656,148	0,16
656,59	0,16
657,032	0,16
657,474	0,16
657,916	0,16
658,358	0,16
658,8	0,19
659,242	0,24
659,684	0,24
660,126	0,24
660,568	0,24
661,01	0,24
661,452	0,24
661,894	0,24
662,335	0,24
662,777	0,24
663,219	0,24
663,661	0,24
664,102	0,24
664,544	0,24
664,985	0,24
665,427	0,24
665,869	0,24
666,31	0,24
666,752	0,24
667,193	0,24
667,634	0,24
668,076	0,24
668,517	0,24
668,959	0,24
669,4	0,24
669,841	0,24
670,282	0,24
670,724	0,24
671,165	0,24
671,606	0,24
672,047	0,24
672,488	0,24
672,929	0,24
673,37	0,24
673,811	0,24
674,252	0,24
674,693	0,24
675,134	0,24
675,575	0,23
676,016	0,24
676,457	0,24
676,898	0,24
677,339	0,23
677,78	0,23
678,22	0,23
678,661	0,23
679,102	0,23
679,542	0,23
679,983	0,24
680,424	0,24
680,864	0,23
681,305	0,23
681,745	0,23
682,186	0,23
682,626	0,24
683,067	0,24
683,507	0,24
683,948	0,23
684,388	0,23
684,828	0,23
685,269	0,23
685,709	0,23
686,149	0,23
686,589	0,23
687,029	0,23
687,47	0,23
687,91	0,23
688,35	0,23
688,79	0,23
689,23	0,23
689,67	0,23
690,11	0,23
690,55	0,23
690,99	0,23
691,43	0,23
691,87	0,22
692,31	0,22
692,749	0,22
693,189	0,22
693,629	0,22
694,069	0,22
694,508	0,22
694,948	0,22
695,388	0,22
695,827	0,22
696,267	0,22
696,706	0,22
697,146	0,23
697,586	0,23
698,025	0,23
698,464	0,23
698,904	0,23
699,343	0,23
699,783	0,23
700,222	0,23
700,661	0,23
701,101	0,23
701,54	0,23
701,979	0,23
702,418	0,23
702,857	0,23
703,297	0,22
703,736	0,22
704,175	0,22
704,614	0,22
705,053	0,22
705,492	0,22
705,931	0,22
706,37	0,22
706,809	0,22
707,248	0,22
707,687	0,22
708,125	0,22
708,564	0,22
709,003	0,22
709,442	0,22
709,88	0,22
710,319	0,22
710,758	0,22
711,196	0,22
711,635	0,22
712,074	0,22
712,512	0,22
712,951	0,22
713,389	0,22
713,828	0,22
714,266	0,22
714,705	0,22
715,143	0,21
715,581	0,21
716,02	0,21
716,458	0,21
716,896	0,21
717,334	0,21
717,773	0,21
718,211	0,21
718,649	0,21
719,087	0,21
719,525	0,21
719,963	0,21
720,401	0,21
720,839	0,21
721,277	0,21
721,715	0,21
722,153	0,21
722,591	0,21
723,029	0,21
723,467	0,21
723,905	0,21
724,342	0,21
724,78	0,21
725,218	0,21
725,656	0,21
726,093	0,21
726,531	0,21
726,969	0,21
727,406	0,21
727,844	0,21
728,281	0,21
728,719	0,21
729,156	0,21
729,594	0,21
730,031	0,21
730,469	0,21
730,906	0,21
731,343	0,21
731,781	0,21
732,218	0,21
732,655	0,21
733,092	0,21
733,53	0,21
733,967	0,21
734,404	0,21
734,841	0,21
735,278	0,21
735,715	0,2
736,152	0,2
736,589	0,2
737,026	0,2
737,463	0,2
737,9	0,2
738,337	0,2
738,774	0,2
739,211	0,2
739,647	0,2
740,084	0,2
740,521	0,2
740,958	0,2
741,394	0,2
741,831	0,2
742,268	0,2
742,704	0,2
743,141	0,2
743,577	0,2
744,014	0,2
744,45	0,19
744,887	0,19
745,323	0,19
745,76	0,19
746,196	0,19
746,632	0,19
747,069	0,19
747,505	0,19
747,941	0,19
748,378	0,19
748,814	0,19
749,25	0,19
749,686	0,19
750,122	0,19
750,558	0,19
750,994	0,2
751,43	0,2
751,866	0,2
752,302	0,2
752,738	0,2
753,174	0,2
753,61	0,2
754,046	0,2
754,482	0,2
754,918	0,2
755,354	0,2
755,789	0,2
756,225	0,2
756,661	0,2
757,096	0,2
757,532	0,2
757,968	0,2
758,403	0,2
758,839	0,2
759,274	0,2
759,71	0,19
760,145	0,19
760,581	0,19
761,016	0,18
761,452	0,18
761,887	0,18
762,322	0,18
762,758	0,17
763,193	0,17
763,628	0,16
764,063	0,16
764,499	0,16
764,934	0,15
765,369	0,15
765,804	0,14
766,239	0,14
766,674	0,14
767,109	0,13
767,544	0,13
767,979	0,12
768,414	0,12
768,849	0,11
769,284	0,11
769,719	0,1
770,154	0,09
770,588	0,09
771,023	0,08
771,458	0,07
771,893	0,07
772,327	0,06
772,762	0,05
773,197	0,04
773,631	0,04
774,066	0,03
774,5	0,03
774,935	0,02
775,369	0,01
775,804	0,01
776,238	-0
776,673	-0,01
777,107	-0,01
777,541	-0,02
777,976	-0,02
778,41	-0,03
778,844	-0,04
779,279	-0,04
779,713	-0,05
780,147	-0,06
780,581	-0,06
781,015	-0,07
781,449	-0,08
781,883	-0,08
782,317	-0,1
782,751	-0,11
783,185	-0,12
783,619	-0,12
784,053	-0,13
784,487	-0,14
784,921	-0,14
785,355	-0,15
785,789	-0,16
786,223	-0,17
786,656	-0,17
787,09	-0,18
787,524	-0,19
787,957	-0,2
788,391	-0,22
788,825	-0,24
789,258	-0,25
789,692	-0,27
790,125	-0,28
790,559	-0,3
790,992	-0,32
791,426	-0,34
791,859	-0,35
792,293	-0,39
792,726	-0,4
793,159	-0,42
793,593	-0,44
794,026	-0,46
794,459	-0,49
794,892	-0,51
795,326	-0,54
795,759	-0,58
796,192	-0,63
796,625	-0,67
797,058	-0,7
797,491	-0,74
797,924	-0,79
798,357	-0,84
798,79	-0,89
799,223	-0,93
799,656	-0,99
800,089	-1,04
800,522	-1,08
800,955	-1,13
801,387	-1,19
801,82	-1,24
802,253	-1,31
802,686	-1,39
803,118	-1,45
803,551	-1,5
803,984	-1,55
804,416	-1,6
804,849	-1,68
805,281	-1,91
805,714	-2,31
806,146	-2,61
806,579	-2,82
807,011	-2,95
807,444	-3,03
807,876	-3,08
808,308	-3,1
808,741	-3,13
809,173	-3,18
809,605	-3,2
810,037	-3,26
810,47	-3,14
810,902	-2,93
811,334	-2,77
811,766	-2,58
812,198	-2,25
812,63	-1,92
813,062	-1,79
813,494	-1,71
813,926	-1,63
814,358	-1,57
814,79	-1,49
815,222	-1,44
815,654	-1,39
816,086	-1,32
816,518	-1,27
816,949	-1,22
817,381	-1,17
817,813	-1,15
818,245	-1,11
818,676	-1,07
819,108	-1,04
819,54	-1,03
819,971	-1
820,403	-0,95
820,834	-0,94
821,266	-0,89
821,697	-0,87
822,129	-0,85
822,56	-0,83
822,991	-0,8
823,423	-0,77
823,854	-0,77
824,286	-0,74
824,717	-0,73
825,148	-0,71
825,579	-0,7
826,01	-0,68
826,442	-0,67
826,873	-0,65
827,304	-0,61
827,735	-0,6
828,166	-0,6
828,597	-0,59
829,028	-0,57
829,459	-0,57
829,89	-0,58
830,321	-0,53
830,752	-0,54
831,183	-0,53
831,613	-0,52
832,044	-0,52
832,475	-0,51
832,906	-0,53
833,336	-0,53
833,767	-0,54
834,198	-0,53
834,628	-0,51
835,059	-0,54
835,49	-0,55
835,92	-0,52
836,351	-0,52
836,781	-0,53
837,212	-0,54
837,642	-0,54
838,072	-0,51
838,503	-0,53
838,933	-0,49
839,364	-0,5
839,794	-0,48
840,224	-0,47
840,654	-0,51
841,085	-0,52
841,515	-0,48
841,945	-0,49
842,375	-0,44
842,805	-0,44
843,235	-0,42
843,665	-0,44
844,095	-0,43
844,525	-0,45
844,955	-0,46
845,385	-0,44
845,815	-0,42
846,245	-0,44
846,675	-0,45
847,105	-0,47
847,534	-0,48
847,964	-0,46
848,394	-0,45
848,824	-0,47
849,253	-0,46
849,683	-0,45
850,112	-0,46
850,542	-0,5
850,972	-0,5
851,401	-0,48
851,831	-0,46
852,26	-0,46
852,69	-0,5
853,119	-0,49
853,548	-0,5
853,978	-0,51
854,407	-0,5
854,836	-0,49
855,266	-0,48
855,695	-0,5
856,124	-0,51
856,553	-0,52
856,983	-0,54
857,412	-0,54
857,841	-0,54
858,27	-0,55
858,699	-0,55
859,128	-0,59
859,557	-0,6
859,986	-0,61
860,415	-0,58
860,844	-0,55
861,273	-0,54
861,702	-0,55
862,13	-0,53
862,559	-0,55
862,988	-0,52
863,417	-0,51
863,845	-0,5
864,274	-0,5
864,703	-0,5
865,131	-0,51
865,56	-0,52
865,989	-0,55
866,417	-0,52
866,846	-0,52
867,274	-0,51
867,703	-0,53
868,131	-0,55
868,559	-0,55
868,988	-0,58
869,416	-0,57
869,844	-0,58
870,273	-0,6
870,701	-0,58
871,129	-0,62
871,557	-0,64
871,986	-0,65
872,414	-0,66
872,842	-0,63
873,27	-0,61
873,698	-0,57
874,126	-0,61
874,554	-0,59
874,982	-0,59
875,41	-0,62
875,838	-0,57
876,266	-0,54
876,694	-0,54
877,122	-0,53
877,549	-0,58
877,977	-0,56
878,405	-0,58
878,833	-0,56
879,26	-0,54
879,688	-0,55
880,116	-0,53
880,543	-0,51
880,971	-0,5
881,399	-0,53
881,826	-0,54
882,254	-0,52
882,681	-0,56
883,109	-0,52
883,536	-0,53
883,963	-0,54
884,391	-0,52
884,818	-0,5
885,245	-0,55
885,673	-0,57
886,1	-0,54
886,527	-0,54
886,954	-0,51
887,381	-0,52
887,809	-0,54
888,236	-0,55
888,663	-0,56
889,09	-0,61
889,517	-0,62
889,944	-0,61
890,371	-0,6
890,798	-0,61
891,225	-0,6
891,652	-0,62
892,078	-0,6
892,505	-0,63
892,932	-0,58
893,359	-0,59
893,786	-0,59
894,212	-0,56
894,639	-0,57
895,066	-0,6
895,492	-0,54
895,919	-0,55
896,346	-0,55
896,772	-0,54
897,199	-0,5
897,625	-0,53
898,052	-0,49
898,478	-0,47
898,904	-0,49
899,331	-0,48
899,757	-0,5
900,183	-0,52
900,61	-0,49
901,036	-0,5
901,462	-0,5
901,888	-0,51
902,315	-0,49
902,741	-0,54
903,167	-0,52
903,593	-0,54
904,019	-0,53
904,445	-0,51
904,871	-0,53
905,297	-0,56
905,723	-0,56
906,149	-0,56
906,575	-0,56
907,001	-0,57
907,427	-0,55
907,852	-0,54
908,278	-0,55
908,704	-0,52
909,13	-0,51
909,555	-0,5
909,981	-0,48
910,407	-0,48
910,832	-0,47
911,258	-0,47
911,684	-0,47
912,109	-0,47
912,535	-0,49
912,96	-0,46
913,386	-0,5
913,811	-0,5
914,236	-0,52
914,662	-0,5
915,087	-0,54
915,512	-0,54
915,938	-0,56
916,363	-0,55
916,788	-0,57
917,213	-0,55
917,639	-0,6
918,064	-0,57
918,489	-0,58
918,914	-0,58
919,339	-0,59
919,764	-0,56
920,189	-0,57
920,614	-0,58
921,039	-0,59
921,464	-0,55
921,889	-0,57
922,314	-0,58
922,738	-0,61
923,163	-0,62
923,588	-0,62
924,013	-0,61
924,437	-0,6
924,862	-0,61
925,287	-0,57
925,711	-0,57
926,136	-0,59
926,561	-0,58
926,985	-0,57
927,41	-0,54
927,834	-0,52
928,259	-0,5
928,683	-0,48
929,108	-0,46
929,532	-0,47
929,956	-0,47
930,381	-0,46
930,805	-0,46
931,229	-0,45
931,653	-0,43
932,078	-0,43
932,502	-0,43
932,926	-0,44
933,35	-0,44
933,774	-0,43
934,198	-0,42
934,622	-0,4
935,046	-0,41
935,47	-0,42
935,894	-0,42
936,318	-0,43
936,742	-0,43
937,166	-0,44
937,59	-0,43
938,014	-0,46
938,437	-0,46
938,861	-0,48
939,285	-0,5
939,709	-0,49
940,132	-0,49
940,556	-0,49
940,98	-0,47
941,403	-0,46
941,827	-0,46
942,25	-0,48
942,674	-0,46
943,097	-0,46
943,521	-0,45
943,944	-0,46
944,368	-0,44
944,791	-0,43
945,214	-0,45
945,638	-0,46
946,061	-0,49
946,484	-0,49
946,907	-0,47
947,331	-0,48
947,754	-0,51
948,177	-0,49
948,6	-0,48
949,023	-0,49
949,446	-0,49
949,869	-0,46
950,292	-0,46
950,715	-0,43
951,138	-0,43
951,561	-0,41
951,984	-0,4
952,407	-0,4
952,83	-0,39
953,252	-0,35
953,675	-0,35
954,098	-0,35
954,521	-0,35
954,943	-0,34
955,366	-0,34
955,789	-0,32
956,211	-0,34
956,634	-0,35
957,056	-0,32
957,479	-0,32
957,902	-0,35
958,324	-0,35
958,746	-0,34
959,169	-0,35
959,591	-0,35
960,014	-0,36
960,436	-0,36
960,858	-0,36
961,281	-0,36
961,703	-0,38
962,125	-0,39
962,547	-0,38
962,969	-0,38
963,391	-0,38
963,814	-0,39
964,236	-0,38
964,658	-0,36
965,08	-0,37
965,502	-0,36
965,924	-0,33
966,346	-0,32
966,768	-0,31
967,189	-0,33
967,611	-0,32
968,033	-0,32
968,455	-0,31
968,877	-0,32
969,298	-0,32
969,72	-0,34
970,142	-0,33
970,563	-0,34
970,985	-0,32
971,407	-0,32
971,828	-0,3
972,25	-0,3
972,671	-0,29
973,093	-0,29
973,514	-0,27
973,936	-0,25
974,357	-0,24
974,778	-0,25
975,2	-0,24
975,621	-0,24
976,042	-0,23
976,464	-0,22
976,885	-0,21
977,306	-0,2
977,727	-0,19
978,148	-0,19
978,57	-0,19
978,991	-0,17
979,412	-0,16
979,833	-0,15
980,254	-0,14
980,675	-0,15
981,096	-0,14
981,517	-0,13
981,937	-0,13
982,358	-0,12
982,779	-0,1
983,2	-0,1
983,621	-0,1
984,042	-0,09
984,462	-0,08
984,883	-0,07
985,304	-0,06
985,724	-0,05
986,145	-0,05
986,565	-0,04
986,986	-0,04
987,407	-0,03
987,827	-0,02
988,248	-0,01
988,668	-0
989,088	0
989,509	0,01
989,929	0,01
990,35	0,02
990,77	0,03
991,19	0,03
991,61	0,04
992,031	0,05
992,451	0,05
992,871	0,05
993,291	0,06
993,711	0,07
994,131	0,07
994,551	0,07
994,971	0,08
995,391	0,08
995,811	0,08
996,231	0,08
996,651	0,09
997,071	0,09
997,491	0,09
997,911	0,1
998,331	0,1
998,75	0,11
999,17	0,11
999,59	0,11
1000,009	0,11
1000,429	0,11
1000,849	0,12
1001,268	0,12
1001,688	0,12
1002,107	0,12
1002,527	0,13
1002,946	0,13
1003,366	0,13
1003,785	0,13
1004,205	0,13
1004,624	0,13
1005,044	0,13
1005,463	0,13
1005,882	0,13
1006,301	0,13
1006,721	0,13
1007,14	0,13
1007,559	0,13
1007,978	0,13
1008,397	0,13
1008,816	0,13
1009,235	0,13
1009,655	0,13
1010,074	0,13
1010,492	0,13
1010,911	0,13
1011,33	0,13
1011,749	0,13
1012,168	0,13
1012,587	0,13
1013,006	0,13
1013,425	0,13
1013,843	0,13
1014,262	0,12
1014,681	0,12
1015,099	0,12
1015,518	0,12
1015,937	0,12
1016,355	0,12
1016,774	0,12
1017,192	0,13
1017,611	0,13
1018,029	0,13
1018,448	0,13
1018,866	0,13
1019,285	0,13
1019,703	0,13
1020,121	0,13
1020,54	0,13
1020,958	0,13
1021,376	0,13
1021,794	0,13
1022,213	0,13
1022,631	0,13
1023,049	0,13
1023,467	0,13
1023,885	0,13
1024,303	0,13
1024,721	0,13
1025,139	0,13
1025,557	0,13
1025,975	0,12
1026,393	0,12
1026,811	0,12
1027,229	0,12
1027,647	0,12
1028,065	0,12
1028,482	0,12
1028,9	0,12
1029,318	0,12
1029,735	0,12
1030,153	0,12
1030,571	0,12
1030,988	0,12
1031,406	0,12
1031,823	0,12
1032,241	0,12
1032,659	0,12
1033,076	0,12
1033,493	0,12
1033,911	0,12
1034,328	0,12
1034,746	0,12
1035,163	0,12
1035,58	0,12
1035,997	0,12
1036,415	0,12
1036,832	0,12
1037,249	0,12
1037,666	0,12
1038,083	0,12
1038,501	0,12
1038,918	0,12
1039,335	0,12
1039,752	0,12
1040,169	0,12
1040,586	0,12
1041,003	0,12
1041,419	0,12
1041,836	0,12
1042,253	0,12
1042,67	0,12
1043,087	0,12
1043,504	0,12
1043,92	0,12
1044,337	0,12
1044,754	0,12
1045,17	0,11
1045,587	0,11
1046,004	0,11
1046,42	0,11
1046,837	0,11
1047,253	0,11
1047,67	0,11
1048,086	0,11
1048,503	0,11
1048,919	0,11
1049,335	0,11
1049,752	0,11
1050,168	0,11
1050,584	0,11
1051,001	0,11
1051,417	0,11
1051,833	0,11
1052,249	0,11
1052,665	0,11
1053,081	0,11
1053,497	0,11
1053,914	0,11
1054,33	0,11
1054,746	0,11
1055,162	0,11
1055,578	0,11
1055,993	0,11
1056,409	0,11
1056,825	0,11
1057,241	0,11
1057,657	0,11
1058,073	0,11
1058,488	0,11
1058,904	0,11
1059,32	0,11
1059,736	0,11
1060,151	0,11
1060,567	0,11
1060,982	0,11
1061,398	0,11
1061,813	0,11
1062,229	0,11
1062,644	0,11
1063,06	0,11
1063,475	0,11
1063,891	0,11
1064,306	0,11
1064,721	0,11
1065,137	0,11
1065,552	0,11
1065,967	0,11
1066,382	0,11
1066,798	0,11
1067,213	0,11
1067,628	0,11
1068,043	0,11
1068,458	0,11
1068,873	0,11
1069,288	0,11
1069,703	0,11
1070,118	0,11
1070,533	0,11
1070,948	0,11
1071,363	0,12
1071,778	0,12
1072,193	0,12
1072,607	0,12
1073,022	0,12
1073,437	0,12
1073,852	0,12
1074,266	0,12
1074,681	0,12
1075,096	0,12
1075,51	0,12
1075,925	0,12
1076,339	0,12
1076,754	0,12
1077,168	0,12
1077,583	0,12
1077,997	0,11
1078,412	0,11
1078,826	0,11
1079,24	0,11
1079,655	0,11
1080,069	0,11
1080,483	0,11
1080,897	0,11
1081,312	0,11
1081,726	0,11
1082,14	0,11
1082,554	0,11
1082,968	0,11
1083,382	0,11
1083,796	0,11
1084,21	0,11
1084,624	0,11
1085,038	0,11
1085,452	0,11
1085,866	0,11
1086,28	0,11
1086,694	0,11
1087,108	0,11
1087,521	0,1
1087,935	0,1
1088,349	0,1
1088,763	0,1
1089,176	0,1
1089,59	0,1
1090,004	0,1
1090,417	0,1
1090,831	0,09
1091,244	0,09
1091,658	0,09
1092,071	0,09
1092,485	0,09
1092,898	0,09
1093,312	0,08
1093,725	0,08
1094,138	0,08
1094,552	0,08
1094,965	0,08
1095,378	0,08
1095,791	0,08
1096,205	0,08
1096,618	0,08
1097,031	0,08
1097,444	0,08
1097,857	0,08
1098,27	0,08
1098,683	0,08
1099,096	0,07
1099,509	0,07
1099,922	0,07
1100,335	0,07
1100,748	0,06
1101,161	0,06
1101,574	0,06
1101,986	0,06
1102,399	0,06
1102,812	0,05
1103,225	0,05
1103,637	0,05
1104,05	0,04
1104,463	0,05
1104,875	0,05
1105,288	0,04
1105,7	0,04
1106,113	0,04
1106,525	0,04
1106,938	0,04
1107,35	0,03
1107,763	0,03
1108,175	0,03
1108,588	0,03
1109	0,02
1109,412	0,02
1109,824	0,02
1110,237	0,02
1110,649	0,02
1111,061	0,03
