Data from 18C-808nm-8A_Absorbance__1160__01160.txt Node

Date: Mon Jul 17 17:04:43 CEST 2023
User: Laser008
Spectrometer: MAYP115816
Trigger mode: 0
Integration Time (sec): 2,500000E-1
Scans to average: 10
Electric dark correction enabled: true
Nonlinearity correction enabled: true
Boxcar width: 5
XAxis mode: Wavelengths
Number of Pixels in Spectrum: 2068
>>>>>Begin Spectral Data<<<<<
198,914	-0,72
199,384	-0,47
199,855	-0,36
200,325	-0,29
200,796	-0,26
201,266	-0,22
201,737	-0,2
202,207	-0,18
202,677	-0,17
203,147	-0,15
203,618	-0,13
204,088	-0,11
204,558	-0,11
205,028	-0,1
205,498	-0,1
205,968	-0,1
206,439	-0,11
206,909	-0,11
207,379	-0,12
207,849	-0,13
208,319	-0,14
208,789	-0,14
209,258	-0,13
209,728	-0,14
210,198	-0,14
210,668	-0,14
211,138	-0,14
211,608	-0,13
212,077	-0,13
212,547	-0,13
213,017	-0,13
213,486	-0,13
213,956	-0,13
214,426	-0,15
214,895	-0,15
215,365	-0,15
215,834	-0,15
216,304	-0,16
216,773	-0,17
217,243	-0,18
217,712	-0,19
218,181	-0,19
218,651	-0,19
219,12	-0,18
219,589	-0,18
220,058	-0,16
220,528	-0,18
220,997	-0,19
221,466	-0,2
221,935	-0,2
222,404	-0,2
222,873	-0,19
223,342	-0,19
223,812	-0,19
224,281	-0,2
224,749	-0,21
225,218	-0,22
225,687	-0,22
226,156	-0,21
226,625	-0,2
227,094	-0,2
227,563	-0,2
228,031	-0,21
228,5	-0,21
228,969	-0,22
229,438	-0,21
229,906	-0,19
230,375	-0,19
230,844	-0,18
231,312	-0,18
231,781	-0,19
232,249	-0,18
232,718	-0,18
233,186	-0,16
233,655	-0,17
234,123	-0,17
234,591	-0,17
235,06	-0,18
235,528	-0,18
235,996	-0,17
236,465	-0,17
236,933	-0,17
237,401	-0,17
237,869	-0,16
238,337	-0,15
238,805	-0,15
239,274	-0,14
239,742	-0,14
240,21	-0,14
240,678	-0,13
241,146	-0,13
241,614	-0,14
242,081	-0,13
242,549	-0,13
243,017	-0,13
243,485	-0,14
243,953	-0,13
244,421	-0,12
244,888	-0,11
245,356	-0,11
245,824	-0,11
246,291	-0,12
246,759	-0,13
247,227	-0,13
247,694	-0,12
248,162	-0,12
248,629	-0,11
249,097	-0,12
249,564	-0,13
250,032	-0,14
250,499	-0,14
250,967	-0,15
251,434	-0,15
251,901	-0,14
252,369	-0,14
252,836	-0,15
253,303	-0,16
253,77	-0,18
254,237	-0,17
254,705	-0,17
255,172	-0,15
255,639	-0,16
256,106	-0,17
256,573	-0,17
257,04	-0,18
257,507	-0,18
257,974	-0,19
258,441	-0,17
258,908	-0,17
259,375	-0,18
259,841	-0,18
260,308	-0,19
260,775	-0,18
261,242	-0,16
261,709	-0,17
262,175	-0,17
262,642	-0,17
263,109	-0,16
263,575	-0,18
264,042	-0,17
264,508	-0,18
264,975	-0,19
265,441	-0,2
265,908	-0,21
266,374	-0,21
266,841	-0,21
267,307	-0,21
267,773	-0,2
268,24	-0,2
268,706	-0,2
269,172	-0,21
269,639	-0,23
270,105	-0,21
270,571	-0,2
271,037	-0,21
271,503	-0,22
271,969	-0,21
272,435	-0,22
272,902	-0,24
273,368	-0,25
273,834	-0,25
274,3	-0,25
274,765	-0,25
275,231	-0,24
275,697	-0,25
276,163	-0,24
276,629	-0,24
277,095	-0,25
277,56	-0,24
278,026	-0,25
278,492	-0,23
278,958	-0,23
279,423	-0,23
279,889	-0,22
280,354	-0,23
280,82	-0,23
281,286	-0,24
281,751	-0,24
282,217	-0,23
282,682	-0,22
283,147	-0,22
283,613	-0,23
284,078	-0,23
284,544	-0,25
285,009	-0,25
285,474	-0,23
285,939	-0,24
286,405	-0,23
286,87	-0,22
287,335	-0,22
287,8	-0,22
288,265	-0,21
288,73	-0,23
289,195	-0,24
289,66	-0,23
290,125	-0,21
290,59	-0,22
291,055	-0,21
291,52	-0,21
291,985	-0,22
292,45	-0,24
292,915	-0,23
293,38	-0,24
293,844	-0,22
294,309	-0,21
294,774	-0,2
295,239	-0,22
295,703	-0,23
296,168	-0,21
296,632	-0,21
297,097	-0,2
297,562	-0,18
298,026	-0,19
298,491	-0,19
298,955	-0,18
299,419	-0,18
299,884	-0,17
300,348	-0,16
300,813	-0,15
301,277	-0,16
301,741	-0,16
302,205	-0,16
302,67	-0,16
303,134	-0,15
303,598	-0,15
304,062	-0,15
304,526	-0,14
304,99	-0,16
305,454	-0,17
305,919	-0,16
306,383	-0,15
306,847	-0,15
307,31	-0,16
307,774	-0,17
308,238	-0,16
308,702	-0,17
309,166	-0,18
309,63	-0,17
310,094	-0,14
310,557	-0,14
311,021	-0,13
311,485	-0,13
311,948	-0,13
312,412	-0,12
312,876	-0,11
313,339	-0,11
313,803	-0,11
314,266	-0,11
314,73	-0,12
315,193	-0,12
315,657	-0,11
316,12	-0,12
316,584	-0,11
317,047	-0,11
317,51	-0,09
317,973	-0,1
318,437	-0,09
318,9	-0,07
319,363	-0,07
319,826	-0,06
320,29	-0,06
320,753	-0,07
321,216	-0,06
321,679	-0,06
322,142	-0,06
322,605	-0,07
323,068	-0,06
323,531	-0,07
323,994	-0,07
324,457	-0,07
324,92	-0,06
325,382	-0,06
325,845	-0,06
326,308	-0,06
326,771	-0,06
327,233	-0,06
327,696	-0,05
328,159	-0,05
328,622	-0,04
329,084	-0,04
329,547	-0,02
330,009	-0,03
330,472	-0,02
330,934	-0,01
331,397	-0
331,859	0,01
332,322	0,01
332,784	0,01
333,246	0,02
333,709	0,02
334,171	0,02
334,633	0,02
335,096	0,02
335,558	0,02
336,02	0,03
336,482	0,02
336,944	0,03
337,406	0,04
337,868	0,04
338,331	0,04
338,793	0,05
339,255	0,06
339,717	0,06
340,178	0,07
340,64	0,07
341,102	0,08
341,564	0,08
342,026	0,09
342,488	0,09
342,949	0,1
343,411	0,13
343,873	0,14
344,335	0,16
344,796	0,19
345,258	0,22
345,719	0,26
346,181	0,29
346,643	0,31
347,104	0,33
347,566	0,36
348,027	0,37
348,488	0,38
348,95	0,39
349,411	0,41
349,873	0,42
350,334	0,43
350,795	0,44
351,256	0,44
351,718	0,45
352,179	0,45
352,64	0,45
353,101	0,45
353,562	0,45
354,023	0,46
354,484	0,46
354,945	0,46
355,406	0,46
355,867	0,46
356,328	0,46
356,789	0,46
357,25	0,46
357,711	0,46
358,172	0,47
358,633	0,47
359,093	0,47
359,554	0,47
360,015	0,47
360,476	0,47
360,936	0,47
361,397	0,47
361,858	0,47
362,318	0,47
362,779	0,47
363,239	0,47
363,7	0,47
364,16	0,47
364,621	0,47
365,081	0,47
365,541	0,47
366,002	0,47
366,462	0,47
366,922	0,47
367,383	0,47
367,843	0,47
368,303	0,47
368,763	0,47
369,223	0,47
369,684	0,47
370,144	0,47
370,604	0,47
371,064	0,47
371,524	0,47
371,984	0,47
372,444	0,47
372,904	0,47
373,363	0,47
373,823	0,47
374,283	0,47
374,743	0,47
375,203	0,47
375,663	0,47
376,122	0,47
376,582	0,47
377,042	0,47
377,501	0,47
377,961	0,47
378,42	0,47
378,88	0,47
379,34	0,47
379,799	0,47
380,259	0,47
380,718	0,47
381,177	0,46
381,637	0,46
382,096	0,46
382,555	0,46
383,015	0,46
383,474	0,46
383,933	0,46
384,393	0,46
384,852	0,46
385,311	0,46
385,77	0,46
386,229	0,46
386,688	0,46
387,147	0,46
387,606	0,46
388,065	0,46
388,524	0,46
388,983	0,46
389,442	0,46
389,901	0,46
390,36	0,46
390,819	0,46
391,277	0,46
391,736	0,46
392,195	0,46
392,654	0,46
393,112	0,46
393,571	0,46
394,03	0,46
394,488	0,46
394,947	0,46
395,405	0,46
395,864	0,46
396,322	0,46
396,781	0,46
397,239	0,46
397,698	0,46
398,156	0,46
398,614	0,46
399,073	0,46
399,531	0,46
399,989	0,46
400,447	0,46
400,905	0,46
401,364	0,46
401,822	0,45
402,28	0,45
402,738	0,45
403,196	0,45
403,654	0,45
404,112	0,45
404,57	0,45
405,028	0,45
405,486	0,45
405,944	0,45
406,402	0,45
406,859	0,45
407,317	0,45
407,775	0,45
408,233	0,45
408,691	0,45
409,148	0,45
409,606	0,45
410,064	0,45
410,521	0,45
410,979	0,45
411,436	0,45
411,894	0,45
412,351	0,45
412,809	0,45
413,266	0,45
413,724	0,45
414,181	0,45
414,638	0,45
415,096	0,45
415,553	0,45
416,01	0,45
416,467	0,45
416,925	0,45
417,382	0,45
417,839	0,45
418,296	0,45
418,753	0,45
419,21	0,45
419,667	0,45
420,124	0,45
420,581	0,45
421,038	0,45
421,495	0,45
421,952	0,45
422,409	0,45
422,866	0,45
423,322	0,45
423,779	0,45
424,236	0,45
424,693	0,45
425,149	0,45
425,606	0,45
426,063	0,45
426,519	0,45
426,976	0,45
427,433	0,45
427,889	0,45
428,346	0,45
428,802	0,45
429,258	0,45
429,715	0,45
430,171	0,45
430,628	0,44
431,084	0,44
431,54	0,44
431,997	0,44
432,453	0,44
432,909	0,44
433,365	0,44
433,821	0,44
434,277	0,44
434,734	0,44
435,19	0,44
435,646	0,44
436,102	0,44
436,558	0,44
437,014	0,44
437,47	0,44
437,925	0,44
438,381	0,44
438,837	0,44
439,293	0,44
439,749	0,44
440,205	0,44
440,66	0,44
441,116	0,44
441,572	0,44
442,027	0,44
442,483	0,44
442,939	0,44
443,394	0,44
443,85	0,44
444,305	0,44
444,761	0,44
445,216	0,44
445,672	0,44
446,127	0,44
446,582	0,44
447,038	0,44
447,493	0,44
447,948	0,44
448,403	0,44
448,859	0,44
449,314	0,44
449,769	0,44
450,224	0,44
450,679	0,44
451,134	0,44
451,589	0,44
452,044	0,44
452,499	0,44
452,954	0,44
453,409	0,44
453,864	0,44
454,319	0,44
454,774	0,44
455,229	0,44
455,684	0,44
456,138	0,44
456,593	0,44
457,048	0,44
457,503	0,44
457,957	0,44
458,412	0,44
458,866	0,44
459,321	0,44
459,776	0,45
460,23	0,45
460,685	0,45
461,139	0,45
461,593	0,45
462,048	0,45
462,502	0,45
462,957	0,45
463,411	0,45
463,865	0,45
464,319	0,45
464,774	0,45
465,228	0,45
465,682	0,45
466,136	0,45
466,59	0,45
467,044	0,45
467,499	0,45
467,953	0,45
468,407	0,45
468,861	0,45
469,315	0,45
469,768	0,46
470,222	0,46
470,676	0,46
471,13	0,46
471,584	0,46
472,038	0,46
472,491	0,46
472,945	0,46
473,399	0,46
473,852	0,46
474,306	0,46
474,76	0,46
475,213	0,46
475,667	0,46
476,12	0,46
476,574	0,46
477,027	0,46
477,481	0,46
477,934	0,46
478,388	0,46
478,841	0,47
479,294	0,47
479,748	0,47
480,201	0,47
480,654	0,47
481,107	0,47
481,561	0,47
482,014	0,47
482,467	0,47
482,92	0,47
483,373	0,48
483,826	0,48
484,279	0,48
484,732	0,48
485,185	0,48
485,638	0,48
486,091	0,48
486,544	0,48
486,997	0,48
487,449	0,48
487,902	0,49
488,355	0,49
488,808	0,49
489,26	0,49
489,713	0,49
490,166	0,49
490,618	0,5
491,071	0,5
491,523	0,5
491,976	0,5
492,429	0,5
492,881	0,5
493,333	0,51
493,786	0,51
494,238	0,51
494,691	0,51
495,143	0,51
495,595	0,52
496,048	0,52
496,5	0,52
496,952	0,52
497,404	0,52
497,856	0,53
498,309	0,53
498,761	0,53
499,213	0,53
499,665	0,54
500,117	0,54
500,569	0,54
501,021	0,54
501,473	0,55
501,925	0,55
502,377	0,55
502,828	0,55
503,28	0,56
503,732	0,56
504,184	0,56
504,636	0,56
505,087	0,56
505,539	0,57
505,991	0,57
506,442	0,57
506,894	0,57
507,345	0,58
507,797	0,58
508,249	0,58
508,7	0,58
509,151	0,59
509,603	0,59
510,054	0,59
510,506	0,59
510,957	0,6
511,408	0,6
511,86	0,6
512,311	0,6
512,762	0,6
513,213	0,61
513,665	0,61
514,116	0,61
514,567	0,61
515,018	0,61
515,469	0,62
515,92	0,62
516,371	0,62
516,822	0,62
517,273	0,63
517,724	0,63
518,175	0,63
518,626	0,63
519,076	0,63
519,527	0,63
519,978	0,64
520,429	0,64
520,88	0,64
521,33	0,64
521,781	0,64
522,232	0,64
522,682	0,64
523,133	0,64
523,583	0,65
524,034	0,65
524,484	0,65
524,935	0,65
525,385	0,65
525,836	0,65
526,286	0,65
526,736	0,65
527,187	0,65
527,637	0,65
528,087	0,65
528,538	0,65
528,988	0,65
529,438	0,65
529,888	0,65
530,338	0,65
530,788	0,65
531,238	0,65
531,688	0,65
532,139	0,65
532,589	0,65
533,038	0,65
533,488	0,65
533,938	0,64
534,388	0,64
534,838	0,64
535,288	0,64
535,738	0,64
536,187	0,64
536,637	0,63
537,087	0,63
537,537	0,63
537,986	0,63
538,436	0,63
538,885	0,62
539,335	0,62
539,785	0,62
540,234	0,62
540,684	0,61
541,133	0,61
541,582	0,61
542,032	0,61
542,481	0,6
542,931	0,6
543,38	0,6
543,829	0,6
544,278	0,59
544,728	0,59
545,177	0,59
545,626	0,59
546,075	0,58
546,524	0,58
546,973	0,58
547,422	0,58
547,871	0,58
548,32	0,57
548,769	0,57
549,218	0,57
549,667	0,57
550,116	0,57
550,565	0,57
551,014	0,57
551,463	0,56
551,911	0,56
552,36	0,56
552,809	0,56
553,258	0,56
553,706	0,55
554,155	0,55
554,603	0,55
555,052	0,55
555,501	0,55
555,949	0,54
556,398	0,54
556,846	0,54
557,294	0,54
557,743	0,54
558,191	0,53
558,64	0,53
559,088	0,53
559,536	0,52
559,985	0,52
560,433	0,52
560,881	0,52
561,329	0,52
561,777	0,51
562,225	0,51
562,674	0,51
563,122	0,51
563,57	0,51
564,018	0,5
564,466	0,5
564,914	0,5
565,362	0,5
565,809	0,5
566,257	0,49
566,705	0,49
567,153	0,49
567,601	0,49
568,048	0,48
568,496	0,48
568,944	0,48
569,392	0,48
569,839	0,48
570,287	0,47
570,734	0,47
571,182	0,47
571,63	0,47
572,077	0,47
572,525	0,46
572,972	0,46
573,419	0,46
573,867	0,46
574,314	0,46
574,761	0,46
575,209	0,45
575,656	0,45
576,103	0,45
576,551	0,45
576,998	0,45
577,445	0,45
577,892	0,45
578,339	0,45
578,786	0,44
579,233	0,44
579,68	0,44
580,127	0,44
580,574	0,44
581,021	0,44
581,468	0,43
581,915	0,43
582,362	0,43
582,809	0,43
583,255	0,43
583,702	0,43
584,149	0,43
584,596	0,43
585,042	0,42
585,489	0,42
585,936	0,42
586,382	0,42
586,829	0,42
587,275	0,42
587,722	0,42
588,168	0,42
588,615	0,42
589,061	0,42
589,508	0,41
589,954	0,41
590,4	0,41
590,847	0,41
591,293	0,41
591,739	0,41
592,185	0,41
592,632	0,41
593,078	0,41
593,524	0,41
593,97	0,41
594,416	0,41
594,862	0,4
595,308	0,4
595,754	0,4
596,2	0,4
596,646	0,4
597,092	0,4
597,538	0,4
597,984	0,4
598,43	0,4
598,876	0,4
599,321	0,4
599,767	0,4
600,213	0,4
600,659	0,39
601,104	0,39
601,55	0,39
601,995	0,39
602,441	0,39
602,887	0,39
603,332	0,39
603,778	0,39
604,223	0,39
604,668	0,39
605,114	0,39
605,559	0,39
606,005	0,39
606,45	0,39
606,895	0,39
607,341	0,39
607,786	0,39
608,231	0,39
608,676	0,38
609,121	0,38
609,566	0,37
610,012	0,37
610,457	0,37
610,902	0,37
611,347	0,36
611,792	0,36
612,237	0,36
612,682	0,36
613,127	0,36
613,571	0,36
614,016	0,36
614,461	0,37
614,906	0,37
615,351	0,37
615,795	0,37
616,24	0,37
616,685	0,37
617,129	0,37
617,574	0,37
618,019	0,37
618,463	0,37
618,908	0,37
619,352	0,37
619,797	0,37
620,241	0,37
620,686	0,37
621,13	0,37
621,574	0,37
622,019	0,37
622,463	0,37
622,907	0,37
623,352	0,37
623,796	0,37
624,24	0,36
624,684	0,36
625,128	0,36
625,572	0,36
626,016	0,36
626,461	0,36
626,905	0,36
627,349	0,36
627,793	0,36
628,236	0,36
628,68	0,36
629,124	0,36
629,568	0,36
630,012	0,36
630,456	0,36
630,9	0,36
631,343	0,36
631,787	0,36
632,231	0,36
632,674	0,36
633,118	0,36
633,562	0,36
634,005	0,36
634,449	0,36
634,892	0,36
635,336	0,36
635,779	0,36
636,223	0,36
636,666	0,36
637,109	0,36
637,553	0,36
637,996	0,36
638,439	0,36
638,883	0,36
639,326	0,36
639,769	0,36
640,212	0,36
640,655	0,36
641,099	0,35
641,542	0,35
641,985	0,35
642,428	0,36
642,871	0,36
643,314	0,36
643,757	0,36
644,2	0,35
644,643	0,36
645,085	0,36
645,528	0,35
645,971	0,35
646,414	0,35
646,857	0,35
647,299	0,35
647,742	0,35
648,185	0,35
648,627	0,35
649,07	0,35
649,513	0,35
649,955	0,35
650,398	0,35
650,84	0,35
651,283	0,35
651,725	0,35
652,168	0,35
652,61	0,35
653,052	0,35
653,495	0,35
653,937	0,27
654,379	0,22
654,821	0,22
655,264	0,22
655,706	0,22
656,148	0,22
656,59	0,22
657,032	0,22
657,474	0,22
657,916	0,22
658,358	0,22
658,8	0,27
659,242	0,35
659,684	0,35
660,126	0,35
660,568	0,35
661,01	0,35
661,452	0,35
661,894	0,35
662,335	0,35
662,777	0,35
663,219	0,35
663,661	0,35
664,102	0,35
664,544	0,35
664,985	0,34
665,427	0,34
665,869	0,34
666,31	0,34
666,752	0,34
667,193	0,34
667,634	0,34
668,076	0,34
668,517	0,34
668,959	0,34
669,4	0,34
669,841	0,34
670,282	0,34
670,724	0,34
671,165	0,34
671,606	0,34
672,047	0,34
672,488	0,34
672,929	0,34
673,37	0,34
673,811	0,34
674,252	0,34
674,693	0,34
675,134	0,34
675,575	0,34
676,016	0,34
676,457	0,34
676,898	0,34
677,339	0,34
677,78	0,34
678,22	0,34
678,661	0,34
679,102	0,34
679,542	0,34
679,983	0,34
680,424	0,34
680,864	0,34
681,305	0,34
681,745	0,34
682,186	0,34
682,626	0,34
683,067	0,34
683,507	0,34
683,948	0,34
684,388	0,34
684,828	0,34
685,269	0,34
685,709	0,34
686,149	0,34
686,589	0,33
687,029	0,33
687,47	0,33
687,91	0,33
688,35	0,33
688,79	0,33
689,23	0,33
689,67	0,33
690,11	0,33
690,55	0,33
690,99	0,33
691,43	0,33
691,87	0,33
692,31	0,33
692,749	0,33
693,189	0,33
693,629	0,33
694,069	0,33
694,508	0,33
694,948	0,33
695,388	0,33
695,827	0,33
696,267	0,33
696,706	0,33
697,146	0,33
697,586	0,33
698,025	0,33
698,464	0,33
698,904	0,33
699,343	0,33
699,783	0,33
700,222	0,33
700,661	0,33
701,101	0,33
701,54	0,33
701,979	0,33
702,418	0,33
702,857	0,33
703,297	0,33
703,736	0,33
704,175	0,33
704,614	0,33
705,053	0,33
705,492	0,33
705,931	0,33
706,37	0,33
706,809	0,32
707,248	0,32
707,687	0,32
708,125	0,32
708,564	0,32
709,003	0,32
709,442	0,32
709,88	0,32
710,319	0,32
710,758	0,32
711,196	0,32
711,635	0,32
712,074	0,32
712,512	0,32
712,951	0,32
713,389	0,32
713,828	0,32
714,266	0,32
714,705	0,32
715,143	0,32
715,581	0,32
716,02	0,32
716,458	0,32
716,896	0,31
717,334	0,31
717,773	0,31
718,211	0,31
718,649	0,31
719,087	0,31
719,525	0,31
719,963	0,31
720,401	0,31
720,839	0,31
721,277	0,31
721,715	0,31
722,153	0,31
722,591	0,31
723,029	0,31
723,467	0,31
723,905	0,31
724,342	0,31
724,78	0,31
725,218	0,31
725,656	0,31
726,093	0,31
726,531	0,31
726,969	0,31
727,406	0,31
727,844	0,31
728,281	0,31
728,719	0,31
729,156	0,31
729,594	0,31
730,031	0,31
730,469	0,31
730,906	0,31
731,343	0,31
731,781	0,31
732,218	0,31
732,655	0,31
733,092	0,31
733,53	0,31
733,967	0,31
734,404	0,31
734,841	0,31
735,278	0,31
735,715	0,31
736,152	0,31
736,589	0,31
737,026	0,31
737,463	0,31
737,9	0,31
738,337	0,3
738,774	0,3
739,211	0,3
739,647	0,3
740,084	0,3
740,521	0,3
740,958	0,3
741,394	0,3
741,831	0,3
742,268	0,3
742,704	0,3
743,141	0,3
743,577	0,3
744,014	0,29
744,45	0,29
744,887	0,29
745,323	0,29
745,76	0,29
746,196	0,29
746,632	0,29
747,069	0,29
747,505	0,29
747,941	0,29
748,378	0,29
748,814	0,29
749,25	0,29
749,686	0,29
750,122	0,29
750,558	0,29
750,994	0,3
751,43	0,3
751,866	0,3
752,302	0,3
752,738	0,3
753,174	0,3
753,61	0,3
754,046	0,3
754,482	0,3
754,918	0,3
755,354	0,3
755,789	0,3
756,225	0,3
756,661	0,3
757,096	0,3
757,532	0,3
757,968	0,3
758,403	0,3
758,839	0,29
759,274	0,29
759,71	0,29
760,145	0,28
760,581	0,28
761,016	0,28
761,452	0,27
761,887	0,27
762,322	0,27
762,758	0,26
763,193	0,26
763,628	0,26
764,063	0,25
764,499	0,25
764,934	0,24
765,369	0,24
765,804	0,23
766,239	0,23
766,674	0,22
767,109	0,21
767,544	0,21
767,979	0,2
768,414	0,19
768,849	0,18
769,284	0,18
769,719	0,17
770,154	0,16
770,588	0,16
771,023	0,15
771,458	0,14
771,893	0,13
772,327	0,11
772,762	0,11
773,197	0,1
773,631	0,1
774,066	0,09
774,5	0,08
774,935	0,07
775,369	0,06
775,804	0,05
776,238	0,04
776,673	0,04
777,107	0,03
777,541	0,03
777,976	0,02
778,41	0,02
778,844	0,01
779,279	0,01
779,713	-0
780,147	-0,01
780,581	-0,02
781,015	-0,02
781,449	-0,04
781,883	-0,04
782,317	-0,06
782,751	-0,07
783,185	-0,08
783,619	-0,09
784,053	-0,1
784,487	-0,11
784,921	-0,11
785,355	-0,12
785,789	-0,13
786,223	-0,14
786,656	-0,15
787,09	-0,16
787,524	-0,16
787,957	-0,17
788,391	-0,19
788,825	-0,2
789,258	-0,22
789,692	-0,23
790,125	-0,25
790,559	-0,26
790,992	-0,28
791,426	-0,31
791,859	-0,32
792,293	-0,35
792,726	-0,37
793,159	-0,39
793,593	-0,4
794,026	-0,43
794,459	-0,45
794,892	-0,48
795,326	-0,5
795,759	-0,54
796,192	-0,59
796,625	-0,63
797,058	-0,66
797,491	-0,7
797,924	-0,74
798,357	-0,79
798,79	-0,83
799,223	-0,88
799,656	-0,94
800,089	-0,98
800,522	-1,03
800,955	-1,07
801,387	-1,13
801,82	-1,18
802,253	-1,24
802,686	-1,32
803,118	-1,38
803,551	-1,43
803,984	-1,48
804,416	-1,51
804,849	-1,55
805,281	-1,66
805,714	-2,01
806,146	-2,46
806,579	-2,72
807,011	-2,88
807,444	-2,97
807,876	-3,05
808,308	-3,09
808,741	-3,12
809,173	-3,17
809,605	-3,19
810,037	-3,27
810,47	-3,18
810,902	-2,98
811,334	-2,84
811,766	-2,68
812,198	-2,44
812,63	-2,02
813,062	-1,82
813,494	-1,72
813,926	-1,63
814,358	-1,58
814,79	-1,5
815,222	-1,44
815,654	-1,39
816,086	-1,32
816,518	-1,27
816,949	-1,22
817,381	-1,17
817,813	-1,15
818,245	-1,11
818,676	-1,07
819,108	-1,04
819,54	-1,02
819,971	-1
820,403	-0,95
820,834	-0,93
821,266	-0,89
821,697	-0,86
822,129	-0,85
822,56	-0,82
822,991	-0,8
823,423	-0,77
823,854	-0,76
824,286	-0,74
824,717	-0,72
825,148	-0,7
825,579	-0,69
826,01	-0,68
826,442	-0,67
826,873	-0,64
827,304	-0,61
827,735	-0,6
828,166	-0,6
828,597	-0,6
829,028	-0,59
829,459	-0,6
829,89	-0,6
830,321	-0,56
830,752	-0,57
831,183	-0,56
831,613	-0,56
832,044	-0,55
832,475	-0,54
832,906	-0,55
833,336	-0,55
833,767	-0,56
834,198	-0,55
834,628	-0,53
835,059	-0,55
835,49	-0,55
835,92	-0,53
836,351	-0,52
836,781	-0,52
837,212	-0,53
837,642	-0,53
838,072	-0,51
838,503	-0,53
838,933	-0,5
839,364	-0,51
839,794	-0,49
840,224	-0,48
840,654	-0,52
841,085	-0,53
841,515	-0,51
841,945	-0,51
842,375	-0,47
842,805	-0,47
843,235	-0,45
843,665	-0,47
844,095	-0,45
844,525	-0,47
844,955	-0,47
845,385	-0,45
845,815	-0,43
846,245	-0,45
846,675	-0,46
847,105	-0,47
847,534	-0,47
847,964	-0,46
848,394	-0,44
848,824	-0,47
849,253	-0,47
849,683	-0,47
850,112	-0,49
850,542	-0,52
850,972	-0,52
851,401	-0,49
851,831	-0,48
852,26	-0,48
852,69	-0,51
853,119	-0,5
853,548	-0,51
853,978	-0,5
854,407	-0,49
854,836	-0,49
855,266	-0,48
855,695	-0,5
856,124	-0,51
856,553	-0,52
856,983	-0,55
857,412	-0,54
857,841	-0,55
858,27	-0,55
858,699	-0,55
859,128	-0,58
859,557	-0,59
859,986	-0,6
860,415	-0,58
860,844	-0,56
861,273	-0,56
861,702	-0,57
862,13	-0,55
862,559	-0,57
862,988	-0,55
863,417	-0,54
863,845	-0,54
864,274	-0,54
864,703	-0,53
865,131	-0,53
865,56	-0,55
865,989	-0,57
866,417	-0,54
866,846	-0,54
867,274	-0,54
867,703	-0,56
868,131	-0,58
868,559	-0,58
868,988	-0,6
869,416	-0,6
869,844	-0,62
870,273	-0,64
870,701	-0,62
871,129	-0,65
871,557	-0,68
871,986	-0,68
872,414	-0,69
872,842	-0,66
873,27	-0,64
873,698	-0,6
874,126	-0,64
874,554	-0,62
874,982	-0,62
875,41	-0,65
875,838	-0,6
876,266	-0,57
876,694	-0,58
877,122	-0,57
877,549	-0,61
877,977	-0,58
878,405	-0,62
878,833	-0,58
879,26	-0,55
879,688	-0,56
880,116	-0,54
880,543	-0,52
880,971	-0,52
881,399	-0,54
881,826	-0,56
882,254	-0,55
882,681	-0,58
883,109	-0,55
883,536	-0,56
883,963	-0,58
884,391	-0,56
884,818	-0,54
885,245	-0,57
885,673	-0,59
886,1	-0,56
886,527	-0,55
886,954	-0,51
887,381	-0,53
887,809	-0,54
888,236	-0,56
888,663	-0,57
889,09	-0,61
889,517	-0,63
889,944	-0,62
890,371	-0,6
890,798	-0,61
891,225	-0,61
891,652	-0,64
892,078	-0,61
892,505	-0,63
892,932	-0,59
893,359	-0,59
893,786	-0,59
894,212	-0,56
894,639	-0,58
895,066	-0,6
895,492	-0,55
895,919	-0,55
896,346	-0,55
896,772	-0,55
897,199	-0,51
897,625	-0,55
898,052	-0,51
898,478	-0,49
898,904	-0,51
899,331	-0,51
899,757	-0,52
900,183	-0,55
900,61	-0,53
901,036	-0,54
901,462	-0,54
901,888	-0,54
902,315	-0,53
902,741	-0,59
903,167	-0,58
903,593	-0,61
904,019	-0,58
904,445	-0,56
904,871	-0,58
905,297	-0,6
905,723	-0,6
906,149	-0,59
906,575	-0,6
907,001	-0,6
907,427	-0,57
907,852	-0,56
908,278	-0,56
908,704	-0,55
909,13	-0,54
909,555	-0,54
909,981	-0,53
910,407	-0,53
910,832	-0,52
911,258	-0,52
911,684	-0,52
912,109	-0,51
912,535	-0,54
912,96	-0,49
913,386	-0,53
913,811	-0,52
914,236	-0,54
914,662	-0,53
915,087	-0,55
915,512	-0,55
915,938	-0,58
916,363	-0,56
916,788	-0,58
917,213	-0,56
917,639	-0,62
918,064	-0,58
918,489	-0,59
918,914	-0,59
919,339	-0,59
919,764	-0,57
920,189	-0,57
920,614	-0,59
921,039	-0,59
921,464	-0,55
921,889	-0,59
922,314	-0,6
922,738	-0,63
923,163	-0,64
923,588	-0,66
924,013	-0,66
924,437	-0,66
924,862	-0,67
925,287	-0,63
925,711	-0,64
926,136	-0,66
926,561	-0,64
926,985	-0,62
927,41	-0,59
927,834	-0,56
928,259	-0,51
928,683	-0,49
929,108	-0,46
929,532	-0,47
929,956	-0,46
930,381	-0,46
930,805	-0,45
931,229	-0,45
931,653	-0,43
932,078	-0,44
932,502	-0,46
932,926	-0,47
933,35	-0,47
933,774	-0,46
934,198	-0,44
934,622	-0,43
935,046	-0,43
935,47	-0,44
935,894	-0,43
936,318	-0,43
936,742	-0,42
937,166	-0,42
937,59	-0,42
938,014	-0,45
938,437	-0,44
938,861	-0,47
939,285	-0,48
939,709	-0,48
940,132	-0,48
940,556	-0,49
940,98	-0,49
941,403	-0,48
941,827	-0,48
942,25	-0,49
942,674	-0,49
943,097	-0,48
943,521	-0,47
943,944	-0,48
944,368	-0,48
944,791	-0,46
945,214	-0,48
945,638	-0,49
946,061	-0,52
946,484	-0,53
946,907	-0,52
947,331	-0,51
947,754	-0,57
948,177	-0,54
948,6	-0,54
949,023	-0,53
949,446	-0,53
949,869	-0,51
950,292	-0,51
950,715	-0,47
951,138	-0,46
951,561	-0,44
951,984	-0,43
952,407	-0,41
952,83	-0,4
953,252	-0,36
953,675	-0,36
954,098	-0,36
954,521	-0,35
954,943	-0,34
955,366	-0,34
955,789	-0,32
956,211	-0,33
956,634	-0,34
957,056	-0,32
957,479	-0,34
957,902	-0,36
958,324	-0,36
958,746	-0,34
959,169	-0,35
959,591	-0,35
960,014	-0,37
960,436	-0,37
960,858	-0,37
961,281	-0,38
961,703	-0,39
962,125	-0,38
962,547	-0,36
962,969	-0,36
963,391	-0,38
963,814	-0,4
964,236	-0,38
964,658	-0,35
965,08	-0,36
965,502	-0,35
965,924	-0,33
966,346	-0,32
966,768	-0,32
967,189	-0,34
967,611	-0,34
968,033	-0,33
968,455	-0,31
968,877	-0,32
969,298	-0,33
969,72	-0,34
970,142	-0,33
970,563	-0,33
970,985	-0,31
971,407	-0,3
971,828	-0,28
972,25	-0,27
972,671	-0,26
973,093	-0,26
973,514	-0,25
973,936	-0,23
974,357	-0,21
974,778	-0,22
975,2	-0,21
975,621	-0,21
976,042	-0,2
976,464	-0,19
976,885	-0,18
977,306	-0,18
977,727	-0,17
978,148	-0,16
978,57	-0,16
978,991	-0,14
979,412	-0,13
979,833	-0,11
980,254	-0,11
980,675	-0,11
981,096	-0,1
981,517	-0,09
981,937	-0,09
982,358	-0,07
982,779	-0,05
983,2	-0,06
983,621	-0,06
984,042	-0,05
984,462	-0,04
984,883	-0,03
985,304	-0,02
985,724	-0,01
986,145	-0
986,565	0,02
986,986	0,02
987,407	0,03
987,827	0,04
988,248	0,05
988,668	0,06
989,088	0,07
989,509	0,08
989,929	0,09
990,35	0,1
990,77	0,11
991,19	0,12
991,61	0,12
992,031	0,13
992,451	0,14
992,871	0,15
993,291	0,16
993,711	0,17
994,131	0,17
994,551	0,17
994,971	0,18
995,391	0,18
995,811	0,18
996,231	0,19
996,651	0,19
997,071	0,19
997,491	0,2
997,911	0,2
998,331	0,21
998,75	0,21
999,17	0,22
999,59	0,22
1000,009	0,22
1000,429	0,23
1000,849	0,23
1001,268	0,23
1001,688	0,24
1002,107	0,24
1002,527	0,24
1002,946	0,24
1003,366	0,24
1003,785	0,25
1004,205	0,25
1004,624	0,25
1005,044	0,25
1005,463	0,25
1005,882	0,25
1006,301	0,26
1006,721	0,26
1007,14	0,26
1007,559	0,26
1007,978	0,26
1008,397	0,26
1008,816	0,26
1009,235	0,26
1009,655	0,25
1010,074	0,25
1010,492	0,25
1010,911	0,25
1011,33	0,25
1011,749	0,25
1012,168	0,25
1012,587	0,25
1013,006	0,25
1013,425	0,25
1013,843	0,25
1014,262	0,25
1014,681	0,25
1015,099	0,25
1015,518	0,25
1015,937	0,25
1016,355	0,25
1016,774	0,25
1017,192	0,25
1017,611	0,25
1018,029	0,25
1018,448	0,25
1018,866	0,25
1019,285	0,25
1019,703	0,25
1020,121	0,25
1020,54	0,25
1020,958	0,25
1021,376	0,25
1021,794	0,25
1022,213	0,25
1022,631	0,25
1023,049	0,25
1023,467	0,25
1023,885	0,25
1024,303	0,25
1024,721	0,25
1025,139	0,25
1025,557	0,25
1025,975	0,25
1026,393	0,24
1026,811	0,24
1027,229	0,24
1027,647	0,24
1028,065	0,24
1028,482	0,24
1028,9	0,24
1029,318	0,24
1029,735	0,24
1030,153	0,24
1030,571	0,24
1030,988	0,24
1031,406	0,24
1031,823	0,24
1032,241	0,24
1032,659	0,24
1033,076	0,24
1033,493	0,24
1033,911	0,24
1034,328	0,24
1034,746	0,24
1035,163	0,24
1035,58	0,24
1035,997	0,24
1036,415	0,24
1036,832	0,24
1037,249	0,24
1037,666	0,24
1038,083	0,24
1038,501	0,24
1038,918	0,24
1039,335	0,24
1039,752	0,24
1040,169	0,24
1040,586	0,24
1041,003	0,24
1041,419	0,24
1041,836	0,23
1042,253	0,23
1042,67	0,23
1043,087	0,23
1043,504	0,23
1043,92	0,23
1044,337	0,23
1044,754	0,23
1045,17	0,23
1045,587	0,23
1046,004	0,23
1046,42	0,23
1046,837	0,23
1047,253	0,23
1047,67	0,23
1048,086	0,23
1048,503	0,23
1048,919	0,23
1049,335	0,23
1049,752	0,23
1050,168	0,23
1050,584	0,23
1051,001	0,23
1051,417	0,23
1051,833	0,23
1052,249	0,23
1052,665	0,23
1053,081	0,23
1053,497	0,23
1053,914	0,23
1054,33	0,23
1054,746	0,23
1055,162	0,23
1055,578	0,23
1055,993	0,23
1056,409	0,23
1056,825	0,23
1057,241	0,23
1057,657	0,23
1058,073	0,23
1058,488	0,23
1058,904	0,23
1059,32	0,23
1059,736	0,23
1060,151	0,24
1060,567	0,24
1060,982	0,24
1061,398	0,24
1061,813	0,24
1062,229	0,24
1062,644	0,24
1063,06	0,24
1063,475	0,23
1063,891	0,23
1064,306	0,23
1064,721	0,23
1065,137	0,23
1065,552	0,23
1065,967	0,23
1066,382	0,23
1066,798	0,23
1067,213	0,23
1067,628	0,23
1068,043	0,23
1068,458	0,23
1068,873	0,23
1069,288	0,23
1069,703	0,23
1070,118	0,23
1070,533	0,23
1070,948	0,24
1071,363	0,24
1071,778	0,24
1072,193	0,24
1072,607	0,24
1073,022	0,24
1073,437	0,24
1073,852	0,24
1074,266	0,24
1074,681	0,24
1075,096	0,24
1075,51	0,24
1075,925	0,24
1076,339	0,24
1076,754	0,24
1077,168	0,24
1077,583	0,24
1077,997	0,24
1078,412	0,24
1078,826	0,23
1079,24	0,23
1079,655	0,23
1080,069	0,23
1080,483	0,23
1080,897	0,23
1081,312	0,23
1081,726	0,23
1082,14	0,23
1082,554	0,23
1082,968	0,23
1083,382	0,23
1083,796	0,23
1084,21	0,23
1084,624	0,22
1085,038	0,22
1085,452	0,22
1085,866	0,22
1086,28	0,22
1086,694	0,22
1087,108	0,22
1087,521	0,22
1087,935	0,22
1088,349	0,22
1088,763	0,21
1089,176	0,21
1089,59	0,21
1090,004	0,21
1090,417	0,21
1090,831	0,21
1091,244	0,2
1091,658	0,2
1092,071	0,2
1092,485	0,2
1092,898	0,2
1093,312	0,2
1093,725	0,19
1094,138	0,19
1094,552	0,19
1094,965	0,19
1095,378	0,19
1095,791	0,19
1096,205	0,19
1096,618	0,19
1097,031	0,18
1097,444	0,18
1097,857	0,18
1098,27	0,18
1098,683	0,18
1099,096	0,18
1099,509	0,18
1099,922	0,17
1100,335	0,17
1100,748	0,16
1101,161	0,16
1101,574	0,16
1101,986	0,16
1102,399	0,15
1102,812	0,15
1103,225	0,15
1103,637	0,15
1104,05	0,14
1104,463	0,14
1104,875	0,14
1105,288	0,14
1105,7	0,13
1106,113	0,13
1106,525	0,13
1106,938	0,13
1107,35	0,12
1107,763	0,12
1108,175	0,12
1108,588	0,11
1109	0,11
1109,412	0,1
1109,824	0,1
1110,237	0,1
1110,649	0,1
1111,061	0,08
