Data from 18C-808nm-8A_Absorbance__1253__01253.txt Node

Date: Mon Jul 17 17:08:36 CEST 2023
User: Laser008
Spectrometer: MAYP115816
Trigger mode: 0
Integration Time (sec): 2,500000E-1
Scans to average: 10
Electric dark correction enabled: true
Nonlinearity correction enabled: true
Boxcar width: 5
XAxis mode: Wavelengths
Number of Pixels in Spectrum: 2068
>>>>>Begin Spectral Data<<<<<
198,914	-0,72
199,384	-0,5
199,855	-0,37
200,325	-0,3
200,796	-0,28
201,266	-0,23
201,737	-0,21
202,207	-0,2
202,677	-0,19
203,147	-0,17
203,618	-0,15
204,088	-0,13
204,558	-0,12
205,028	-0,12
205,498	-0,13
205,968	-0,11
206,439	-0,13
206,909	-0,13
207,379	-0,14
207,849	-0,14
208,319	-0,15
208,789	-0,16
209,258	-0,15
209,728	-0,16
210,198	-0,16
210,668	-0,15
211,138	-0,15
211,608	-0,15
212,077	-0,14
212,547	-0,13
213,017	-0,15
213,486	-0,14
213,956	-0,15
214,426	-0,16
214,895	-0,15
215,365	-0,16
215,834	-0,16
216,304	-0,18
216,773	-0,17
217,243	-0,19
217,712	-0,2
218,181	-0,19
218,651	-0,19
219,12	-0,18
219,589	-0,19
220,058	-0,18
220,528	-0,19
220,997	-0,19
221,466	-0,19
221,935	-0,2
222,404	-0,2
222,873	-0,19
223,342	-0,19
223,812	-0,2
224,281	-0,2
224,749	-0,2
225,218	-0,22
225,687	-0,22
226,156	-0,21
226,625	-0,2
227,094	-0,2
227,563	-0,2
228,031	-0,22
228,5	-0,21
228,969	-0,22
229,438	-0,21
229,906	-0,2
230,375	-0,19
230,844	-0,19
231,312	-0,19
231,781	-0,2
232,249	-0,19
232,718	-0,19
233,186	-0,17
233,655	-0,16
234,123	-0,16
234,591	-0,16
235,06	-0,16
235,528	-0,16
235,996	-0,16
236,465	-0,16
236,933	-0,15
237,401	-0,15
237,869	-0,15
238,337	-0,15
238,805	-0,15
239,274	-0,14
239,742	-0,13
240,21	-0,13
240,678	-0,13
241,146	-0,12
241,614	-0,12
242,081	-0,11
242,549	-0,11
243,017	-0,11
243,485	-0,11
243,953	-0,11
244,421	-0,12
244,888	-0,12
245,356	-0,13
245,824	-0,12
246,291	-0,12
246,759	-0,13
247,227	-0,13
247,694	-0,13
248,162	-0,13
248,629	-0,12
249,097	-0,13
249,564	-0,13
250,032	-0,14
250,499	-0,14
250,967	-0,14
251,434	-0,14
251,901	-0,14
252,369	-0,14
252,836	-0,15
253,303	-0,17
253,77	-0,18
254,237	-0,17
254,705	-0,18
255,172	-0,16
255,639	-0,16
256,106	-0,18
256,573	-0,17
257,04	-0,18
257,507	-0,18
257,974	-0,18
258,441	-0,16
258,908	-0,16
259,375	-0,18
259,841	-0,18
260,308	-0,19
260,775	-0,19
261,242	-0,19
261,709	-0,2
262,175	-0,21
262,642	-0,21
263,109	-0,21
263,575	-0,22
264,042	-0,21
264,508	-0,2
264,975	-0,21
265,441	-0,23
265,908	-0,24
266,374	-0,23
266,841	-0,23
267,307	-0,22
267,773	-0,21
268,24	-0,21
268,706	-0,21
269,172	-0,22
269,639	-0,23
270,105	-0,21
270,571	-0,21
271,037	-0,2
271,503	-0,21
271,969	-0,21
272,435	-0,2
272,902	-0,22
273,368	-0,23
273,834	-0,23
274,3	-0,24
274,765	-0,24
275,231	-0,25
275,697	-0,24
276,163	-0,23
276,629	-0,23
277,095	-0,23
277,56	-0,23
278,026	-0,24
278,492	-0,21
278,958	-0,21
279,423	-0,21
279,889	-0,21
280,354	-0,2
280,82	-0,21
281,286	-0,22
281,751	-0,23
282,217	-0,22
282,682	-0,22
283,147	-0,22
283,613	-0,23
284,078	-0,22
284,544	-0,24
285,009	-0,25
285,474	-0,25
285,939	-0,26
286,405	-0,25
286,87	-0,25
287,335	-0,24
287,8	-0,24
288,265	-0,23
288,73	-0,24
289,195	-0,26
289,66	-0,25
290,125	-0,23
290,59	-0,24
291,055	-0,22
291,52	-0,22
291,985	-0,23
292,45	-0,25
292,915	-0,24
293,38	-0,25
293,844	-0,23
294,309	-0,22
294,774	-0,21
295,239	-0,23
295,703	-0,24
296,168	-0,23
296,632	-0,22
297,097	-0,2
297,562	-0,19
298,026	-0,19
298,491	-0,19
298,955	-0,18
299,419	-0,17
299,884	-0,18
300,348	-0,16
300,813	-0,16
301,277	-0,17
301,741	-0,17
302,205	-0,17
302,67	-0,16
303,134	-0,16
303,598	-0,16
304,062	-0,15
304,526	-0,15
304,99	-0,17
305,454	-0,17
305,919	-0,17
306,383	-0,16
306,847	-0,16
307,31	-0,17
307,774	-0,18
308,238	-0,18
308,702	-0,17
309,166	-0,19
309,63	-0,19
310,094	-0,16
310,557	-0,15
311,021	-0,15
311,485	-0,15
311,948	-0,16
312,412	-0,15
312,876	-0,14
313,339	-0,16
313,803	-0,16
314,266	-0,15
314,73	-0,16
315,193	-0,16
315,657	-0,14
316,12	-0,14
316,584	-0,13
317,047	-0,12
317,51	-0,11
317,973	-0,1
318,437	-0,09
318,9	-0,08
319,363	-0,07
319,826	-0,07
320,29	-0,07
320,753	-0,08
321,216	-0,07
321,679	-0,07
322,142	-0,07
322,605	-0,09
323,068	-0,09
323,531	-0,09
323,994	-0,08
324,457	-0,08
324,92	-0,07
325,382	-0,06
325,845	-0,06
326,308	-0,06
326,771	-0,05
327,233	-0,05
327,696	-0,03
328,159	-0,02
328,622	-0,02
329,084	-0,02
329,547	-0,01
330,009	-0,01
330,472	-0
330,934	0,01
331,397	0
331,859	0,01
332,322	0
332,784	0
333,246	0
333,709	0
334,171	0
334,633	0
335,096	0
335,558	0
336,02	-0
336,482	0
336,944	0,01
337,406	0,02
337,868	0,03
338,331	0,03
338,793	0,04
339,255	0,04
339,717	0,05
340,178	0,06
340,64	0,07
341,102	0,08
341,564	0,09
342,026	0,1
342,488	0,1
342,949	0,12
343,411	0,14
343,873	0,16
344,335	0,18
344,796	0,21
345,258	0,24
345,719	0,27
346,181	0,3
346,643	0,33
347,104	0,35
347,566	0,37
348,027	0,39
348,488	0,41
348,95	0,42
349,411	0,44
349,873	0,45
350,334	0,46
350,795	0,47
351,256	0,48
351,718	0,49
352,179	0,49
352,64	0,49
353,101	0,49
353,562	0,49
354,023	0,5
354,484	0,5
354,945	0,5
355,406	0,5
355,867	0,5
356,328	0,5
356,789	0,5
357,25	0,5
357,711	0,51
358,172	0,51
358,633	0,51
359,093	0,51
359,554	0,51
360,015	0,51
360,476	0,51
360,936	0,51
361,397	0,51
361,858	0,51
362,318	0,51
362,779	0,51
363,239	0,51
363,7	0,51
364,16	0,51
364,621	0,51
365,081	0,51
365,541	0,51
366,002	0,51
366,462	0,51
366,922	0,51
367,383	0,51
367,843	0,51
368,303	0,51
368,763	0,51
369,223	0,51
369,684	0,51
370,144	0,51
370,604	0,51
371,064	0,51
371,524	0,51
371,984	0,51
372,444	0,51
372,904	0,51
373,363	0,51
373,823	0,51
374,283	0,51
374,743	0,51
375,203	0,51
375,663	0,51
376,122	0,51
376,582	0,51
377,042	0,51
377,501	0,51
377,961	0,51
378,42	0,51
378,88	0,51
379,34	0,51
379,799	0,51
380,259	0,51
380,718	0,51
381,177	0,51
381,637	0,51
382,096	0,51
382,555	0,51
383,015	0,5
383,474	0,5
383,933	0,5
384,393	0,5
384,852	0,5
385,311	0,5
385,77	0,5
386,229	0,5
386,688	0,5
387,147	0,5
387,606	0,5
388,065	0,5
388,524	0,5
388,983	0,5
389,442	0,5
389,901	0,5
390,36	0,5
390,819	0,5
391,277	0,5
391,736	0,5
392,195	0,5
392,654	0,5
393,112	0,5
393,571	0,5
394,03	0,5
394,488	0,5
394,947	0,5
395,405	0,5
395,864	0,5
396,322	0,5
396,781	0,5
397,239	0,5
397,698	0,5
398,156	0,5
398,614	0,5
399,073	0,5
399,531	0,5
399,989	0,5
400,447	0,5
400,905	0,5
401,364	0,5
401,822	0,5
402,28	0,49
402,738	0,49
403,196	0,49
403,654	0,49
404,112	0,49
404,57	0,49
405,028	0,49
405,486	0,49
405,944	0,49
406,402	0,49
406,859	0,49
407,317	0,49
407,775	0,49
408,233	0,49
408,691	0,49
409,148	0,49
409,606	0,49
410,064	0,49
410,521	0,49
410,979	0,49
411,436	0,49
411,894	0,49
412,351	0,49
412,809	0,49
413,266	0,49
413,724	0,49
414,181	0,49
414,638	0,49
415,096	0,49
415,553	0,49
416,01	0,49
416,467	0,49
416,925	0,49
417,382	0,49
417,839	0,49
418,296	0,49
418,753	0,49
419,21	0,49
419,667	0,49
420,124	0,49
420,581	0,49
421,038	0,49
421,495	0,49
421,952	0,49
422,409	0,49
422,866	0,49
423,322	0,49
423,779	0,49
424,236	0,49
424,693	0,49
425,149	0,49
425,606	0,49
426,063	0,49
426,519	0,49
426,976	0,49
427,433	0,49
427,889	0,49
428,346	0,49
428,802	0,49
429,258	0,49
429,715	0,49
430,171	0,48
430,628	0,48
431,084	0,48
431,54	0,48
431,997	0,48
432,453	0,48
432,909	0,48
433,365	0,48
433,821	0,48
434,277	0,48
434,734	0,48
435,19	0,48
435,646	0,48
436,102	0,48
436,558	0,48
437,014	0,48
437,47	0,48
437,925	0,48
438,381	0,48
438,837	0,48
439,293	0,48
439,749	0,48
440,205	0,48
440,66	0,48
441,116	0,48
441,572	0,48
442,027	0,48
442,483	0,48
442,939	0,48
443,394	0,48
443,85	0,48
444,305	0,48
444,761	0,48
445,216	0,48
445,672	0,48
446,127	0,48
446,582	0,48
447,038	0,48
447,493	0,48
447,948	0,48
448,403	0,48
448,859	0,48
449,314	0,48
449,769	0,48
450,224	0,48
450,679	0,48
451,134	0,48
451,589	0,48
452,044	0,48
452,499	0,48
452,954	0,48
453,409	0,48
453,864	0,48
454,319	0,48
454,774	0,48
455,229	0,48
455,684	0,49
456,138	0,49
456,593	0,49
457,048	0,49
457,503	0,49
457,957	0,49
458,412	0,49
458,866	0,49
459,321	0,49
459,776	0,49
460,23	0,49
460,685	0,49
461,139	0,49
461,593	0,49
462,048	0,49
462,502	0,49
462,957	0,49
463,411	0,49
463,865	0,49
464,319	0,49
464,774	0,49
465,228	0,49
465,682	0,49
466,136	0,49
466,59	0,49
467,044	0,49
467,499	0,49
467,953	0,5
468,407	0,5
468,861	0,5
469,315	0,5
469,768	0,5
470,222	0,5
470,676	0,5
471,13	0,5
471,584	0,5
472,038	0,5
472,491	0,5
472,945	0,5
473,399	0,5
473,852	0,5
474,306	0,5
474,76	0,5
475,213	0,5
475,667	0,5
476,12	0,5
476,574	0,5
477,027	0,51
477,481	0,51
477,934	0,51
478,388	0,51
478,841	0,51
479,294	0,51
479,748	0,51
480,201	0,51
480,654	0,51
481,107	0,52
481,561	0,52
482,014	0,52
482,467	0,52
482,92	0,52
483,373	0,52
483,826	0,52
484,279	0,52
484,732	0,52
485,185	0,53
485,638	0,53
486,091	0,53
486,544	0,53
486,997	0,53
487,449	0,53
487,902	0,53
488,355	0,53
488,808	0,54
489,26	0,54
489,713	0,54
490,166	0,54
490,618	0,54
491,071	0,55
491,523	0,55
491,976	0,55
492,429	0,55
492,881	0,55
493,333	0,55
493,786	0,56
494,238	0,56
494,691	0,56
495,143	0,56
495,595	0,57
496,048	0,57
496,5	0,57
496,952	0,57
497,404	0,57
497,856	0,58
498,309	0,58
498,761	0,58
499,213	0,58
499,665	0,59
500,117	0,59
500,569	0,59
501,021	0,59
501,473	0,6
501,925	0,6
502,377	0,6
502,828	0,61
503,28	0,61
503,732	0,61
504,184	0,61
504,636	0,62
505,087	0,62
505,539	0,62
505,991	0,62
506,442	0,63
506,894	0,63
507,345	0,63
507,797	0,64
508,249	0,64
508,7	0,64
509,151	0,64
509,603	0,65
510,054	0,65
510,506	0,65
510,957	0,65
511,408	0,66
511,86	0,66
512,311	0,66
512,762	0,66
513,213	0,67
513,665	0,67
514,116	0,67
514,567	0,67
515,018	0,68
515,469	0,68
515,92	0,68
516,371	0,68
516,822	0,69
517,273	0,69
517,724	0,69
518,175	0,69
518,626	0,69
519,076	0,69
519,527	0,7
519,978	0,7
520,429	0,7
520,88	0,7
521,33	0,7
521,781	0,7
522,232	0,7
522,682	0,71
523,133	0,71
523,583	0,71
524,034	0,71
524,484	0,71
524,935	0,71
525,385	0,71
525,836	0,71
526,286	0,71
526,736	0,71
527,187	0,71
527,637	0,71
528,087	0,71
528,538	0,71
528,988	0,71
529,438	0,71
529,888	0,71
530,338	0,71
530,788	0,71
531,238	0,71
531,688	0,71
532,139	0,71
532,589	0,71
533,038	0,71
533,488	0,71
533,938	0,71
534,388	0,7
534,838	0,7
535,288	0,7
535,738	0,7
536,187	0,7
536,637	0,69
537,087	0,69
537,537	0,69
537,986	0,69
538,436	0,69
538,885	0,68
539,335	0,68
539,785	0,68
540,234	0,67
540,684	0,67
541,133	0,67
541,582	0,66
542,032	0,66
542,481	0,66
542,931	0,66
543,38	0,65
543,829	0,65
544,278	0,65
544,728	0,64
545,177	0,64
545,626	0,64
546,075	0,64
546,524	0,63
546,973	0,63
547,422	0,63
547,871	0,63
548,32	0,62
548,769	0,62
549,218	0,62
549,667	0,62
550,116	0,62
550,565	0,62
551,014	0,62
551,463	0,61
551,911	0,61
552,36	0,61
552,809	0,61
553,258	0,6
553,706	0,6
554,155	0,6
554,603	0,6
555,052	0,59
555,501	0,59
555,949	0,59
556,398	0,59
556,846	0,58
557,294	0,58
557,743	0,58
558,191	0,58
558,64	0,57
559,088	0,57
559,536	0,57
559,985	0,56
560,433	0,56
560,881	0,56
561,329	0,56
561,777	0,55
562,225	0,55
562,674	0,55
563,122	0,55
563,57	0,54
564,018	0,54
564,466	0,54
564,914	0,54
565,362	0,54
565,809	0,53
566,257	0,53
566,705	0,53
567,153	0,52
567,601	0,52
568,048	0,52
568,496	0,52
568,944	0,51
569,392	0,51
569,839	0,51
570,287	0,51
570,734	0,51
571,182	0,5
571,63	0,5
572,077	0,5
572,525	0,5
572,972	0,5
573,419	0,49
573,867	0,49
574,314	0,49
574,761	0,49
575,209	0,48
575,656	0,48
576,103	0,48
576,551	0,48
576,998	0,48
577,445	0,48
577,892	0,48
578,339	0,47
578,786	0,47
579,233	0,47
579,68	0,47
580,127	0,47
580,574	0,47
581,021	0,47
581,468	0,46
581,915	0,46
582,362	0,46
582,809	0,46
583,255	0,46
583,702	0,46
584,149	0,45
584,596	0,45
585,042	0,45
585,489	0,45
585,936	0,45
586,382	0,45
586,829	0,45
587,275	0,45
587,722	0,44
588,168	0,44
588,615	0,44
589,061	0,44
589,508	0,44
589,954	0,44
590,4	0,44
590,847	0,44
591,293	0,43
591,739	0,43
592,185	0,43
592,632	0,43
593,078	0,43
593,524	0,43
593,97	0,43
594,416	0,43
594,862	0,43
595,308	0,43
595,754	0,43
596,2	0,43
596,646	0,42
597,092	0,42
597,538	0,42
597,984	0,42
598,43	0,42
598,876	0,42
599,321	0,42
599,767	0,42
600,213	0,42
600,659	0,42
601,104	0,42
601,55	0,41
601,995	0,41
602,441	0,41
602,887	0,41
603,332	0,41
603,778	0,41
604,223	0,41
604,668	0,41
605,114	0,41
605,559	0,41
606,005	0,41
606,45	0,41
606,895	0,41
607,341	0,41
607,786	0,41
608,231	0,4
608,676	0,4
609,121	0,4
609,566	0,39
610,012	0,39
610,457	0,39
610,902	0,38
611,347	0,38
611,792	0,38
612,237	0,38
612,682	0,38
613,127	0,38
613,571	0,38
614,016	0,38
614,461	0,38
614,906	0,39
615,351	0,39
615,795	0,39
616,24	0,39
616,685	0,39
617,129	0,39
617,574	0,39
618,019	0,39
618,463	0,39
618,908	0,39
619,352	0,39
619,797	0,39
620,241	0,39
620,686	0,39
621,13	0,39
621,574	0,39
622,019	0,39
622,463	0,38
622,907	0,38
623,352	0,38
623,796	0,38
624,24	0,38
624,684	0,38
625,128	0,38
625,572	0,38
626,016	0,38
626,461	0,38
626,905	0,38
627,349	0,38
627,793	0,38
628,236	0,38
628,68	0,38
629,124	0,38
629,568	0,38
630,012	0,38
630,456	0,38
630,9	0,38
631,343	0,38
631,787	0,38
632,231	0,38
632,674	0,38
633,118	0,38
633,562	0,38
634,005	0,38
634,449	0,38
634,892	0,38
635,336	0,38
635,779	0,38
636,223	0,38
636,666	0,38
637,109	0,37
637,553	0,37
637,996	0,37
638,439	0,37
638,883	0,37
639,326	0,37
639,769	0,37
640,212	0,37
640,655	0,37
641,099	0,37
641,542	0,37
641,985	0,37
642,428	0,37
642,871	0,37
643,314	0,37
643,757	0,37
644,2	0,37
644,643	0,37
645,085	0,37
645,528	0,37
645,971	0,37
646,414	0,37
646,857	0,37
647,299	0,37
647,742	0,37
648,185	0,37
648,627	0,37
649,07	0,36
649,513	0,36
649,955	0,36
650,398	0,36
650,84	0,36
651,283	0,36
651,725	0,36
652,168	0,36
652,61	0,36
653,052	0,36
653,495	0,36
653,937	0,28
654,379	0,23
654,821	0,23
655,264	0,24
655,706	0,24
656,148	0,24
656,59	0,24
657,032	0,24
657,474	0,24
657,916	0,24
658,358	0,23
658,8	0,29
659,242	0,36
659,684	0,36
660,126	0,36
660,568	0,36
661,01	0,36
661,452	0,36
661,894	0,36
662,335	0,36
662,777	0,36
663,219	0,36
663,661	0,36
664,102	0,36
664,544	0,36
664,985	0,36
665,427	0,36
665,869	0,36
666,31	0,36
666,752	0,36
667,193	0,36
667,634	0,36
668,076	0,36
668,517	0,36
668,959	0,36
669,4	0,36
669,841	0,36
670,282	0,36
670,724	0,36
671,165	0,36
671,606	0,36
672,047	0,36
672,488	0,36
672,929	0,36
673,37	0,36
673,811	0,36
674,252	0,36
674,693	0,36
675,134	0,35
675,575	0,35
676,016	0,35
676,457	0,35
676,898	0,35
677,339	0,35
677,78	0,35
678,22	0,35
678,661	0,35
679,102	0,35
679,542	0,35
679,983	0,35
680,424	0,35
680,864	0,35
681,305	0,35
681,745	0,35
682,186	0,35
682,626	0,35
683,067	0,35
683,507	0,35
683,948	0,35
684,388	0,35
684,828	0,35
685,269	0,35
685,709	0,35
686,149	0,35
686,589	0,35
687,029	0,35
687,47	0,35
687,91	0,34
688,35	0,34
688,79	0,34
689,23	0,34
689,67	0,34
690,11	0,34
690,55	0,34
690,99	0,34
691,43	0,34
691,87	0,34
692,31	0,34
692,749	0,34
693,189	0,34
693,629	0,34
694,069	0,34
694,508	0,34
694,948	0,34
695,388	0,34
695,827	0,34
696,267	0,34
696,706	0,34
697,146	0,34
697,586	0,34
698,025	0,34
698,464	0,35
698,904	0,35
699,343	0,35
699,783	0,35
700,222	0,35
700,661	0,35
701,101	0,35
701,54	0,35
701,979	0,34
702,418	0,34
702,857	0,34
703,297	0,34
703,736	0,34
704,175	0,34
704,614	0,34
705,053	0,34
705,492	0,34
705,931	0,34
706,37	0,34
706,809	0,34
707,248	0,34
707,687	0,34
708,125	0,33
708,564	0,33
709,003	0,33
709,442	0,33
709,88	0,33
710,319	0,33
710,758	0,33
711,196	0,33
711,635	0,33
712,074	0,33
712,512	0,33
712,951	0,33
713,389	0,33
713,828	0,33
714,266	0,33
714,705	0,33
715,143	0,33
715,581	0,33
716,02	0,33
716,458	0,33
716,896	0,33
717,334	0,33
717,773	0,33
718,211	0,33
718,649	0,33
719,087	0,33
719,525	0,33
719,963	0,33
720,401	0,33
720,839	0,33
721,277	0,33
721,715	0,33
722,153	0,33
722,591	0,33
723,029	0,33
723,467	0,33
723,905	0,33
724,342	0,33
724,78	0,33
725,218	0,33
725,656	0,33
726,093	0,33
726,531	0,33
726,969	0,33
727,406	0,33
727,844	0,33
728,281	0,33
728,719	0,33
729,156	0,33
729,594	0,33
730,031	0,32
730,469	0,32
730,906	0,32
731,343	0,32
731,781	0,32
732,218	0,32
732,655	0,32
733,092	0,32
733,53	0,32
733,967	0,32
734,404	0,32
734,841	0,32
735,278	0,32
735,715	0,32
736,152	0,32
736,589	0,32
737,026	0,32
737,463	0,32
737,9	0,32
738,337	0,32
738,774	0,32
739,211	0,32
739,647	0,32
740,084	0,31
740,521	0,31
740,958	0,31
741,394	0,31
741,831	0,31
742,268	0,31
742,704	0,31
743,141	0,31
743,577	0,31
744,014	0,31
744,45	0,31
744,887	0,3
745,323	0,3
745,76	0,3
746,196	0,3
746,632	0,3
747,069	0,3
747,505	0,3
747,941	0,3
748,378	0,3
748,814	0,3
749,25	0,3
749,686	0,3
750,122	0,31
750,558	0,31
750,994	0,31
751,43	0,31
751,866	0,31
752,302	0,31
752,738	0,31
753,174	0,31
753,61	0,32
754,046	0,32
754,482	0,32
754,918	0,32
755,354	0,32
755,789	0,32
756,225	0,31
756,661	0,31
757,096	0,31
757,532	0,31
757,968	0,31
758,403	0,31
758,839	0,31
759,274	0,3
759,71	0,3
760,145	0,3
760,581	0,29
761,016	0,29
761,452	0,28
761,887	0,28
762,322	0,28
762,758	0,27
763,193	0,27
763,628	0,26
764,063	0,26
764,499	0,25
764,934	0,25
765,369	0,24
765,804	0,24
766,239	0,24
766,674	0,23
767,109	0,22
767,544	0,22
767,979	0,21
768,414	0,2
768,849	0,19
769,284	0,19
769,719	0,18
770,154	0,17
770,588	0,17
771,023	0,16
771,458	0,15
771,893	0,14
772,327	0,13
772,762	0,11
773,197	0,11
773,631	0,1
774,066	0,09
774,5	0,08
774,935	0,07
775,369	0,06
775,804	0,05
776,238	0,04
776,673	0,04
777,107	0,03
777,541	0,03
777,976	0,01
778,41	0
778,844	-0,01
779,279	-0,01
779,713	-0,02
780,147	-0,03
780,581	-0,04
781,015	-0,04
781,449	-0,05
781,883	-0,06
782,317	-0,07
782,751	-0,08
783,185	-0,08
783,619	-0,09
784,053	-0,1
784,487	-0,11
784,921	-0,11
785,355	-0,12
785,789	-0,13
786,223	-0,14
786,656	-0,14
787,09	-0,16
787,524	-0,16
787,957	-0,17
788,391	-0,19
788,825	-0,2
789,258	-0,21
789,692	-0,22
790,125	-0,24
790,559	-0,26
790,992	-0,28
791,426	-0,3
791,859	-0,32
792,293	-0,35
792,726	-0,37
793,159	-0,38
793,593	-0,4
794,026	-0,43
794,459	-0,45
794,892	-0,48
795,326	-0,5
795,759	-0,54
796,192	-0,58
796,625	-0,62
797,058	-0,65
797,491	-0,69
797,924	-0,73
798,357	-0,78
798,79	-0,83
799,223	-0,87
799,656	-0,92
800,089	-0,97
800,522	-1,01
800,955	-1,06
801,387	-1,11
801,82	-1,17
802,253	-1,23
802,686	-1,31
803,118	-1,37
803,551	-1,42
803,984	-1,46
804,416	-1,5
804,849	-1,54
805,281	-1,65
805,714	-2,01
806,146	-2,46
806,579	-2,72
807,011	-2,87
807,444	-2,97
807,876	-3,06
808,308	-3,1
808,741	-3,13
809,173	-3,18
809,605	-3,2
810,037	-3,28
810,47	-3,19
810,902	-3
811,334	-2,85
811,766	-2,7
812,198	-2,48
812,63	-2,05
813,062	-1,82
813,494	-1,72
813,926	-1,63
814,358	-1,58
814,79	-1,5
815,222	-1,44
815,654	-1,39
816,086	-1,32
816,518	-1,27
816,949	-1,22
817,381	-1,17
817,813	-1,15
818,245	-1,11
818,676	-1,07
819,108	-1,04
819,54	-1,02
819,971	-1
820,403	-0,95
820,834	-0,94
821,266	-0,89
821,697	-0,87
822,129	-0,85
822,56	-0,82
822,991	-0,8
823,423	-0,76
823,854	-0,76
824,286	-0,73
824,717	-0,71
825,148	-0,69
825,579	-0,68
826,01	-0,67
826,442	-0,66
826,873	-0,64
827,304	-0,61
827,735	-0,6
828,166	-0,61
828,597	-0,6
829,028	-0,59
829,459	-0,6
829,89	-0,61
830,321	-0,56
830,752	-0,57
831,183	-0,56
831,613	-0,56
832,044	-0,56
832,475	-0,55
832,906	-0,57
833,336	-0,58
833,767	-0,58
834,198	-0,57
834,628	-0,54
835,059	-0,57
835,49	-0,58
835,92	-0,55
836,351	-0,55
836,781	-0,55
837,212	-0,56
837,642	-0,56
838,072	-0,53
838,503	-0,54
838,933	-0,52
839,364	-0,53
839,794	-0,51
840,224	-0,5
840,654	-0,54
841,085	-0,55
841,515	-0,52
841,945	-0,52
842,375	-0,48
842,805	-0,48
843,235	-0,47
843,665	-0,49
844,095	-0,47
844,525	-0,49
844,955	-0,5
845,385	-0,47
845,815	-0,46
846,245	-0,48
846,675	-0,5
847,105	-0,52
847,534	-0,52
847,964	-0,5
848,394	-0,49
848,824	-0,52
849,253	-0,51
849,683	-0,51
850,112	-0,53
850,542	-0,55
850,972	-0,55
851,401	-0,53
851,831	-0,51
852,26	-0,52
852,69	-0,55
853,119	-0,54
853,548	-0,54
853,978	-0,54
854,407	-0,52
854,836	-0,52
855,266	-0,52
855,695	-0,53
856,124	-0,54
856,553	-0,55
856,983	-0,56
857,412	-0,56
857,841	-0,57
858,27	-0,58
858,699	-0,59
859,128	-0,63
859,557	-0,63
859,986	-0,64
860,415	-0,62
860,844	-0,59
861,273	-0,59
861,702	-0,61
862,13	-0,59
862,559	-0,6
862,988	-0,57
863,417	-0,56
863,845	-0,55
864,274	-0,56
864,703	-0,55
865,131	-0,55
865,56	-0,56
865,989	-0,58
866,417	-0,55
866,846	-0,55
867,274	-0,55
867,703	-0,57
868,131	-0,58
868,559	-0,58
868,988	-0,6
869,416	-0,59
869,844	-0,61
870,273	-0,64
870,701	-0,62
871,129	-0,65
871,557	-0,67
871,986	-0,67
872,414	-0,68
872,842	-0,65
873,27	-0,64
873,698	-0,6
874,126	-0,64
874,554	-0,63
874,982	-0,62
875,41	-0,65
875,838	-0,6
876,266	-0,58
876,694	-0,57
877,122	-0,57
877,549	-0,62
877,977	-0,59
878,405	-0,62
878,833	-0,59
879,26	-0,57
879,688	-0,57
880,116	-0,55
880,543	-0,54
880,971	-0,53
881,399	-0,57
881,826	-0,57
882,254	-0,55
882,681	-0,59
883,109	-0,55
883,536	-0,56
883,963	-0,58
884,391	-0,57
884,818	-0,55
885,245	-0,59
885,673	-0,61
886,1	-0,57
886,527	-0,58
886,954	-0,54
887,381	-0,56
887,809	-0,58
888,236	-0,59
888,663	-0,59
889,09	-0,63
889,517	-0,66
889,944	-0,65
890,371	-0,63
890,798	-0,64
891,225	-0,64
891,652	-0,67
892,078	-0,64
892,505	-0,67
892,932	-0,62
893,359	-0,64
893,786	-0,64
894,212	-0,61
894,639	-0,62
895,066	-0,64
895,492	-0,58
895,919	-0,57
896,346	-0,56
896,772	-0,57
897,199	-0,53
897,625	-0,56
898,052	-0,53
898,478	-0,51
898,904	-0,52
899,331	-0,52
899,757	-0,53
900,183	-0,55
900,61	-0,54
901,036	-0,55
901,462	-0,55
901,888	-0,54
902,315	-0,53
902,741	-0,58
903,167	-0,56
903,593	-0,6
904,019	-0,58
904,445	-0,55
904,871	-0,57
905,297	-0,6
905,723	-0,59
906,149	-0,58
906,575	-0,59
907,001	-0,6
907,427	-0,56
907,852	-0,56
908,278	-0,56
908,704	-0,54
909,13	-0,54
909,555	-0,54
909,981	-0,53
910,407	-0,54
910,832	-0,54
911,258	-0,54
911,684	-0,54
912,109	-0,54
912,535	-0,55
912,96	-0,51
913,386	-0,55
913,811	-0,54
914,236	-0,55
914,662	-0,54
915,087	-0,58
915,512	-0,58
915,938	-0,59
916,363	-0,58
916,788	-0,59
917,213	-0,58
917,639	-0,64
918,064	-0,61
918,489	-0,6
918,914	-0,61
919,339	-0,62
919,764	-0,58
920,189	-0,58
920,614	-0,61
921,039	-0,61
921,464	-0,57
921,889	-0,61
922,314	-0,6
922,738	-0,64
923,163	-0,65
923,588	-0,65
924,013	-0,65
924,437	-0,64
924,862	-0,65
925,287	-0,61
925,711	-0,62
926,136	-0,64
926,561	-0,61
926,985	-0,61
927,41	-0,58
927,834	-0,57
928,259	-0,54
928,683	-0,52
929,108	-0,5
929,532	-0,51
929,956	-0,5
930,381	-0,49
930,805	-0,49
931,229	-0,48
931,653	-0,47
932,078	-0,47
932,502	-0,48
932,926	-0,48
933,35	-0,47
933,774	-0,47
934,198	-0,45
934,622	-0,44
935,046	-0,44
935,47	-0,45
935,894	-0,44
936,318	-0,44
936,742	-0,43
937,166	-0,43
937,59	-0,43
938,014	-0,46
938,437	-0,46
938,861	-0,48
939,285	-0,49
939,709	-0,49
940,132	-0,49
940,556	-0,5
940,98	-0,49
941,403	-0,49
941,827	-0,49
942,25	-0,5
942,674	-0,49
943,097	-0,48
943,521	-0,48
943,944	-0,49
944,368	-0,47
944,791	-0,47
945,214	-0,49
945,638	-0,49
946,061	-0,53
946,484	-0,54
946,907	-0,52
947,331	-0,52
947,754	-0,57
948,177	-0,54
948,6	-0,54
949,023	-0,54
949,446	-0,54
949,869	-0,51
950,292	-0,51
950,715	-0,47
951,138	-0,45
951,561	-0,43
951,984	-0,42
952,407	-0,4
952,83	-0,38
953,252	-0,35
953,675	-0,35
954,098	-0,36
954,521	-0,36
954,943	-0,36
955,366	-0,37
955,789	-0,35
956,211	-0,37
956,634	-0,38
957,056	-0,37
957,479	-0,37
957,902	-0,4
958,324	-0,4
958,746	-0,38
959,169	-0,39
959,591	-0,39
960,014	-0,4
960,436	-0,4
960,858	-0,39
961,281	-0,39
961,703	-0,4
962,125	-0,4
962,547	-0,38
962,969	-0,38
963,391	-0,38
963,814	-0,39
964,236	-0,38
964,658	-0,35
965,08	-0,37
965,502	-0,36
965,924	-0,34
966,346	-0,33
966,768	-0,33
967,189	-0,35
967,611	-0,34
968,033	-0,34
968,455	-0,33
968,877	-0,33
969,298	-0,34
969,72	-0,35
970,142	-0,34
970,563	-0,34
970,985	-0,33
971,407	-0,31
971,828	-0,29
972,25	-0,29
972,671	-0,27
973,093	-0,27
973,514	-0,26
973,936	-0,23
974,357	-0,22
974,778	-0,22
975,2	-0,23
975,621	-0,21
976,042	-0,2
976,464	-0,19
976,885	-0,18
977,306	-0,18
977,727	-0,17
978,148	-0,17
978,57	-0,16
978,991	-0,15
979,412	-0,14
979,833	-0,13
980,254	-0,12
980,675	-0,13
981,096	-0,12
981,517	-0,11
981,937	-0,11
982,358	-0,09
982,779	-0,08
983,2	-0,08
983,621	-0,08
984,042	-0,06
984,462	-0,05
984,883	-0,03
985,304	-0,02
985,724	-0,01
986,145	-0
986,565	0,01
986,986	0,02
987,407	0,03
987,827	0,05
988,248	0,06
988,668	0,06
989,088	0,07
989,509	0,08
989,929	0,09
990,35	0,1
990,77	0,11
991,19	0,12
991,61	0,13
992,031	0,14
992,451	0,15
992,871	0,16
993,291	0,16
993,711	0,17
994,131	0,17
994,551	0,18
994,971	0,18
995,391	0,19
995,811	0,19
996,231	0,19
996,651	0,2
997,071	0,21
997,491	0,21
997,911	0,22
998,331	0,22
998,75	0,23
999,17	0,23
999,59	0,23
1000,009	0,24
1000,429	0,24
1000,849	0,25
1001,268	0,25
1001,688	0,25
1002,107	0,25
1002,527	0,26
1002,946	0,26
1003,366	0,26
1003,785	0,26
1004,205	0,26
1004,624	0,27
1005,044	0,27
1005,463	0,27
1005,882	0,27
1006,301	0,27
1006,721	0,27
1007,14	0,27
1007,559	0,27
1007,978	0,27
1008,397	0,27
1008,816	0,27
1009,235	0,27
1009,655	0,27
1010,074	0,27
1010,492	0,27
1010,911	0,27
1011,33	0,27
1011,749	0,27
1012,168	0,27
1012,587	0,27
1013,006	0,27
1013,425	0,26
1013,843	0,26
1014,262	0,26
1014,681	0,26
1015,099	0,26
1015,518	0,26
1015,937	0,26
1016,355	0,26
1016,774	0,26
1017,192	0,26
1017,611	0,26
1018,029	0,26
1018,448	0,27
1018,866	0,27
1019,285	0,27
1019,703	0,27
1020,121	0,27
1020,54	0,27
1020,958	0,27
1021,376	0,27
1021,794	0,27
1022,213	0,27
1022,631	0,27
1023,049	0,27
1023,467	0,27
1023,885	0,27
1024,303	0,26
1024,721	0,26
1025,139	0,26
1025,557	0,26
1025,975	0,26
1026,393	0,26
1026,811	0,26
1027,229	0,26
1027,647	0,26
1028,065	0,26
1028,482	0,26
1028,9	0,26
1029,318	0,26
1029,735	0,26
1030,153	0,26
1030,571	0,26
1030,988	0,26
1031,406	0,26
1031,823	0,26
1032,241	0,26
1032,659	0,26
1033,076	0,26
1033,493	0,26
1033,911	0,26
1034,328	0,26
1034,746	0,26
1035,163	0,26
1035,58	0,26
1035,997	0,26
1036,415	0,26
1036,832	0,26
1037,249	0,26
1037,666	0,26
1038,083	0,26
1038,501	0,26
1038,918	0,26
1039,335	0,26
1039,752	0,26
1040,169	0,26
1040,586	0,25
1041,003	0,25
1041,419	0,25
1041,836	0,25
1042,253	0,25
1042,67	0,25
1043,087	0,25
1043,504	0,25
1043,92	0,25
1044,337	0,25
1044,754	0,25
1045,17	0,25
1045,587	0,25
1046,004	0,25
1046,42	0,25
1046,837	0,25
1047,253	0,25
1047,67	0,24
1048,086	0,24
1048,503	0,24
1048,919	0,24
1049,335	0,24
1049,752	0,25
1050,168	0,25
1050,584	0,24
1051,001	0,24
1051,417	0,24
1051,833	0,25
1052,249	0,25
1052,665	0,25
1053,081	0,25
1053,497	0,25
1053,914	0,25
1054,33	0,25
1054,746	0,25
1055,162	0,25
1055,578	0,25
1055,993	0,25
1056,409	0,25
1056,825	0,25
1057,241	0,25
1057,657	0,25
1058,073	0,25
1058,488	0,25
1058,904	0,25
1059,32	0,25
1059,736	0,25
1060,151	0,25
1060,567	0,25
1060,982	0,25
1061,398	0,25
1061,813	0,25
1062,229	0,25
1062,644	0,25
1063,06	0,25
1063,475	0,25
1063,891	0,25
1064,306	0,25
1064,721	0,25
1065,137	0,25
1065,552	0,25
1065,967	0,25
1066,382	0,25
1066,798	0,25
1067,213	0,25
1067,628	0,25
1068,043	0,25
1068,458	0,25
1068,873	0,25
1069,288	0,25
1069,703	0,25
1070,118	0,25
1070,533	0,25
1070,948	0,25
1071,363	0,25
1071,778	0,25
1072,193	0,26
1072,607	0,26
1073,022	0,26
1073,437	0,26
1073,852	0,26
1074,266	0,26
1074,681	0,26
1075,096	0,26
1075,51	0,26
1075,925	0,26
1076,339	0,26
1076,754	0,26
1077,168	0,26
1077,583	0,26
1077,997	0,26
1078,412	0,26
1078,826	0,26
1079,24	0,25
1079,655	0,25
1080,069	0,25
1080,483	0,25
1080,897	0,25
1081,312	0,25
1081,726	0,25
1082,14	0,25
1082,554	0,25
1082,968	0,25
1083,382	0,25
1083,796	0,24
1084,21	0,24
1084,624	0,24
1085,038	0,24
1085,452	0,24
1085,866	0,24
1086,28	0,24
1086,694	0,24
1087,108	0,24
1087,521	0,24
1087,935	0,24
1088,349	0,23
1088,763	0,23
1089,176	0,23
1089,59	0,23
1090,004	0,23
1090,417	0,22
1090,831	0,22
1091,244	0,22
1091,658	0,22
1092,071	0,22
1092,485	0,21
1092,898	0,21
1093,312	0,21
1093,725	0,21
1094,138	0,21
1094,552	0,21
1094,965	0,21
1095,378	0,21
1095,791	0,21
1096,205	0,2
1096,618	0,2
1097,031	0,2
1097,444	0,2
1097,857	0,2
1098,27	0,19
1098,683	0,19
1099,096	0,19
1099,509	0,19
1099,922	0,18
1100,335	0,18
1100,748	0,18
1101,161	0,17
1101,574	0,17
1101,986	0,17
1102,399	0,17
1102,812	0,16
1103,225	0,16
1103,637	0,15
1104,05	0,15
1104,463	0,15
1104,875	0,15
1105,288	0,14
1105,7	0,14
1106,113	0,14
1106,525	0,14
1106,938	0,13
1107,35	0,13
1107,763	0,13
1108,175	0,13
1108,588	0,12
1109	0,12
1109,412	0,12
1109,824	0,13
1110,237	0,13
1110,649	0,13
1111,061	0,12
