Data from 18C-808nm-8A_Absorbance__767__00767.txt Node

Date: Mon Jul 17 16:48:21 CEST 2023
User: Laser008
Spectrometer: MAYP115816
Trigger mode: 0
Integration Time (sec): 2,500000E-1
Scans to average: 10
Electric dark correction enabled: true
Nonlinearity correction enabled: true
Boxcar width: 5
XAxis mode: Wavelengths
Number of Pixels in Spectrum: 2068
>>>>>Begin Spectral Data<<<<<
198,914	-0,68
199,384	-0,47
199,855	-0,35
200,325	-0,29
200,796	-0,27
201,266	-0,22
201,737	-0,21
202,207	-0,2
202,677	-0,19
203,147	-0,17
203,618	-0,15
204,088	-0,13
204,558	-0,12
205,028	-0,12
205,498	-0,13
205,968	-0,12
206,439	-0,14
206,909	-0,13
207,379	-0,13
207,849	-0,14
208,319	-0,15
208,789	-0,16
209,258	-0,16
209,728	-0,17
210,198	-0,17
210,668	-0,16
211,138	-0,16
211,608	-0,15
212,077	-0,16
212,547	-0,16
213,017	-0,15
213,486	-0,15
213,956	-0,16
214,426	-0,16
214,895	-0,16
215,365	-0,15
215,834	-0,16
216,304	-0,16
216,773	-0,17
217,243	-0,18
217,712	-0,19
218,181	-0,19
218,651	-0,19
219,12	-0,19
219,589	-0,18
220,058	-0,17
220,528	-0,18
220,997	-0,19
221,466	-0,2
221,935	-0,2
222,404	-0,2
222,873	-0,19
223,342	-0,18
223,812	-0,18
224,281	-0,18
224,749	-0,2
225,218	-0,21
225,687	-0,21
226,156	-0,2
226,625	-0,18
227,094	-0,18
227,563	-0,18
228,031	-0,19
228,5	-0,2
228,969	-0,2
229,438	-0,19
229,906	-0,18
230,375	-0,16
230,844	-0,17
231,312	-0,16
231,781	-0,17
232,249	-0,16
232,718	-0,16
233,186	-0,14
233,655	-0,15
234,123	-0,15
234,591	-0,15
235,06	-0,15
235,528	-0,16
235,996	-0,15
236,465	-0,15
236,933	-0,15
237,401	-0,15
237,869	-0,14
238,337	-0,15
238,805	-0,15
239,274	-0,15
239,742	-0,14
240,21	-0,15
240,678	-0,14
241,146	-0,14
241,614	-0,14
242,081	-0,13
242,549	-0,13
243,017	-0,14
243,485	-0,13
243,953	-0,13
244,421	-0,12
244,888	-0,12
245,356	-0,12
245,824	-0,13
246,291	-0,12
246,759	-0,13
247,227	-0,14
247,694	-0,13
248,162	-0,12
248,629	-0,11
249,097	-0,12
249,564	-0,12
250,032	-0,13
250,499	-0,12
250,967	-0,13
251,434	-0,14
251,901	-0,14
252,369	-0,14
252,836	-0,15
253,303	-0,16
253,77	-0,17
254,237	-0,17
254,705	-0,17
255,172	-0,16
255,639	-0,16
256,106	-0,18
256,573	-0,18
257,04	-0,18
257,507	-0,18
257,974	-0,19
258,441	-0,17
258,908	-0,18
259,375	-0,19
259,841	-0,19
260,308	-0,19
260,775	-0,19
261,242	-0,18
261,709	-0,18
262,175	-0,19
262,642	-0,19
263,109	-0,18
263,575	-0,2
264,042	-0,18
264,508	-0,18
264,975	-0,2
265,441	-0,21
265,908	-0,21
266,374	-0,2
266,841	-0,21
267,307	-0,2
267,773	-0,19
268,24	-0,2
268,706	-0,2
269,172	-0,2
269,639	-0,21
270,105	-0,19
270,571	-0,19
271,037	-0,19
271,503	-0,2
271,969	-0,18
272,435	-0,18
272,902	-0,2
273,368	-0,22
273,834	-0,22
274,3	-0,22
274,765	-0,22
275,231	-0,23
275,697	-0,22
276,163	-0,21
276,629	-0,22
277,095	-0,22
277,56	-0,22
278,026	-0,22
278,492	-0,2
278,958	-0,2
279,423	-0,2
279,889	-0,19
280,354	-0,19
280,82	-0,2
281,286	-0,21
281,751	-0,21
282,217	-0,2
282,682	-0,21
283,147	-0,22
283,613	-0,23
284,078	-0,23
284,544	-0,23
285,009	-0,23
285,474	-0,23
285,939	-0,24
286,405	-0,23
286,87	-0,23
287,335	-0,23
287,8	-0,22
288,265	-0,19
288,73	-0,2
289,195	-0,22
289,66	-0,22
290,125	-0,21
290,59	-0,22
291,055	-0,21
291,52	-0,21
291,985	-0,21
292,45	-0,23
292,915	-0,22
293,38	-0,23
293,844	-0,21
294,309	-0,2
294,774	-0,19
295,239	-0,2
295,703	-0,21
296,168	-0,2
296,632	-0,19
297,097	-0,18
297,562	-0,17
298,026	-0,17
298,491	-0,17
298,955	-0,18
299,419	-0,17
299,884	-0,17
300,348	-0,16
300,813	-0,15
301,277	-0,15
301,741	-0,15
302,205	-0,16
302,67	-0,15
303,134	-0,15
303,598	-0,15
304,062	-0,15
304,526	-0,14
304,99	-0,15
305,454	-0,15
305,919	-0,15
306,383	-0,15
306,847	-0,14
307,31	-0,16
307,774	-0,17
308,238	-0,17
308,702	-0,17
309,166	-0,19
309,63	-0,18
310,094	-0,15
310,557	-0,14
311,021	-0,14
311,485	-0,14
311,948	-0,15
312,412	-0,14
312,876	-0,13
313,339	-0,14
313,803	-0,14
314,266	-0,13
314,73	-0,13
315,193	-0,14
315,657	-0,14
316,12	-0,14
316,584	-0,12
317,047	-0,12
317,51	-0,1
317,973	-0,1
318,437	-0,09
318,9	-0,09
319,363	-0,08
319,826	-0,09
320,29	-0,08
320,753	-0,08
321,216	-0,09
321,679	-0,09
322,142	-0,09
322,605	-0,11
323,068	-0,11
323,531	-0,11
323,994	-0,1
324,457	-0,1
324,92	-0,09
325,382	-0,09
325,845	-0,09
326,308	-0,08
326,771	-0,08
327,233	-0,07
327,696	-0,06
328,159	-0,06
328,622	-0,05
329,084	-0,05
329,547	-0,05
330,009	-0,04
330,472	-0,04
330,934	-0,03
331,397	-0,03
331,859	-0,02
332,322	-0,02
332,784	-0,02
333,246	-0,02
333,709	-0,02
334,171	-0,01
334,633	-0,01
335,096	-0,01
335,558	-0,01
336,02	-0,01
336,482	-0,01
336,944	-0
337,406	-0
337,868	0,01
338,331	0,01
338,793	0,02
339,255	0,02
339,717	0,02
340,178	0,03
340,64	0,03
341,102	0,04
341,564	0,04
342,026	0,05
342,488	0,06
342,949	0,07
343,411	0,08
343,873	0,1
344,335	0,12
344,796	0,14
345,258	0,16
345,719	0,18
346,181	0,2
346,643	0,22
347,104	0,23
347,566	0,25
348,027	0,26
348,488	0,27
348,95	0,28
349,411	0,28
349,873	0,29
350,334	0,3
350,795	0,31
351,256	0,31
351,718	0,31
352,179	0,31
352,64	0,32
353,101	0,32
353,562	0,32
354,023	0,32
354,484	0,32
354,945	0,32
355,406	0,32
355,867	0,32
356,328	0,32
356,789	0,32
357,25	0,32
357,711	0,32
358,172	0,33
358,633	0,33
359,093	0,33
359,554	0,33
360,015	0,33
360,476	0,33
360,936	0,33
361,397	0,33
361,858	0,33
362,318	0,33
362,779	0,33
363,239	0,33
363,7	0,33
364,16	0,33
364,621	0,33
365,081	0,33
365,541	0,33
366,002	0,33
366,462	0,33
366,922	0,33
367,383	0,33
367,843	0,33
368,303	0,33
368,763	0,33
369,223	0,33
369,684	0,33
370,144	0,33
370,604	0,33
371,064	0,33
371,524	0,33
371,984	0,33
372,444	0,33
372,904	0,33
373,363	0,33
373,823	0,33
374,283	0,33
374,743	0,33
375,203	0,33
375,663	0,33
376,122	0,33
376,582	0,33
377,042	0,33
377,501	0,33
377,961	0,33
378,42	0,32
378,88	0,32
379,34	0,32
379,799	0,32
380,259	0,32
380,718	0,32
381,177	0,32
381,637	0,32
382,096	0,32
382,555	0,32
383,015	0,32
383,474	0,32
383,933	0,32
384,393	0,32
384,852	0,32
385,311	0,32
385,77	0,32
386,229	0,32
386,688	0,32
387,147	0,32
387,606	0,32
388,065	0,32
388,524	0,32
388,983	0,32
389,442	0,32
389,901	0,32
390,36	0,32
390,819	0,32
391,277	0,32
391,736	0,32
392,195	0,32
392,654	0,32
393,112	0,32
393,571	0,32
394,03	0,32
394,488	0,32
394,947	0,32
395,405	0,32
395,864	0,32
396,322	0,32
396,781	0,32
397,239	0,32
397,698	0,32
398,156	0,32
398,614	0,32
399,073	0,32
399,531	0,32
399,989	0,32
400,447	0,32
400,905	0,32
401,364	0,31
401,822	0,31
402,28	0,31
402,738	0,31
403,196	0,31
403,654	0,31
404,112	0,31
404,57	0,31
405,028	0,31
405,486	0,31
405,944	0,31
406,402	0,31
406,859	0,31
407,317	0,31
407,775	0,31
408,233	0,31
408,691	0,31
409,148	0,31
409,606	0,31
410,064	0,31
410,521	0,31
410,979	0,31
411,436	0,31
411,894	0,31
412,351	0,31
412,809	0,31
413,266	0,31
413,724	0,31
414,181	0,31
414,638	0,31
415,096	0,31
415,553	0,31
416,01	0,31
416,467	0,31
416,925	0,31
417,382	0,31
417,839	0,31
418,296	0,31
418,753	0,31
419,21	0,31
419,667	0,31
420,124	0,31
420,581	0,31
421,038	0,31
421,495	0,31
421,952	0,31
422,409	0,31
422,866	0,31
423,322	0,31
423,779	0,31
424,236	0,31
424,693	0,31
425,149	0,31
425,606	0,31
426,063	0,31
426,519	0,31
426,976	0,31
427,433	0,31
427,889	0,31
428,346	0,31
428,802	0,31
429,258	0,31
429,715	0,31
430,171	0,31
430,628	0,3
431,084	0,3
431,54	0,3
431,997	0,3
432,453	0,3
432,909	0,3
433,365	0,3
433,821	0,3
434,277	0,3
434,734	0,3
435,19	0,3
435,646	0,3
436,102	0,3
436,558	0,3
437,014	0,3
437,47	0,3
437,925	0,3
438,381	0,3
438,837	0,3
439,293	0,3
439,749	0,3
440,205	0,3
440,66	0,3
441,116	0,3
441,572	0,3
442,027	0,3
442,483	0,3
442,939	0,3
443,394	0,3
443,85	0,3
444,305	0,3
444,761	0,3
445,216	0,3
445,672	0,3
446,127	0,3
446,582	0,3
447,038	0,3
447,493	0,3
447,948	0,3
448,403	0,3
448,859	0,3
449,314	0,3
449,769	0,3
450,224	0,3
450,679	0,3
451,134	0,3
451,589	0,3
452,044	0,3
452,499	0,3
452,954	0,3
453,409	0,3
453,864	0,3
454,319	0,3
454,774	0,3
455,229	0,3
455,684	0,3
456,138	0,3
456,593	0,3
457,048	0,3
457,503	0,3
457,957	0,3
458,412	0,3
458,866	0,3
459,321	0,3
459,776	0,3
460,23	0,3
460,685	0,3
461,139	0,3
461,593	0,3
462,048	0,3
462,502	0,3
462,957	0,3
463,411	0,3
463,865	0,3
464,319	0,31
464,774	0,31
465,228	0,31
465,682	0,31
466,136	0,31
466,59	0,31
467,044	0,31
467,499	0,31
467,953	0,31
468,407	0,31
468,861	0,31
469,315	0,31
469,768	0,31
470,222	0,31
470,676	0,31
471,13	0,31
471,584	0,31
472,038	0,31
472,491	0,31
472,945	0,31
473,399	0,31
473,852	0,31
474,306	0,31
474,76	0,31
475,213	0,31
475,667	0,31
476,12	0,31
476,574	0,31
477,027	0,31
477,481	0,31
477,934	0,31
478,388	0,31
478,841	0,32
479,294	0,32
479,748	0,32
480,201	0,32
480,654	0,32
481,107	0,32
481,561	0,32
482,014	0,32
482,467	0,32
482,92	0,32
483,373	0,32
483,826	0,32
484,279	0,32
484,732	0,32
485,185	0,32
485,638	0,32
486,091	0,33
486,544	0,33
486,997	0,33
487,449	0,33
487,902	0,33
488,355	0,33
488,808	0,33
489,26	0,33
489,713	0,33
490,166	0,33
490,618	0,34
491,071	0,34
491,523	0,34
491,976	0,34
492,429	0,34
492,881	0,34
493,333	0,34
493,786	0,35
494,238	0,35
494,691	0,35
495,143	0,35
495,595	0,35
496,048	0,35
496,5	0,35
496,952	0,36
497,404	0,36
497,856	0,36
498,309	0,36
498,761	0,36
499,213	0,36
499,665	0,37
500,117	0,37
500,569	0,37
501,021	0,37
501,473	0,37
501,925	0,37
502,377	0,38
502,828	0,38
503,28	0,38
503,732	0,38
504,184	0,38
504,636	0,39
505,087	0,39
505,539	0,39
505,991	0,39
506,442	0,39
506,894	0,39
507,345	0,4
507,797	0,4
508,249	0,4
508,7	0,4
509,151	0,4
509,603	0,41
510,054	0,41
510,506	0,41
510,957	0,41
511,408	0,41
511,86	0,41
512,311	0,42
512,762	0,42
513,213	0,42
513,665	0,42
514,116	0,42
514,567	0,42
515,018	0,42
515,469	0,43
515,92	0,43
516,371	0,43
516,822	0,43
517,273	0,43
517,724	0,43
518,175	0,44
518,626	0,44
519,076	0,44
519,527	0,44
519,978	0,44
520,429	0,44
520,88	0,44
521,33	0,44
521,781	0,45
522,232	0,45
522,682	0,45
523,133	0,45
523,583	0,45
524,034	0,45
524,484	0,45
524,935	0,45
525,385	0,45
525,836	0,45
526,286	0,45
526,736	0,45
527,187	0,45
527,637	0,45
528,087	0,45
528,538	0,45
528,988	0,45
529,438	0,45
529,888	0,45
530,338	0,45
530,788	0,45
531,238	0,45
531,688	0,45
532,139	0,45
532,589	0,45
533,038	0,45
533,488	0,45
533,938	0,45
534,388	0,45
534,838	0,45
535,288	0,45
535,738	0,45
536,187	0,45
536,637	0,45
537,087	0,45
537,537	0,44
537,986	0,44
538,436	0,44
538,885	0,44
539,335	0,44
539,785	0,44
540,234	0,44
540,684	0,43
541,133	0,43
541,582	0,43
542,032	0,43
542,481	0,43
542,931	0,42
543,38	0,42
543,829	0,42
544,278	0,42
544,728	0,42
545,177	0,42
545,626	0,42
546,075	0,41
546,524	0,41
546,973	0,41
547,422	0,41
547,871	0,41
548,32	0,41
548,769	0,41
549,218	0,41
549,667	0,41
550,116	0,41
550,565	0,41
551,014	0,41
551,463	0,4
551,911	0,4
552,36	0,4
552,809	0,4
553,258	0,4
553,706	0,4
554,155	0,4
554,603	0,4
555,052	0,39
555,501	0,39
555,949	0,39
556,398	0,39
556,846	0,39
557,294	0,39
557,743	0,39
558,191	0,38
558,64	0,38
559,088	0,38
559,536	0,38
559,985	0,38
560,433	0,38
560,881	0,37
561,329	0,37
561,777	0,37
562,225	0,37
562,674	0,37
563,122	0,37
563,57	0,37
564,018	0,37
564,466	0,36
564,914	0,36
565,362	0,36
565,809	0,36
566,257	0,36
566,705	0,36
567,153	0,36
567,601	0,35
568,048	0,35
568,496	0,35
568,944	0,35
569,392	0,35
569,839	0,35
570,287	0,35
570,734	0,35
571,182	0,34
571,63	0,34
572,077	0,34
572,525	0,34
572,972	0,34
573,419	0,34
573,867	0,34
574,314	0,34
574,761	0,33
575,209	0,33
575,656	0,33
576,103	0,33
576,551	0,33
576,998	0,33
577,445	0,33
577,892	0,33
578,339	0,33
578,786	0,33
579,233	0,33
579,68	0,33
580,127	0,33
580,574	0,33
581,021	0,32
581,468	0,32
581,915	0,32
582,362	0,32
582,809	0,32
583,255	0,32
583,702	0,32
584,149	0,32
584,596	0,32
585,042	0,32
585,489	0,31
585,936	0,31
586,382	0,31
586,829	0,31
587,275	0,31
587,722	0,31
588,168	0,31
588,615	0,31
589,061	0,31
589,508	0,31
589,954	0,31
590,4	0,31
590,847	0,31
591,293	0,31
591,739	0,31
592,185	0,31
592,632	0,31
593,078	0,31
593,524	0,3
593,97	0,3
594,416	0,3
594,862	0,3
595,308	0,3
595,754	0,3
596,2	0,3
596,646	0,3
597,092	0,3
597,538	0,3
597,984	0,3
598,43	0,3
598,876	0,3
599,321	0,3
599,767	0,3
600,213	0,3
600,659	0,3
601,104	0,3
601,55	0,3
601,995	0,3
602,441	0,29
602,887	0,29
603,332	0,29
603,778	0,29
604,223	0,29
604,668	0,29
605,114	0,29
605,559	0,29
606,005	0,29
606,45	0,29
606,895	0,29
607,341	0,29
607,786	0,29
608,231	0,29
608,676	0,29
609,121	0,29
609,566	0,28
610,012	0,28
610,457	0,28
610,902	0,28
611,347	0,28
611,792	0,27
612,237	0,27
612,682	0,27
613,127	0,27
613,571	0,27
614,016	0,28
614,461	0,28
614,906	0,28
615,351	0,28
615,795	0,28
616,24	0,28
616,685	0,28
617,129	0,28
617,574	0,28
618,019	0,28
618,463	0,28
618,908	0,28
619,352	0,28
619,797	0,28
620,241	0,28
620,686	0,28
621,13	0,28
621,574	0,28
622,019	0,28
622,463	0,28
622,907	0,28
623,352	0,28
623,796	0,28
624,24	0,28
624,684	0,28
625,128	0,28
625,572	0,28
626,016	0,28
626,461	0,28
626,905	0,28
627,349	0,28
627,793	0,28
628,236	0,28
628,68	0,28
629,124	0,28
629,568	0,28
630,012	0,28
630,456	0,27
630,9	0,27
631,343	0,27
631,787	0,27
632,231	0,27
632,674	0,27
633,118	0,27
633,562	0,27
634,005	0,27
634,449	0,27
634,892	0,27
635,336	0,28
635,779	0,28
636,223	0,27
636,666	0,27
637,109	0,27
637,553	0,27
637,996	0,27
638,439	0,27
638,883	0,27
639,326	0,27
639,769	0,27
640,212	0,27
640,655	0,27
641,099	0,27
641,542	0,27
641,985	0,27
642,428	0,27
642,871	0,27
643,314	0,27
643,757	0,27
644,2	0,27
644,643	0,27
645,085	0,27
645,528	0,27
645,971	0,27
646,414	0,27
646,857	0,27
647,299	0,27
647,742	0,27
648,185	0,27
648,627	0,27
649,07	0,27
649,513	0,27
649,955	0,27
650,398	0,27
650,84	0,27
651,283	0,27
651,725	0,27
652,168	0,27
652,61	0,27
653,052	0,27
653,495	0,26
653,937	0,21
654,379	0,17
654,821	0,17
655,264	0,17
655,706	0,17
656,148	0,17
656,59	0,17
657,032	0,17
657,474	0,17
657,916	0,17
658,358	0,17
658,8	0,21
659,242	0,26
659,684	0,27
660,126	0,27
660,568	0,27
661,01	0,26
661,452	0,26
661,894	0,26
662,335	0,26
662,777	0,26
663,219	0,26
663,661	0,26
664,102	0,26
664,544	0,26
664,985	0,26
665,427	0,26
665,869	0,26
666,31	0,26
666,752	0,26
667,193	0,26
667,634	0,26
668,076	0,26
668,517	0,26
668,959	0,26
669,4	0,26
669,841	0,26
670,282	0,26
670,724	0,26
671,165	0,26
671,606	0,26
672,047	0,26
672,488	0,26
672,929	0,26
673,37	0,26
673,811	0,26
674,252	0,26
674,693	0,26
675,134	0,26
675,575	0,26
676,016	0,26
676,457	0,26
676,898	0,26
677,339	0,26
677,78	0,26
678,22	0,26
678,661	0,26
679,102	0,26
679,542	0,26
679,983	0,26
680,424	0,26
680,864	0,26
681,305	0,26
681,745	0,26
682,186	0,26
682,626	0,26
683,067	0,26
683,507	0,26
683,948	0,26
684,388	0,26
684,828	0,26
685,269	0,26
685,709	0,26
686,149	0,26
686,589	0,26
687,029	0,25
687,47	0,25
687,91	0,25
688,35	0,25
688,79	0,25
689,23	0,25
689,67	0,25
690,11	0,25
690,55	0,25
690,99	0,25
691,43	0,25
691,87	0,25
692,31	0,25
692,749	0,25
693,189	0,25
693,629	0,25
694,069	0,25
694,508	0,25
694,948	0,25
695,388	0,25
695,827	0,25
696,267	0,25
696,706	0,25
697,146	0,25
697,586	0,25
698,025	0,25
698,464	0,25
698,904	0,25
699,343	0,25
699,783	0,25
700,222	0,25
700,661	0,25
701,101	0,25
701,54	0,25
701,979	0,25
702,418	0,25
702,857	0,25
703,297	0,25
703,736	0,25
704,175	0,25
704,614	0,25
705,053	0,25
705,492	0,25
705,931	0,25
706,37	0,25
706,809	0,24
707,248	0,24
707,687	0,24
708,125	0,24
708,564	0,24
709,003	0,24
709,442	0,24
709,88	0,24
710,319	0,24
710,758	0,24
711,196	0,24
711,635	0,24
712,074	0,24
712,512	0,24
712,951	0,24
713,389	0,24
713,828	0,24
714,266	0,24
714,705	0,24
715,143	0,24
715,581	0,24
716,02	0,24
716,458	0,24
716,896	0,24
717,334	0,23
717,773	0,23
718,211	0,23
718,649	0,23
719,087	0,23
719,525	0,23
719,963	0,23
720,401	0,23
720,839	0,23
721,277	0,24
721,715	0,24
722,153	0,24
722,591	0,24
723,029	0,24
723,467	0,24
723,905	0,23
724,342	0,23
724,78	0,23
725,218	0,23
725,656	0,23
726,093	0,23
726,531	0,23
726,969	0,23
727,406	0,23
727,844	0,23
728,281	0,23
728,719	0,23
729,156	0,23
729,594	0,23
730,031	0,23
730,469	0,23
730,906	0,23
731,343	0,23
731,781	0,23
732,218	0,23
732,655	0,23
733,092	0,23
733,53	0,23
733,967	0,23
734,404	0,23
734,841	0,23
735,278	0,23
735,715	0,23
736,152	0,23
736,589	0,23
737,026	0,23
737,463	0,23
737,9	0,22
738,337	0,22
738,774	0,22
739,211	0,22
739,647	0,22
740,084	0,22
740,521	0,22
740,958	0,22
741,394	0,22
741,831	0,22
742,268	0,22
742,704	0,22
743,141	0,22
743,577	0,22
744,014	0,22
744,45	0,22
744,887	0,22
745,323	0,21
745,76	0,21
746,196	0,21
746,632	0,21
747,069	0,21
747,505	0,21
747,941	0,21
748,378	0,21
748,814	0,21
749,25	0,21
749,686	0,21
750,122	0,22
750,558	0,22
750,994	0,22
751,43	0,22
751,866	0,22
752,302	0,22
752,738	0,22
753,174	0,22
753,61	0,22
754,046	0,22
754,482	0,22
754,918	0,22
755,354	0,23
755,789	0,23
756,225	0,23
756,661	0,22
757,096	0,22
757,532	0,22
757,968	0,22
758,403	0,22
758,839	0,22
759,274	0,22
759,71	0,22
760,145	0,21
760,581	0,21
761,016	0,2
761,452	0,2
761,887	0,2
762,322	0,2
762,758	0,19
763,193	0,19
763,628	0,19
764,063	0,18
764,499	0,18
764,934	0,18
765,369	0,17
765,804	0,17
766,239	0,16
766,674	0,16
767,109	0,15
767,544	0,15
767,979	0,14
768,414	0,14
768,849	0,13
769,284	0,12
769,719	0,12
770,154	0,12
770,588	0,11
771,023	0,1
771,458	0,09
771,893	0,09
772,327	0,08
772,762	0,07
773,197	0,06
773,631	0,06
774,066	0,05
774,5	0,04
774,935	0,03
775,369	0,02
775,804	0,01
776,238	0,01
776,673	-0
777,107	-0,01
777,541	-0,01
777,976	-0,02
778,41	-0,02
778,844	-0,03
779,279	-0,03
779,713	-0,04
780,147	-0,04
780,581	-0,04
781,015	-0,05
781,449	-0,06
781,883	-0,06
782,317	-0,07
782,751	-0,08
783,185	-0,08
783,619	-0,09
784,053	-0,1
784,487	-0,11
784,921	-0,12
785,355	-0,12
785,789	-0,13
786,223	-0,14
786,656	-0,16
787,09	-0,16
787,524	-0,16
787,957	-0,18
788,391	-0,2
788,825	-0,21
789,258	-0,23
789,692	-0,24
790,125	-0,26
790,559	-0,27
790,992	-0,29
791,426	-0,32
791,859	-0,33
792,293	-0,37
792,726	-0,39
793,159	-0,4
793,593	-0,43
794,026	-0,45
794,459	-0,48
794,892	-0,51
795,326	-0,54
795,759	-0,58
796,192	-0,63
796,625	-0,67
797,058	-0,7
797,491	-0,74
797,924	-0,78
798,357	-0,83
798,79	-0,88
799,223	-0,92
799,656	-0,98
800,089	-1,03
800,522	-1,07
800,955	-1,12
801,387	-1,18
801,82	-1,23
802,253	-1,29
802,686	-1,37
803,118	-1,43
803,551	-1,49
803,984	-1,53
804,416	-1,58
804,849	-1,64
805,281	-1,84
805,714	-2,23
806,146	-2,57
806,579	-2,79
807,011	-2,93
807,444	-3,01
807,876	-3,07
808,308	-3,1
808,741	-3,13
809,173	-3,18
809,605	-3,2
810,037	-3,27
810,47	-3,16
810,902	-2,95
811,334	-2,79
811,766	-2,62
812,198	-2,33
812,63	-1,96
813,062	-1,81
813,494	-1,72
813,926	-1,64
814,358	-1,59
814,79	-1,51
815,222	-1,45
815,654	-1,4
816,086	-1,33
816,518	-1,28
816,949	-1,22
817,381	-1,18
817,813	-1,16
818,245	-1,12
818,676	-1,08
819,108	-1,04
819,54	-1,03
819,971	-1
820,403	-0,95
820,834	-0,94
821,266	-0,89
821,697	-0,86
822,129	-0,85
822,56	-0,82
822,991	-0,8
823,423	-0,77
823,854	-0,76
824,286	-0,73
824,717	-0,72
825,148	-0,7
825,579	-0,69
826,01	-0,68
826,442	-0,67
826,873	-0,65
827,304	-0,62
827,735	-0,61
828,166	-0,61
828,597	-0,61
829,028	-0,6
829,459	-0,6
829,89	-0,59
830,321	-0,55
830,752	-0,56
831,183	-0,54
831,613	-0,53
832,044	-0,53
832,475	-0,52
832,906	-0,53
833,336	-0,53
833,767	-0,54
834,198	-0,52
834,628	-0,51
835,059	-0,54
835,49	-0,55
835,92	-0,52
836,351	-0,52
836,781	-0,52
837,212	-0,53
837,642	-0,53
838,072	-0,51
838,503	-0,52
838,933	-0,5
839,364	-0,51
839,794	-0,49
840,224	-0,47
840,654	-0,51
841,085	-0,51
841,515	-0,48
841,945	-0,48
842,375	-0,44
842,805	-0,43
843,235	-0,41
843,665	-0,43
844,095	-0,41
844,525	-0,43
844,955	-0,45
845,385	-0,42
845,815	-0,4
846,245	-0,42
846,675	-0,43
847,105	-0,44
847,534	-0,45
847,964	-0,43
848,394	-0,41
848,824	-0,45
849,253	-0,44
849,683	-0,44
850,112	-0,46
850,542	-0,5
850,972	-0,5
851,401	-0,48
851,831	-0,47
852,26	-0,48
852,69	-0,52
853,119	-0,51
853,548	-0,51
853,978	-0,51
854,407	-0,5
854,836	-0,5
855,266	-0,49
855,695	-0,5
856,124	-0,52
856,553	-0,52
856,983	-0,54
857,412	-0,53
857,841	-0,53
858,27	-0,53
858,699	-0,54
859,128	-0,56
859,557	-0,56
859,986	-0,57
860,415	-0,55
860,844	-0,52
861,273	-0,51
861,702	-0,53
862,13	-0,51
862,559	-0,54
862,988	-0,52
863,417	-0,51
863,845	-0,51
864,274	-0,52
864,703	-0,52
865,131	-0,52
865,56	-0,53
865,989	-0,55
866,417	-0,51
866,846	-0,51
867,274	-0,5
867,703	-0,52
868,131	-0,53
868,559	-0,53
868,988	-0,54
869,416	-0,54
869,844	-0,55
870,273	-0,58
870,701	-0,56
871,129	-0,59
871,557	-0,62
871,986	-0,62
872,414	-0,65
872,842	-0,62
873,27	-0,6
873,698	-0,57
874,126	-0,61
874,554	-0,58
874,982	-0,58
875,41	-0,61
875,838	-0,57
876,266	-0,53
876,694	-0,54
877,122	-0,52
877,549	-0,58
877,977	-0,56
878,405	-0,58
878,833	-0,56
879,26	-0,55
879,688	-0,55
880,116	-0,53
880,543	-0,51
880,971	-0,5
881,399	-0,53
881,826	-0,54
882,254	-0,53
882,681	-0,56
883,109	-0,52
883,536	-0,52
883,963	-0,54
884,391	-0,52
884,818	-0,51
885,245	-0,55
885,673	-0,57
886,1	-0,54
886,527	-0,53
886,954	-0,5
887,381	-0,51
887,809	-0,53
888,236	-0,54
888,663	-0,54
889,09	-0,59
889,517	-0,61
889,944	-0,61
890,371	-0,6
890,798	-0,61
891,225	-0,61
891,652	-0,64
892,078	-0,62
892,505	-0,65
892,932	-0,61
893,359	-0,62
893,786	-0,62
894,212	-0,57
894,639	-0,59
895,066	-0,61
895,492	-0,56
895,919	-0,56
896,346	-0,54
896,772	-0,54
897,199	-0,49
897,625	-0,52
898,052	-0,49
898,478	-0,45
898,904	-0,48
899,331	-0,48
899,757	-0,48
900,183	-0,5
900,61	-0,48
901,036	-0,5
901,462	-0,49
901,888	-0,49
902,315	-0,48
902,741	-0,53
903,167	-0,52
903,593	-0,56
904,019	-0,53
904,445	-0,51
904,871	-0,53
905,297	-0,55
905,723	-0,54
906,149	-0,53
906,575	-0,54
907,001	-0,54
907,427	-0,5
907,852	-0,5
908,278	-0,5
908,704	-0,48
909,13	-0,47
909,555	-0,47
909,981	-0,46
910,407	-0,47
910,832	-0,46
911,258	-0,46
911,684	-0,46
912,109	-0,46
912,535	-0,48
912,96	-0,43
913,386	-0,47
913,811	-0,47
914,236	-0,48
914,662	-0,46
915,087	-0,5
915,512	-0,5
915,938	-0,52
916,363	-0,51
916,788	-0,52
917,213	-0,5
917,639	-0,55
918,064	-0,53
918,489	-0,54
918,914	-0,54
919,339	-0,56
919,764	-0,53
920,189	-0,54
920,614	-0,56
921,039	-0,58
921,464	-0,54
921,889	-0,57
922,314	-0,58
922,738	-0,61
923,163	-0,62
923,588	-0,63
924,013	-0,62
924,437	-0,61
924,862	-0,62
925,287	-0,58
925,711	-0,59
926,136	-0,61
926,561	-0,6
926,985	-0,59
927,41	-0,56
927,834	-0,54
928,259	-0,51
928,683	-0,49
929,108	-0,47
929,532	-0,49
929,956	-0,47
930,381	-0,46
930,805	-0,46
931,229	-0,45
931,653	-0,43
932,078	-0,42
932,502	-0,43
932,926	-0,44
933,35	-0,43
933,774	-0,43
934,198	-0,4
934,622	-0,41
935,046	-0,41
935,47	-0,42
935,894	-0,41
936,318	-0,41
936,742	-0,41
937,166	-0,42
937,59	-0,41
938,014	-0,44
938,437	-0,44
938,861	-0,47
939,285	-0,47
939,709	-0,46
940,132	-0,46
940,556	-0,46
940,98	-0,46
941,403	-0,44
941,827	-0,45
942,25	-0,46
942,674	-0,44
943,097	-0,43
943,521	-0,42
943,944	-0,44
944,368	-0,44
944,791	-0,42
945,214	-0,44
945,638	-0,45
946,061	-0,49
946,484	-0,49
946,907	-0,48
947,331	-0,48
947,754	-0,53
948,177	-0,5
948,6	-0,5
949,023	-0,5
949,446	-0,51
949,869	-0,48
950,292	-0,48
950,715	-0,44
951,138	-0,43
951,561	-0,4
951,984	-0,41
952,407	-0,39
952,83	-0,37
953,252	-0,33
953,675	-0,33
954,098	-0,34
954,521	-0,33
954,943	-0,33
955,366	-0,34
955,789	-0,32
956,211	-0,34
956,634	-0,34
957,056	-0,32
957,479	-0,33
957,902	-0,35
958,324	-0,36
958,746	-0,33
959,169	-0,35
959,591	-0,35
960,014	-0,36
960,436	-0,36
960,858	-0,36
961,281	-0,37
961,703	-0,38
962,125	-0,37
962,547	-0,35
962,969	-0,36
963,391	-0,38
963,814	-0,38
964,236	-0,38
964,658	-0,34
965,08	-0,35
965,502	-0,35
965,924	-0,32
966,346	-0,32
966,768	-0,32
967,189	-0,35
967,611	-0,34
968,033	-0,32
968,455	-0,31
968,877	-0,32
969,298	-0,34
969,72	-0,34
970,142	-0,33
970,563	-0,34
970,985	-0,33
971,407	-0,32
971,828	-0,3
972,25	-0,3
972,671	-0,28
973,093	-0,28
973,514	-0,27
973,936	-0,25
974,357	-0,23
974,778	-0,24
975,2	-0,23
975,621	-0,24
976,042	-0,22
976,464	-0,21
976,885	-0,19
977,306	-0,19
977,727	-0,18
978,148	-0,17
978,57	-0,16
978,991	-0,16
979,412	-0,14
979,833	-0,13
980,254	-0,12
980,675	-0,13
981,096	-0,12
981,517	-0,11
981,937	-0,1
982,358	-0,09
982,779	-0,08
983,2	-0,08
983,621	-0,08
984,042	-0,07
984,462	-0,07
984,883	-0,05
985,304	-0,04
985,724	-0,03
986,145	-0,03
986,565	-0,02
986,986	-0,02
987,407	-0,01
987,827	0
988,248	0,01
988,668	0,02
989,088	0,03
989,509	0,03
989,929	0,04
990,35	0,04
990,77	0,05
991,19	0,06
991,61	0,07
992,031	0,07
992,451	0,08
992,871	0,09
993,291	0,09
993,711	0,09
994,131	0,1
994,551	0,1
994,971	0,1
995,391	0,11
995,811	0,11
996,231	0,11
996,651	0,11
997,071	0,12
997,491	0,12
997,911	0,12
998,331	0,13
998,75	0,13
999,17	0,13
999,59	0,14
1000,009	0,14
1000,429	0,14
1000,849	0,15
1001,268	0,15
1001,688	0,15
1002,107	0,15
1002,527	0,15
1002,946	0,16
1003,366	0,16
1003,785	0,16
1004,205	0,16
1004,624	0,16
1005,044	0,16
1005,463	0,16
1005,882	0,16
1006,301	0,16
1006,721	0,16
1007,14	0,16
1007,559	0,16
1007,978	0,16
1008,397	0,16
1008,816	0,16
1009,235	0,16
1009,655	0,16
1010,074	0,16
1010,492	0,16
1010,911	0,16
1011,33	0,16
1011,749	0,16
1012,168	0,16
1012,587	0,16
1013,006	0,16
1013,425	0,15
1013,843	0,15
1014,262	0,15
1014,681	0,15
1015,099	0,15
1015,518	0,15
1015,937	0,15
1016,355	0,15
1016,774	0,15
1017,192	0,15
1017,611	0,15
1018,029	0,15
1018,448	0,15
1018,866	0,16
1019,285	0,16
1019,703	0,16
1020,121	0,16
1020,54	0,16
1020,958	0,16
1021,376	0,16
1021,794	0,16
1022,213	0,16
1022,631	0,16
1023,049	0,16
1023,467	0,16
1023,885	0,16
1024,303	0,16
1024,721	0,15
1025,139	0,15
1025,557	0,15
1025,975	0,15
1026,393	0,15
1026,811	0,15
1027,229	0,15
1027,647	0,15
1028,065	0,15
1028,482	0,15
1028,9	0,15
1029,318	0,15
1029,735	0,15
1030,153	0,15
1030,571	0,15
1030,988	0,15
1031,406	0,15
1031,823	0,15
1032,241	0,15
1032,659	0,15
1033,076	0,15
1033,493	0,15
1033,911	0,15
1034,328	0,15
1034,746	0,15
1035,163	0,15
1035,58	0,15
1035,997	0,15
1036,415	0,15
1036,832	0,15
1037,249	0,15
1037,666	0,15
1038,083	0,15
1038,501	0,15
1038,918	0,15
1039,335	0,15
1039,752	0,15
1040,169	0,15
1040,586	0,15
1041,003	0,15
1041,419	0,15
1041,836	0,14
1042,253	0,14
1042,67	0,14
1043,087	0,14
1043,504	0,14
1043,92	0,14
1044,337	0,14
1044,754	0,14
1045,17	0,14
1045,587	0,14
1046,004	0,14
1046,42	0,14
1046,837	0,14
1047,253	0,14
1047,67	0,14
1048,086	0,14
1048,503	0,14
1048,919	0,14
1049,335	0,14
1049,752	0,14
1050,168	0,14
1050,584	0,14
1051,001	0,14
1051,417	0,14
1051,833	0,14
1052,249	0,14
1052,665	0,14
1053,081	0,14
1053,497	0,14
1053,914	0,14
1054,33	0,14
1054,746	0,14
1055,162	0,14
1055,578	0,14
1055,993	0,14
1056,409	0,14
1056,825	0,14
1057,241	0,14
1057,657	0,14
1058,073	0,14
1058,488	0,14
1058,904	0,14
1059,32	0,14
1059,736	0,14
1060,151	0,14
1060,567	0,14
1060,982	0,14
1061,398	0,14
1061,813	0,14
1062,229	0,14
1062,644	0,14
1063,06	0,14
1063,475	0,14
1063,891	0,14
1064,306	0,14
1064,721	0,14
1065,137	0,14
1065,552	0,14
1065,967	0,14
1066,382	0,14
1066,798	0,14
1067,213	0,14
1067,628	0,14
1068,043	0,14
1068,458	0,14
1068,873	0,14
1069,288	0,14
1069,703	0,14
1070,118	0,14
1070,533	0,14
1070,948	0,14
1071,363	0,14
1071,778	0,14
1072,193	0,14
1072,607	0,14
1073,022	0,15
1073,437	0,15
1073,852	0,15
1074,266	0,15
1074,681	0,15
1075,096	0,15
1075,51	0,15
1075,925	0,15
1076,339	0,15
1076,754	0,15
1077,168	0,14
1077,583	0,14
1077,997	0,14
1078,412	0,14
1078,826	0,14
1079,24	0,14
1079,655	0,14
1080,069	0,14
1080,483	0,14
1080,897	0,14
1081,312	0,14
1081,726	0,14
1082,14	0,14
1082,554	0,14
1082,968	0,14
1083,382	0,14
1083,796	0,14
1084,21	0,14
1084,624	0,14
1085,038	0,13
1085,452	0,13
1085,866	0,13
1086,28	0,13
1086,694	0,13
1087,108	0,13
1087,521	0,13
1087,935	0,13
1088,349	0,13
1088,763	0,13
1089,176	0,13
1089,59	0,13
1090,004	0,12
1090,417	0,12
1090,831	0,12
1091,244	0,12
1091,658	0,12
1092,071	0,12
1092,485	0,11
1092,898	0,11
1093,312	0,11
1093,725	0,11
1094,138	0,11
1094,552	0,11
1094,965	0,11
1095,378	0,11
1095,791	0,11
1096,205	0,11
1096,618	0,1
1097,031	0,1
1097,444	0,1
1097,857	0,1
1098,27	0,1
1098,683	0,1
1099,096	0,1
1099,509	0,1
1099,922	0,09
1100,335	0,09
1100,748	0,09
1101,161	0,09
1101,574	0,08
1101,986	0,08
1102,399	0,08
1102,812	0,08
1103,225	0,07
1103,637	0,07
1104,05	0,07
1104,463	0,07
1104,875	0,07
1105,288	0,07
1105,7	0,07
1106,113	0,07
1106,525	0,06
1106,938	0,06
1107,35	0,06
1107,763	0,06
1108,175	0,06
1108,588	0,05
1109	0,05
1109,412	0,04
1109,824	0,04
1110,237	0,04
1110,649	0,03
1111,061	0,02
