Data from 18C-808nm-8A_Absorbance__887__00887.txt Node

Date: Mon Jul 17 16:53:21 CEST 2023
User: Laser008
Spectrometer: MAYP115816
Trigger mode: 0
Integration Time (sec): 2,500000E-1
Scans to average: 10
Electric dark correction enabled: true
Nonlinearity correction enabled: true
Boxcar width: 5
XAxis mode: Wavelengths
Number of Pixels in Spectrum: 2068
>>>>>Begin Spectral Data<<<<<
198,914	-0,62
199,384	-0,43
199,855	-0,33
200,325	-0,25
200,796	-0,24
201,266	-0,2
201,737	-0,19
202,207	-0,18
202,677	-0,18
203,147	-0,16
203,618	-0,14
204,088	-0,13
204,558	-0,12
205,028	-0,12
205,498	-0,13
205,968	-0,12
206,439	-0,13
206,909	-0,13
207,379	-0,13
207,849	-0,14
208,319	-0,15
208,789	-0,16
209,258	-0,15
209,728	-0,16
210,198	-0,16
210,668	-0,15
211,138	-0,15
211,608	-0,15
212,077	-0,15
212,547	-0,15
213,017	-0,15
213,486	-0,15
213,956	-0,15
214,426	-0,16
214,895	-0,15
215,365	-0,16
215,834	-0,16
216,304	-0,17
216,773	-0,16
217,243	-0,17
217,712	-0,18
218,181	-0,19
218,651	-0,19
219,12	-0,19
219,589	-0,2
220,058	-0,19
220,528	-0,2
220,997	-0,21
221,466	-0,22
221,935	-0,23
222,404	-0,23
222,873	-0,22
223,342	-0,21
223,812	-0,22
224,281	-0,21
224,749	-0,22
225,218	-0,23
225,687	-0,23
226,156	-0,21
226,625	-0,19
227,094	-0,19
227,563	-0,19
228,031	-0,2
228,5	-0,21
228,969	-0,2
229,438	-0,2
229,906	-0,18
230,375	-0,18
230,844	-0,18
231,312	-0,18
231,781	-0,19
232,249	-0,19
232,718	-0,19
233,186	-0,17
233,655	-0,18
234,123	-0,18
234,591	-0,18
235,06	-0,19
235,528	-0,19
235,996	-0,19
236,465	-0,18
236,933	-0,18
237,401	-0,18
237,869	-0,17
238,337	-0,17
238,805	-0,16
239,274	-0,16
239,742	-0,15
240,21	-0,14
240,678	-0,14
241,146	-0,12
241,614	-0,13
242,081	-0,13
242,549	-0,13
243,017	-0,13
243,485	-0,14
243,953	-0,14
244,421	-0,14
244,888	-0,14
245,356	-0,14
245,824	-0,15
246,291	-0,15
246,759	-0,15
247,227	-0,16
247,694	-0,15
248,162	-0,14
248,629	-0,13
249,097	-0,13
249,564	-0,14
250,032	-0,14
250,499	-0,15
250,967	-0,16
251,434	-0,16
251,901	-0,16
252,369	-0,16
252,836	-0,18
253,303	-0,19
253,77	-0,2
254,237	-0,19
254,705	-0,2
255,172	-0,19
255,639	-0,2
256,106	-0,2
256,573	-0,2
257,04	-0,2
257,507	-0,2
257,974	-0,2
258,441	-0,18
258,908	-0,19
259,375	-0,2
259,841	-0,2
260,308	-0,21
260,775	-0,2
261,242	-0,2
261,709	-0,2
262,175	-0,21
262,642	-0,21
263,109	-0,2
263,575	-0,22
264,042	-0,2
264,508	-0,2
264,975	-0,22
265,441	-0,23
265,908	-0,23
266,374	-0,22
266,841	-0,23
267,307	-0,23
267,773	-0,22
268,24	-0,23
268,706	-0,24
269,172	-0,25
269,639	-0,26
270,105	-0,23
270,571	-0,23
271,037	-0,22
271,503	-0,24
271,969	-0,23
272,435	-0,23
272,902	-0,24
273,368	-0,25
273,834	-0,24
274,3	-0,24
274,765	-0,24
275,231	-0,25
275,697	-0,24
276,163	-0,24
276,629	-0,24
277,095	-0,25
277,56	-0,24
278,026	-0,25
278,492	-0,22
278,958	-0,23
279,423	-0,22
279,889	-0,22
280,354	-0,22
280,82	-0,22
281,286	-0,23
281,751	-0,23
282,217	-0,22
282,682	-0,22
283,147	-0,22
283,613	-0,23
284,078	-0,23
284,544	-0,25
285,009	-0,25
285,474	-0,24
285,939	-0,26
286,405	-0,25
286,87	-0,25
287,335	-0,25
287,8	-0,24
288,265	-0,22
288,73	-0,24
289,195	-0,26
289,66	-0,25
290,125	-0,24
290,59	-0,25
291,055	-0,24
291,52	-0,24
291,985	-0,25
292,45	-0,26
292,915	-0,26
293,38	-0,27
293,844	-0,25
294,309	-0,24
294,774	-0,23
295,239	-0,24
295,703	-0,24
296,168	-0,23
296,632	-0,22
297,097	-0,19
297,562	-0,17
298,026	-0,18
298,491	-0,18
298,955	-0,18
299,419	-0,18
299,884	-0,18
300,348	-0,16
300,813	-0,15
301,277	-0,16
301,741	-0,17
302,205	-0,18
302,67	-0,17
303,134	-0,17
303,598	-0,17
304,062	-0,17
304,526	-0,17
304,99	-0,18
305,454	-0,18
305,919	-0,18
306,383	-0,18
306,847	-0,17
307,31	-0,19
307,774	-0,2
308,238	-0,2
308,702	-0,18
309,166	-0,2
309,63	-0,19
310,094	-0,16
310,557	-0,16
311,021	-0,16
311,485	-0,15
311,948	-0,15
312,412	-0,14
312,876	-0,13
313,339	-0,14
313,803	-0,15
314,266	-0,15
314,73	-0,15
315,193	-0,16
315,657	-0,15
316,12	-0,15
316,584	-0,15
317,047	-0,15
317,51	-0,14
317,973	-0,14
318,437	-0,13
318,9	-0,11
319,363	-0,1
319,826	-0,1
320,29	-0,1
320,753	-0,1
321,216	-0,1
321,679	-0,1
322,142	-0,09
322,605	-0,1
323,068	-0,1
323,531	-0,11
323,994	-0,11
324,457	-0,11
324,92	-0,1
325,382	-0,1
325,845	-0,1
326,308	-0,1
326,771	-0,1
327,233	-0,1
327,696	-0,09
328,159	-0,08
328,622	-0,08
329,084	-0,08
329,547	-0,07
330,009	-0,07
330,472	-0,05
330,934	-0,05
331,397	-0,04
331,859	-0,03
332,322	-0,03
332,784	-0,03
333,246	-0,02
333,709	-0,02
334,171	-0,02
334,633	-0,02
335,096	-0,03
335,558	-0,03
336,02	-0,02
336,482	-0,02
336,944	-0,01
337,406	-0,01
337,868	-0
338,331	-0
338,793	0,01
339,255	0,01
339,717	0,01
340,178	0,02
340,64	0,02
341,102	0,03
341,564	0,04
342,026	0,05
342,488	0,05
342,949	0,06
343,411	0,08
343,873	0,1
344,335	0,12
344,796	0,14
345,258	0,17
345,719	0,19
346,181	0,22
346,643	0,23
347,104	0,25
347,566	0,26
348,027	0,27
348,488	0,28
348,95	0,29
349,411	0,3
349,873	0,31
350,334	0,31
350,795	0,32
351,256	0,33
351,718	0,33
352,179	0,33
352,64	0,33
353,101	0,33
353,562	0,34
354,023	0,34
354,484	0,34
354,945	0,34
355,406	0,34
355,867	0,34
356,328	0,34
356,789	0,34
357,25	0,34
357,711	0,34
358,172	0,34
358,633	0,35
359,093	0,35
359,554	0,35
360,015	0,35
360,476	0,35
360,936	0,35
361,397	0,35
361,858	0,35
362,318	0,35
362,779	0,35
363,239	0,35
363,7	0,35
364,16	0,35
364,621	0,35
365,081	0,35
365,541	0,35
366,002	0,35
366,462	0,35
366,922	0,35
367,383	0,35
367,843	0,35
368,303	0,35
368,763	0,35
369,223	0,35
369,684	0,35
370,144	0,35
370,604	0,35
371,064	0,35
371,524	0,35
371,984	0,35
372,444	0,35
372,904	0,35
373,363	0,35
373,823	0,35
374,283	0,34
374,743	0,34
375,203	0,34
375,663	0,34
376,122	0,34
376,582	0,34
377,042	0,34
377,501	0,34
377,961	0,34
378,42	0,34
378,88	0,34
379,34	0,34
379,799	0,34
380,259	0,34
380,718	0,34
381,177	0,34
381,637	0,34
382,096	0,34
382,555	0,34
383,015	0,34
383,474	0,34
383,933	0,34
384,393	0,34
384,852	0,34
385,311	0,34
385,77	0,34
386,229	0,34
386,688	0,34
387,147	0,34
387,606	0,34
388,065	0,34
388,524	0,34
388,983	0,34
389,442	0,34
389,901	0,34
390,36	0,34
390,819	0,34
391,277	0,34
391,736	0,34
392,195	0,34
392,654	0,34
393,112	0,34
393,571	0,34
394,03	0,34
394,488	0,34
394,947	0,34
395,405	0,33
395,864	0,34
396,322	0,34
396,781	0,34
397,239	0,33
397,698	0,33
398,156	0,33
398,614	0,33
399,073	0,33
399,531	0,33
399,989	0,33
400,447	0,33
400,905	0,33
401,364	0,33
401,822	0,33
402,28	0,33
402,738	0,33
403,196	0,33
403,654	0,33
404,112	0,33
404,57	0,33
405,028	0,33
405,486	0,33
405,944	0,33
406,402	0,33
406,859	0,33
407,317	0,33
407,775	0,33
408,233	0,33
408,691	0,33
409,148	0,33
409,606	0,33
410,064	0,33
410,521	0,33
410,979	0,33
411,436	0,33
411,894	0,33
412,351	0,33
412,809	0,33
413,266	0,33
413,724	0,33
414,181	0,33
414,638	0,33
415,096	0,33
415,553	0,33
416,01	0,33
416,467	0,33
416,925	0,33
417,382	0,33
417,839	0,33
418,296	0,32
418,753	0,32
419,21	0,32
419,667	0,32
420,124	0,32
420,581	0,32
421,038	0,32
421,495	0,32
421,952	0,32
422,409	0,32
422,866	0,32
423,322	0,32
423,779	0,32
424,236	0,32
424,693	0,32
425,149	0,32
425,606	0,32
426,063	0,32
426,519	0,32
426,976	0,32
427,433	0,32
427,889	0,32
428,346	0,32
428,802	0,32
429,258	0,32
429,715	0,32
430,171	0,32
430,628	0,32
431,084	0,32
431,54	0,32
431,997	0,32
432,453	0,32
432,909	0,32
433,365	0,32
433,821	0,32
434,277	0,32
434,734	0,32
435,19	0,32
435,646	0,32
436,102	0,32
436,558	0,32
437,014	0,32
437,47	0,32
437,925	0,32
438,381	0,32
438,837	0,32
439,293	0,32
439,749	0,32
440,205	0,32
440,66	0,32
441,116	0,32
441,572	0,32
442,027	0,32
442,483	0,32
442,939	0,32
443,394	0,32
443,85	0,32
444,305	0,32
444,761	0,32
445,216	0,32
445,672	0,32
446,127	0,32
446,582	0,32
447,038	0,32
447,493	0,32
447,948	0,32
448,403	0,32
448,859	0,32
449,314	0,32
449,769	0,32
450,224	0,32
450,679	0,32
451,134	0,32
451,589	0,32
452,044	0,32
452,499	0,32
452,954	0,32
453,409	0,32
453,864	0,32
454,319	0,32
454,774	0,32
455,229	0,32
455,684	0,32
456,138	0,32
456,593	0,32
457,048	0,32
457,503	0,32
457,957	0,32
458,412	0,32
458,866	0,32
459,321	0,32
459,776	0,32
460,23	0,32
460,685	0,32
461,139	0,32
461,593	0,32
462,048	0,32
462,502	0,32
462,957	0,32
463,411	0,32
463,865	0,32
464,319	0,32
464,774	0,32
465,228	0,32
465,682	0,32
466,136	0,32
466,59	0,33
467,044	0,33
467,499	0,33
467,953	0,33
468,407	0,33
468,861	0,33
469,315	0,33
469,768	0,33
470,222	0,33
470,676	0,33
471,13	0,33
471,584	0,33
472,038	0,33
472,491	0,33
472,945	0,33
473,399	0,33
473,852	0,33
474,306	0,33
474,76	0,33
475,213	0,33
475,667	0,33
476,12	0,33
476,574	0,33
477,027	0,33
477,481	0,33
477,934	0,33
478,388	0,33
478,841	0,33
479,294	0,34
479,748	0,34
480,201	0,34
480,654	0,34
481,107	0,34
481,561	0,34
482,014	0,34
482,467	0,34
482,92	0,34
483,373	0,34
483,826	0,34
484,279	0,34
484,732	0,34
485,185	0,34
485,638	0,35
486,091	0,35
486,544	0,35
486,997	0,35
487,449	0,35
487,902	0,35
488,355	0,35
488,808	0,35
489,26	0,35
489,713	0,35
490,166	0,36
490,618	0,36
491,071	0,36
491,523	0,36
491,976	0,36
492,429	0,36
492,881	0,36
493,333	0,37
493,786	0,37
494,238	0,37
494,691	0,37
495,143	0,37
495,595	0,37
496,048	0,37
496,5	0,38
496,952	0,38
497,404	0,38
497,856	0,38
498,309	0,38
498,761	0,38
499,213	0,39
499,665	0,39
500,117	0,39
500,569	0,39
501,021	0,39
501,473	0,4
501,925	0,4
502,377	0,4
502,828	0,4
503,28	0,4
503,732	0,41
504,184	0,41
504,636	0,41
505,087	0,41
505,539	0,41
505,991	0,42
506,442	0,42
506,894	0,42
507,345	0,42
507,797	0,42
508,249	0,42
508,7	0,43
509,151	0,43
509,603	0,43
510,054	0,43
510,506	0,43
510,957	0,44
511,408	0,44
511,86	0,44
512,311	0,44
512,762	0,44
513,213	0,44
513,665	0,45
514,116	0,45
514,567	0,45
515,018	0,45
515,469	0,45
515,92	0,45
516,371	0,46
516,822	0,46
517,273	0,46
517,724	0,46
518,175	0,46
518,626	0,46
519,076	0,47
519,527	0,47
519,978	0,47
520,429	0,47
520,88	0,47
521,33	0,47
521,781	0,47
522,232	0,47
522,682	0,47
523,133	0,48
523,583	0,48
524,034	0,48
524,484	0,48
524,935	0,48
525,385	0,48
525,836	0,48
526,286	0,48
526,736	0,48
527,187	0,48
527,637	0,48
528,087	0,48
528,538	0,48
528,988	0,48
529,438	0,48
529,888	0,48
530,338	0,48
530,788	0,48
531,238	0,48
531,688	0,48
532,139	0,48
532,589	0,48
533,038	0,48
533,488	0,48
533,938	0,48
534,388	0,48
534,838	0,48
535,288	0,48
535,738	0,48
536,187	0,47
536,637	0,47
537,087	0,47
537,537	0,47
537,986	0,47
538,436	0,47
538,885	0,47
539,335	0,46
539,785	0,46
540,234	0,46
540,684	0,46
541,133	0,46
541,582	0,45
542,032	0,45
542,481	0,45
542,931	0,45
543,38	0,45
543,829	0,44
544,278	0,44
544,728	0,44
545,177	0,44
545,626	0,44
546,075	0,44
546,524	0,43
546,973	0,43
547,422	0,43
547,871	0,43
548,32	0,43
548,769	0,43
549,218	0,43
549,667	0,43
550,116	0,43
550,565	0,43
551,014	0,43
551,463	0,43
551,911	0,42
552,36	0,42
552,809	0,42
553,258	0,42
553,706	0,42
554,155	0,42
554,603	0,42
555,052	0,41
555,501	0,41
555,949	0,41
556,398	0,41
556,846	0,41
557,294	0,41
557,743	0,4
558,191	0,4
558,64	0,4
559,088	0,4
559,536	0,4
559,985	0,4
560,433	0,39
560,881	0,39
561,329	0,39
561,777	0,39
562,225	0,39
562,674	0,39
563,122	0,39
563,57	0,38
564,018	0,38
564,466	0,38
564,914	0,38
565,362	0,38
565,809	0,38
566,257	0,37
566,705	0,37
567,153	0,37
567,601	0,37
568,048	0,37
568,496	0,37
568,944	0,37
569,392	0,36
569,839	0,36
570,287	0,36
570,734	0,36
571,182	0,36
571,63	0,36
572,077	0,36
572,525	0,36
572,972	0,35
573,419	0,35
573,867	0,35
574,314	0,35
574,761	0,35
575,209	0,35
575,656	0,35
576,103	0,35
576,551	0,34
576,998	0,34
577,445	0,34
577,892	0,34
578,339	0,34
578,786	0,34
579,233	0,34
579,68	0,34
580,127	0,34
580,574	0,34
581,021	0,34
581,468	0,33
581,915	0,33
582,362	0,33
582,809	0,33
583,255	0,33
583,702	0,33
584,149	0,33
584,596	0,33
585,042	0,33
585,489	0,33
585,936	0,32
586,382	0,32
586,829	0,32
587,275	0,32
587,722	0,32
588,168	0,32
588,615	0,32
589,061	0,32
589,508	0,32
589,954	0,32
590,4	0,32
590,847	0,32
591,293	0,32
591,739	0,32
592,185	0,32
592,632	0,32
593,078	0,32
593,524	0,31
593,97	0,31
594,416	0,31
594,862	0,31
595,308	0,31
595,754	0,31
596,2	0,31
596,646	0,31
597,092	0,31
597,538	0,31
597,984	0,31
598,43	0,31
598,876	0,31
599,321	0,31
599,767	0,31
600,213	0,31
600,659	0,31
601,104	0,31
601,55	0,31
601,995	0,3
602,441	0,3
602,887	0,3
603,332	0,3
603,778	0,3
604,223	0,3
604,668	0,3
605,114	0,3
605,559	0,3
606,005	0,3
606,45	0,3
606,895	0,3
607,341	0,3
607,786	0,3
608,231	0,3
608,676	0,3
609,121	0,29
609,566	0,29
610,012	0,29
610,457	0,29
610,902	0,28
611,347	0,28
611,792	0,28
612,237	0,28
612,682	0,28
613,127	0,28
613,571	0,28
614,016	0,28
614,461	0,29
614,906	0,29
615,351	0,29
615,795	0,29
616,24	0,29
616,685	0,29
617,129	0,29
617,574	0,29
618,019	0,29
618,463	0,29
618,908	0,29
619,352	0,29
619,797	0,29
620,241	0,29
620,686	0,29
621,13	0,29
621,574	0,29
622,019	0,29
622,463	0,29
622,907	0,29
623,352	0,29
623,796	0,28
624,24	0,28
624,684	0,28
625,128	0,28
625,572	0,28
626,016	0,28
626,461	0,28
626,905	0,28
627,349	0,28
627,793	0,28
628,236	0,28
628,68	0,28
629,124	0,28
629,568	0,28
630,012	0,28
630,456	0,28
630,9	0,28
631,343	0,28
631,787	0,28
632,231	0,28
632,674	0,28
633,118	0,28
633,562	0,28
634,005	0,28
634,449	0,28
634,892	0,28
635,336	0,28
635,779	0,28
636,223	0,28
636,666	0,28
637,109	0,28
637,553	0,28
637,996	0,28
638,439	0,28
638,883	0,28
639,326	0,28
639,769	0,28
640,212	0,28
640,655	0,28
641,099	0,28
641,542	0,28
641,985	0,28
642,428	0,28
642,871	0,28
643,314	0,28
643,757	0,28
644,2	0,28
644,643	0,28
645,085	0,28
645,528	0,28
645,971	0,28
646,414	0,28
646,857	0,28
647,299	0,28
647,742	0,27
648,185	0,27
648,627	0,27
649,07	0,27
649,513	0,27
649,955	0,27
650,398	0,27
650,84	0,27
651,283	0,27
651,725	0,27
652,168	0,27
652,61	0,27
653,052	0,27
653,495	0,27
653,937	0,22
654,379	0,17
654,821	0,18
655,264	0,18
655,706	0,18
656,148	0,18
656,59	0,18
657,032	0,18
657,474	0,18
657,916	0,18
658,358	0,17
658,8	0,21
659,242	0,27
659,684	0,27
660,126	0,27
660,568	0,27
661,01	0,27
661,452	0,27
661,894	0,27
662,335	0,27
662,777	0,27
663,219	0,27
663,661	0,27
664,102	0,27
664,544	0,27
664,985	0,27
665,427	0,27
665,869	0,27
666,31	0,27
666,752	0,27
667,193	0,27
667,634	0,27
668,076	0,27
668,517	0,27
668,959	0,27
669,4	0,27
669,841	0,27
670,282	0,27
670,724	0,27
671,165	0,27
671,606	0,27
672,047	0,27
672,488	0,27
672,929	0,27
673,37	0,27
673,811	0,27
674,252	0,27
674,693	0,27
675,134	0,27
675,575	0,27
676,016	0,27
676,457	0,27
676,898	0,27
677,339	0,27
677,78	0,27
678,22	0,27
678,661	0,27
679,102	0,27
679,542	0,27
679,983	0,27
680,424	0,27
680,864	0,27
681,305	0,27
681,745	0,27
682,186	0,27
682,626	0,27
683,067	0,27
683,507	0,27
683,948	0,27
684,388	0,27
684,828	0,27
685,269	0,26
685,709	0,26
686,149	0,26
686,589	0,26
687,029	0,26
687,47	0,26
687,91	0,26
688,35	0,26
688,79	0,26
689,23	0,26
689,67	0,26
690,11	0,26
690,55	0,26
690,99	0,26
691,43	0,26
691,87	0,25
692,31	0,25
692,749	0,25
693,189	0,25
693,629	0,25
694,069	0,25
694,508	0,25
694,948	0,25
695,388	0,25
695,827	0,25
696,267	0,25
696,706	0,26
697,146	0,26
697,586	0,26
698,025	0,26
698,464	0,26
698,904	0,26
699,343	0,26
699,783	0,26
700,222	0,26
700,661	0,26
701,101	0,26
701,54	0,26
701,979	0,26
702,418	0,26
702,857	0,26
703,297	0,26
703,736	0,26
704,175	0,26
704,614	0,26
705,053	0,26
705,492	0,25
705,931	0,25
706,37	0,25
706,809	0,25
707,248	0,25
707,687	0,25
708,125	0,25
708,564	0,25
709,003	0,25
709,442	0,25
709,88	0,25
710,319	0,25
710,758	0,25
711,196	0,25
711,635	0,25
712,074	0,25
712,512	0,25
712,951	0,25
713,389	0,25
713,828	0,25
714,266	0,25
714,705	0,25
715,143	0,25
715,581	0,25
716,02	0,24
716,458	0,24
716,896	0,24
717,334	0,24
717,773	0,24
718,211	0,24
718,649	0,24
719,087	0,24
719,525	0,24
719,963	0,24
720,401	0,24
720,839	0,24
721,277	0,24
721,715	0,24
722,153	0,24
722,591	0,24
723,029	0,24
723,467	0,24
723,905	0,24
724,342	0,24
724,78	0,24
725,218	0,24
725,656	0,24
726,093	0,24
726,531	0,24
726,969	0,24
727,406	0,24
727,844	0,24
728,281	0,24
728,719	0,24
729,156	0,24
729,594	0,24
730,031	0,24
730,469	0,24
730,906	0,24
731,343	0,24
731,781	0,24
732,218	0,24
732,655	0,24
733,092	0,24
733,53	0,24
733,967	0,24
734,404	0,24
734,841	0,24
735,278	0,24
735,715	0,24
736,152	0,23
736,589	0,23
737,026	0,23
737,463	0,23
737,9	0,23
738,337	0,23
738,774	0,23
739,211	0,23
739,647	0,23
740,084	0,23
740,521	0,23
740,958	0,23
741,394	0,23
741,831	0,23
742,268	0,23
742,704	0,23
743,141	0,23
743,577	0,22
744,014	0,22
744,45	0,22
744,887	0,22
745,323	0,22
745,76	0,22
746,196	0,22
746,632	0,22
747,069	0,22
747,505	0,22
747,941	0,22
748,378	0,22
748,814	0,22
749,25	0,22
749,686	0,22
750,122	0,22
750,558	0,22
750,994	0,23
751,43	0,23
751,866	0,23
752,302	0,23
752,738	0,23
753,174	0,23
753,61	0,23
754,046	0,23
754,482	0,23
754,918	0,23
755,354	0,23
755,789	0,23
756,225	0,23
756,661	0,23
757,096	0,23
757,532	0,23
757,968	0,23
758,403	0,23
758,839	0,23
759,274	0,22
759,71	0,22
760,145	0,22
760,581	0,21
761,016	0,21
761,452	0,21
761,887	0,21
762,322	0,2
762,758	0,2
763,193	0,2
763,628	0,19
764,063	0,19
764,499	0,19
764,934	0,18
765,369	0,18
765,804	0,17
766,239	0,17
766,674	0,16
767,109	0,16
767,544	0,15
767,979	0,14
768,414	0,14
768,849	0,13
769,284	0,12
769,719	0,12
770,154	0,11
770,588	0,11
771,023	0,1
771,458	0,09
771,893	0,08
772,327	0,07
772,762	0,07
773,197	0,06
773,631	0,05
774,066	0,05
774,5	0,04
774,935	0,03
775,369	0,02
775,804	0,02
776,238	0,01
776,673	0
777,107	-0,01
777,541	-0,01
777,976	-0,02
778,41	-0,03
778,844	-0,04
779,279	-0,04
779,713	-0,05
780,147	-0,06
780,581	-0,06
781,015	-0,07
781,449	-0,08
781,883	-0,08
782,317	-0,09
782,751	-0,1
783,185	-0,11
783,619	-0,11
784,053	-0,12
784,487	-0,13
784,921	-0,14
785,355	-0,15
785,789	-0,15
786,223	-0,16
786,656	-0,17
787,09	-0,18
787,524	-0,19
787,957	-0,2
788,391	-0,21
788,825	-0,22
789,258	-0,23
789,692	-0,24
790,125	-0,26
790,559	-0,28
790,992	-0,3
791,426	-0,32
791,859	-0,34
792,293	-0,37
792,726	-0,39
793,159	-0,41
793,593	-0,43
794,026	-0,45
794,459	-0,48
794,892	-0,51
795,326	-0,53
795,759	-0,57
796,192	-0,61
796,625	-0,66
797,058	-0,68
797,491	-0,73
797,924	-0,77
798,357	-0,82
798,79	-0,87
799,223	-0,91
799,656	-0,97
800,089	-1,01
800,522	-1,06
800,955	-1,1
801,387	-1,16
801,82	-1,21
802,253	-1,28
802,686	-1,36
803,118	-1,42
803,551	-1,47
803,984	-1,52
804,416	-1,56
804,849	-1,61
805,281	-1,76
805,714	-2,16
806,146	-2,53
806,579	-2,76
807,011	-2,91
807,444	-2,99
807,876	-3,06
808,308	-3,09
808,741	-3,12
809,173	-3,17
809,605	-3,19
810,037	-3,27
810,47	-3,17
810,902	-2,96
811,334	-2,81
811,766	-2,64
812,198	-2,37
812,63	-1,99
813,062	-1,81
813,494	-1,72
813,926	-1,64
814,358	-1,59
814,79	-1,5
815,222	-1,45
815,654	-1,4
816,086	-1,33
816,518	-1,28
816,949	-1,22
817,381	-1,18
817,813	-1,16
818,245	-1,12
818,676	-1,08
819,108	-1,04
819,54	-1,03
819,971	-1
820,403	-0,95
820,834	-0,94
821,266	-0,89
821,697	-0,87
822,129	-0,85
822,56	-0,82
822,991	-0,8
823,423	-0,77
823,854	-0,76
824,286	-0,73
824,717	-0,72
825,148	-0,7
825,579	-0,69
826,01	-0,68
826,442	-0,67
826,873	-0,65
827,304	-0,62
827,735	-0,61
828,166	-0,61
828,597	-0,61
829,028	-0,6
829,459	-0,6
829,89	-0,6
830,321	-0,55
830,752	-0,56
831,183	-0,55
831,613	-0,55
832,044	-0,55
832,475	-0,53
832,906	-0,54
833,336	-0,54
833,767	-0,54
834,198	-0,53
834,628	-0,51
835,059	-0,54
835,49	-0,55
835,92	-0,52
836,351	-0,52
836,781	-0,52
837,212	-0,53
837,642	-0,54
838,072	-0,53
838,503	-0,54
838,933	-0,51
839,364	-0,53
839,794	-0,51
840,224	-0,5
840,654	-0,55
841,085	-0,55
841,515	-0,53
841,945	-0,54
842,375	-0,49
842,805	-0,47
843,235	-0,46
843,665	-0,48
844,095	-0,46
844,525	-0,48
844,955	-0,48
845,385	-0,45
845,815	-0,44
846,245	-0,46
846,675	-0,46
847,105	-0,48
847,534	-0,48
847,964	-0,47
848,394	-0,45
848,824	-0,48
849,253	-0,48
849,683	-0,48
850,112	-0,49
850,542	-0,52
850,972	-0,52
851,401	-0,5
851,831	-0,48
852,26	-0,49
852,69	-0,52
853,119	-0,52
853,548	-0,53
853,978	-0,53
854,407	-0,51
854,836	-0,52
855,266	-0,51
855,695	-0,52
856,124	-0,53
856,553	-0,55
856,983	-0,56
857,412	-0,55
857,841	-0,57
858,27	-0,56
858,699	-0,56
859,128	-0,6
859,557	-0,6
859,986	-0,62
860,415	-0,59
860,844	-0,56
861,273	-0,56
861,702	-0,56
862,13	-0,54
862,559	-0,55
862,988	-0,53
863,417	-0,52
863,845	-0,51
864,274	-0,52
864,703	-0,52
865,131	-0,53
865,56	-0,54
865,989	-0,58
866,417	-0,55
866,846	-0,55
867,274	-0,56
867,703	-0,58
868,131	-0,59
868,559	-0,58
868,988	-0,61
869,416	-0,6
869,844	-0,6
870,273	-0,63
870,701	-0,61
871,129	-0,65
871,557	-0,68
871,986	-0,68
872,414	-0,69
872,842	-0,66
873,27	-0,64
873,698	-0,61
874,126	-0,65
874,554	-0,63
874,982	-0,63
875,41	-0,65
875,838	-0,6
876,266	-0,57
876,694	-0,57
877,122	-0,56
877,549	-0,62
877,977	-0,59
878,405	-0,62
878,833	-0,59
879,26	-0,58
879,688	-0,59
880,116	-0,57
880,543	-0,55
880,971	-0,54
881,399	-0,56
881,826	-0,56
882,254	-0,55
882,681	-0,59
883,109	-0,55
883,536	-0,56
883,963	-0,58
884,391	-0,57
884,818	-0,55
885,245	-0,59
885,673	-0,62
886,1	-0,58
886,527	-0,59
886,954	-0,55
887,381	-0,57
887,809	-0,57
888,236	-0,58
888,663	-0,59
889,09	-0,62
889,517	-0,63
889,944	-0,62
890,371	-0,61
890,798	-0,61
891,225	-0,6
891,652	-0,63
892,078	-0,6
892,505	-0,63
892,932	-0,58
893,359	-0,6
893,786	-0,59
894,212	-0,57
894,639	-0,59
895,066	-0,61
895,492	-0,54
895,919	-0,55
896,346	-0,53
896,772	-0,53
897,199	-0,5
897,625	-0,52
898,052	-0,48
898,478	-0,46
898,904	-0,47
899,331	-0,47
899,757	-0,49
900,183	-0,51
900,61	-0,49
901,036	-0,51
901,462	-0,51
901,888	-0,5
902,315	-0,5
902,741	-0,55
903,167	-0,54
903,593	-0,57
904,019	-0,56
904,445	-0,53
904,871	-0,56
905,297	-0,58
905,723	-0,58
906,149	-0,57
906,575	-0,58
907,001	-0,57
907,427	-0,54
907,852	-0,53
908,278	-0,54
908,704	-0,52
909,13	-0,52
909,555	-0,51
909,981	-0,5
910,407	-0,51
910,832	-0,51
911,258	-0,5
911,684	-0,51
912,109	-0,52
912,535	-0,54
912,96	-0,49
913,386	-0,53
913,811	-0,53
914,236	-0,54
914,662	-0,53
915,087	-0,55
915,512	-0,55
915,938	-0,57
916,363	-0,56
916,788	-0,57
917,213	-0,54
917,639	-0,59
918,064	-0,56
918,489	-0,57
918,914	-0,57
919,339	-0,57
919,764	-0,55
920,189	-0,55
920,614	-0,57
921,039	-0,58
921,464	-0,54
921,889	-0,57
922,314	-0,59
922,738	-0,62
923,163	-0,63
923,588	-0,63
924,013	-0,63
924,437	-0,63
924,862	-0,64
925,287	-0,61
925,711	-0,62
926,136	-0,63
926,561	-0,62
926,985	-0,6
927,41	-0,57
927,834	-0,55
928,259	-0,52
928,683	-0,51
929,108	-0,48
929,532	-0,49
929,956	-0,48
930,381	-0,47
930,805	-0,48
931,229	-0,47
931,653	-0,45
932,078	-0,45
932,502	-0,46
932,926	-0,47
933,35	-0,47
933,774	-0,47
934,198	-0,45
934,622	-0,44
935,046	-0,45
935,47	-0,45
935,894	-0,44
936,318	-0,44
936,742	-0,44
937,166	-0,44
937,59	-0,43
938,014	-0,45
938,437	-0,46
938,861	-0,49
939,285	-0,5
939,709	-0,48
940,132	-0,48
940,556	-0,49
940,98	-0,49
941,403	-0,47
941,827	-0,47
942,25	-0,5
942,674	-0,48
943,097	-0,48
943,521	-0,46
943,944	-0,48
944,368	-0,47
944,791	-0,45
945,214	-0,47
945,638	-0,48
946,061	-0,52
946,484	-0,53
946,907	-0,51
947,331	-0,5
947,754	-0,54
948,177	-0,52
948,6	-0,51
949,023	-0,52
949,446	-0,52
949,869	-0,5
950,292	-0,49
950,715	-0,46
951,138	-0,45
951,561	-0,42
951,984	-0,43
952,407	-0,41
952,83	-0,39
953,252	-0,36
953,675	-0,36
954,098	-0,37
954,521	-0,35
954,943	-0,35
955,366	-0,36
955,789	-0,34
956,211	-0,36
956,634	-0,37
957,056	-0,34
957,479	-0,35
957,902	-0,38
958,324	-0,39
958,746	-0,37
959,169	-0,38
959,591	-0,39
960,014	-0,39
960,436	-0,39
960,858	-0,39
961,281	-0,38
961,703	-0,4
962,125	-0,4
962,547	-0,38
962,969	-0,38
963,391	-0,38
963,814	-0,38
964,236	-0,37
964,658	-0,34
965,08	-0,35
965,502	-0,35
965,924	-0,33
966,346	-0,33
966,768	-0,32
967,189	-0,33
967,611	-0,34
968,033	-0,34
968,455	-0,32
968,877	-0,33
969,298	-0,34
969,72	-0,35
970,142	-0,34
970,563	-0,34
970,985	-0,32
971,407	-0,32
971,828	-0,29
972,25	-0,28
972,671	-0,27
973,093	-0,27
973,514	-0,25
973,936	-0,23
974,357	-0,22
974,778	-0,23
975,2	-0,23
975,621	-0,23
976,042	-0,21
976,464	-0,21
976,885	-0,2
977,306	-0,2
977,727	-0,19
978,148	-0,19
978,57	-0,18
978,991	-0,17
979,412	-0,15
979,833	-0,14
980,254	-0,13
980,675	-0,14
981,096	-0,13
981,517	-0,11
981,937	-0,11
982,358	-0,1
982,779	-0,08
983,2	-0,08
983,621	-0,08
984,042	-0,07
984,462	-0,07
984,883	-0,06
985,304	-0,05
985,724	-0,04
986,145	-0,04
986,565	-0,02
986,986	-0,02
987,407	-0,02
987,827	-0,01
988,248	0
988,668	0,01
989,088	0,01
989,509	0,02
989,929	0,03
990,35	0,04
990,77	0,05
991,19	0,05
991,61	0,06
992,031	0,06
992,451	0,07
992,871	0,08
993,291	0,09
993,711	0,09
994,131	0,1
994,551	0,1
994,971	0,11
995,391	0,11
995,811	0,11
996,231	0,11
996,651	0,12
997,071	0,12
997,491	0,12
997,911	0,13
998,331	0,13
998,75	0,14
999,17	0,14
999,59	0,14
1000,009	0,15
1000,429	0,15
1000,849	0,15
1001,268	0,16
1001,688	0,16
1002,107	0,16
1002,527	0,16
1002,946	0,16
1003,366	0,17
1003,785	0,17
1004,205	0,17
1004,624	0,17
1005,044	0,17
1005,463	0,17
1005,882	0,17
1006,301	0,17
1006,721	0,18
1007,14	0,18
1007,559	0,18
1007,978	0,18
1008,397	0,18
1008,816	0,17
1009,235	0,17
1009,655	0,17
1010,074	0,17
1010,492	0,17
1010,911	0,17
1011,33	0,17
1011,749	0,17
1012,168	0,17
1012,587	0,17
1013,006	0,17
1013,425	0,16
1013,843	0,16
1014,262	0,16
1014,681	0,16
1015,099	0,16
1015,518	0,16
1015,937	0,16
1016,355	0,16
1016,774	0,16
1017,192	0,16
1017,611	0,16
1018,029	0,17
1018,448	0,17
1018,866	0,17
1019,285	0,17
1019,703	0,17
1020,121	0,17
1020,54	0,17
1020,958	0,17
1021,376	0,17
1021,794	0,17
1022,213	0,17
1022,631	0,17
1023,049	0,17
1023,467	0,17
1023,885	0,17
1024,303	0,17
1024,721	0,16
1025,139	0,16
1025,557	0,16
1025,975	0,16
1026,393	0,16
1026,811	0,16
1027,229	0,16
1027,647	0,16
1028,065	0,16
1028,482	0,16
1028,9	0,16
1029,318	0,16
1029,735	0,16
1030,153	0,16
1030,571	0,16
1030,988	0,16
1031,406	0,16
1031,823	0,16
1032,241	0,16
1032,659	0,16
1033,076	0,16
1033,493	0,16
1033,911	0,16
1034,328	0,16
1034,746	0,16
1035,163	0,16
1035,58	0,16
1035,997	0,16
1036,415	0,16
1036,832	0,16
1037,249	0,16
1037,666	0,16
1038,083	0,16
1038,501	0,16
1038,918	0,15
1039,335	0,15
1039,752	0,15
1040,169	0,15
1040,586	0,15
1041,003	0,15
1041,419	0,15
1041,836	0,15
1042,253	0,15
1042,67	0,15
1043,087	0,15
1043,504	0,15
1043,92	0,15
1044,337	0,15
1044,754	0,15
1045,17	0,15
1045,587	0,15
1046,004	0,15
1046,42	0,15
1046,837	0,15
1047,253	0,15
1047,67	0,14
1048,086	0,14
1048,503	0,14
1048,919	0,14
1049,335	0,14
1049,752	0,14
1050,168	0,14
1050,584	0,14
1051,001	0,14
1051,417	0,14
1051,833	0,14
1052,249	0,14
1052,665	0,15
1053,081	0,15
1053,497	0,15
1053,914	0,15
1054,33	0,15
1054,746	0,15
1055,162	0,15
1055,578	0,15
1055,993	0,15
1056,409	0,15
1056,825	0,15
1057,241	0,15
1057,657	0,15
1058,073	0,15
1058,488	0,15
1058,904	0,15
1059,32	0,15
1059,736	0,15
1060,151	0,15
1060,567	0,15
1060,982	0,15
1061,398	0,15
1061,813	0,15
1062,229	0,15
1062,644	0,15
1063,06	0,15
1063,475	0,15
1063,891	0,15
1064,306	0,15
1064,721	0,15
1065,137	0,15
1065,552	0,15
1065,967	0,15
1066,382	0,15
1066,798	0,15
1067,213	0,15
1067,628	0,15
1068,043	0,15
1068,458	0,15
1068,873	0,15
1069,288	0,15
1069,703	0,15
1070,118	0,15
1070,533	0,15
1070,948	0,15
1071,363	0,15
1071,778	0,15
1072,193	0,15
1072,607	0,16
1073,022	0,16
1073,437	0,16
1073,852	0,16
1074,266	0,16
1074,681	0,16
1075,096	0,16
1075,51	0,16
1075,925	0,16
1076,339	0,16
1076,754	0,16
1077,168	0,16
1077,583	0,16
1077,997	0,16
1078,412	0,15
1078,826	0,15
1079,24	0,15
1079,655	0,15
1080,069	0,15
1080,483	0,15
1080,897	0,15
1081,312	0,15
1081,726	0,15
1082,14	0,15
1082,554	0,15
1082,968	0,15
1083,382	0,15
1083,796	0,15
1084,21	0,15
1084,624	0,15
1085,038	0,14
1085,452	0,14
1085,866	0,14
1086,28	0,14
1086,694	0,14
1087,108	0,14
1087,521	0,14
1087,935	0,14
1088,349	0,14
1088,763	0,13
1089,176	0,13
1089,59	0,13
1090,004	0,13
1090,417	0,13
1090,831	0,13
1091,244	0,13
1091,658	0,12
1092,071	0,12
1092,485	0,12
1092,898	0,12
1093,312	0,12
1093,725	0,12
1094,138	0,11
1094,552	0,11
1094,965	0,11
1095,378	0,11
1095,791	0,11
1096,205	0,11
1096,618	0,11
1097,031	0,11
1097,444	0,11
1097,857	0,11
1098,27	0,11
1098,683	0,11
1099,096	0,11
1099,509	0,11
1099,922	0,1
1100,335	0,1
1100,748	0,1
1101,161	0,09
1101,574	0,09
1101,986	0,09
1102,399	0,09
1102,812	0,08
1103,225	0,08
1103,637	0,08
1104,05	0,07
1104,463	0,07
1104,875	0,07
1105,288	0,07
1105,7	0,07
1106,113	0,06
1106,525	0,06
1106,938	0,06
1107,35	0,06
1107,763	0,05
1108,175	0,06
1108,588	0,05
1109	0,05
1109,412	0,05
1109,824	0,04
1110,237	0,04
1110,649	0,04
1111,061	0,03
