Data from 18C-808nm-8A_Absorbance__882__00882.txt Node

Date: Mon Jul 17 16:53:08 CEST 2023
User: Laser008
Spectrometer: MAYP115816
Trigger mode: 0
Integration Time (sec): 2,500000E-1
Scans to average: 10
Electric dark correction enabled: true
Nonlinearity correction enabled: true
Boxcar width: 5
XAxis mode: Wavelengths
Number of Pixels in Spectrum: 2068
>>>>>Begin Spectral Data<<<<<
198,914	-0,77
199,384	-0,5
199,855	-0,37
200,325	-0,3
200,796	-0,27
201,266	-0,23
201,737	-0,22
202,207	-0,21
202,677	-0,2
203,147	-0,19
203,618	-0,16
204,088	-0,14
204,558	-0,15
205,028	-0,14
205,498	-0,14
205,968	-0,14
206,439	-0,15
206,909	-0,14
207,379	-0,15
207,849	-0,14
208,319	-0,14
208,789	-0,15
209,258	-0,15
209,728	-0,16
210,198	-0,16
210,668	-0,16
211,138	-0,15
211,608	-0,15
212,077	-0,14
212,547	-0,14
213,017	-0,15
213,486	-0,16
213,956	-0,16
214,426	-0,17
214,895	-0,16
215,365	-0,17
215,834	-0,17
216,304	-0,18
216,773	-0,18
217,243	-0,21
217,712	-0,22
218,181	-0,22
218,651	-0,22
219,12	-0,21
219,589	-0,21
220,058	-0,21
220,528	-0,21
220,997	-0,21
221,466	-0,23
221,935	-0,23
222,404	-0,22
222,873	-0,2
223,342	-0,21
223,812	-0,2
224,281	-0,21
224,749	-0,21
225,218	-0,22
225,687	-0,23
226,156	-0,22
226,625	-0,2
227,094	-0,19
227,563	-0,2
228,031	-0,21
228,5	-0,21
228,969	-0,22
229,438	-0,21
229,906	-0,2
230,375	-0,19
230,844	-0,19
231,312	-0,19
231,781	-0,2
232,249	-0,19
232,718	-0,2
233,186	-0,18
233,655	-0,18
234,123	-0,18
234,591	-0,18
235,06	-0,19
235,528	-0,19
235,996	-0,18
236,465	-0,18
236,933	-0,17
237,401	-0,18
237,869	-0,17
238,337	-0,18
238,805	-0,17
239,274	-0,16
239,742	-0,15
240,21	-0,15
240,678	-0,14
241,146	-0,14
241,614	-0,14
242,081	-0,14
242,549	-0,14
243,017	-0,14
243,485	-0,14
243,953	-0,14
244,421	-0,13
244,888	-0,13
245,356	-0,14
245,824	-0,14
246,291	-0,14
246,759	-0,15
247,227	-0,14
247,694	-0,14
248,162	-0,13
248,629	-0,12
249,097	-0,13
249,564	-0,14
250,032	-0,15
250,499	-0,16
250,967	-0,16
251,434	-0,16
251,901	-0,16
252,369	-0,16
252,836	-0,17
253,303	-0,18
253,77	-0,19
254,237	-0,19
254,705	-0,18
255,172	-0,18
255,639	-0,17
256,106	-0,18
256,573	-0,18
257,04	-0,18
257,507	-0,18
257,974	-0,19
258,441	-0,17
258,908	-0,17
259,375	-0,19
259,841	-0,19
260,308	-0,19
260,775	-0,2
261,242	-0,19
261,709	-0,19
262,175	-0,21
262,642	-0,21
263,109	-0,2
263,575	-0,22
264,042	-0,2
264,508	-0,2
264,975	-0,22
265,441	-0,23
265,908	-0,23
266,374	-0,23
266,841	-0,23
267,307	-0,23
267,773	-0,22
268,24	-0,22
268,706	-0,22
269,172	-0,23
269,639	-0,24
270,105	-0,22
270,571	-0,22
271,037	-0,22
271,503	-0,24
271,969	-0,23
272,435	-0,22
272,902	-0,24
273,368	-0,25
273,834	-0,24
274,3	-0,26
274,765	-0,25
275,231	-0,25
275,697	-0,23
276,163	-0,23
276,629	-0,22
277,095	-0,22
277,56	-0,21
278,026	-0,22
278,492	-0,2
278,958	-0,21
279,423	-0,2
279,889	-0,2
280,354	-0,21
280,82	-0,21
281,286	-0,23
281,751	-0,23
282,217	-0,23
282,682	-0,23
283,147	-0,23
283,613	-0,24
284,078	-0,24
284,544	-0,25
285,009	-0,26
285,474	-0,25
285,939	-0,26
286,405	-0,25
286,87	-0,25
287,335	-0,25
287,8	-0,24
288,265	-0,23
288,73	-0,24
289,195	-0,26
289,66	-0,26
290,125	-0,25
290,59	-0,25
291,055	-0,24
291,52	-0,24
291,985	-0,25
292,45	-0,27
292,915	-0,27
293,38	-0,27
293,844	-0,25
294,309	-0,24
294,774	-0,22
295,239	-0,23
295,703	-0,24
296,168	-0,23
296,632	-0,23
297,097	-0,21
297,562	-0,19
298,026	-0,19
298,491	-0,2
298,955	-0,19
299,419	-0,18
299,884	-0,19
300,348	-0,18
300,813	-0,18
301,277	-0,19
301,741	-0,18
302,205	-0,19
302,67	-0,18
303,134	-0,18
303,598	-0,18
304,062	-0,18
304,526	-0,18
304,99	-0,19
305,454	-0,19
305,919	-0,18
306,383	-0,18
306,847	-0,18
307,31	-0,18
307,774	-0,2
308,238	-0,19
308,702	-0,19
309,166	-0,21
309,63	-0,2
310,094	-0,18
310,557	-0,17
311,021	-0,17
311,485	-0,17
311,948	-0,16
312,412	-0,15
312,876	-0,14
313,339	-0,14
313,803	-0,14
314,266	-0,14
314,73	-0,14
315,193	-0,14
315,657	-0,14
316,12	-0,13
316,584	-0,13
317,047	-0,12
317,51	-0,12
317,973	-0,11
318,437	-0,11
318,9	-0,1
319,363	-0,09
319,826	-0,09
320,29	-0,1
320,753	-0,11
321,216	-0,11
321,679	-0,12
322,142	-0,11
322,605	-0,12
323,068	-0,12
323,531	-0,11
323,994	-0,11
324,457	-0,11
324,92	-0,1
325,382	-0,1
325,845	-0,09
326,308	-0,07
326,771	-0,06
327,233	-0,07
327,696	-0,06
328,159	-0,05
328,622	-0,04
329,084	-0,04
329,547	-0,04
330,009	-0,03
330,472	-0,02
330,934	-0,02
331,397	-0,02
331,859	-0,02
332,322	-0,01
332,784	-0,01
333,246	-0,01
333,709	-0,01
334,171	-0,01
334,633	-0
335,096	-0
335,558	-0
336,02	-0,01
336,482	-0,01
336,944	0
337,406	0,01
337,868	0,01
338,331	0,01
338,793	0,01
339,255	0,02
339,717	0,02
340,178	0,02
340,64	0,03
341,102	0,04
341,564	0,04
342,026	0,05
342,488	0,06
342,949	0,07
343,411	0,09
343,873	0,1
344,335	0,12
344,796	0,14
345,258	0,17
345,719	0,19
346,181	0,21
346,643	0,23
347,104	0,25
347,566	0,26
348,027	0,28
348,488	0,28
348,95	0,29
349,411	0,3
349,873	0,31
350,334	0,32
350,795	0,33
351,256	0,33
351,718	0,34
352,179	0,34
352,64	0,34
353,101	0,34
353,562	0,34
354,023	0,35
354,484	0,35
354,945	0,35
355,406	0,35
355,867	0,35
356,328	0,35
356,789	0,35
357,25	0,35
357,711	0,35
358,172	0,35
358,633	0,35
359,093	0,35
359,554	0,35
360,015	0,35
360,476	0,36
360,936	0,36
361,397	0,36
361,858	0,36
362,318	0,36
362,779	0,36
363,239	0,36
363,7	0,36
364,16	0,36
364,621	0,36
365,081	0,36
365,541	0,36
366,002	0,36
366,462	0,36
366,922	0,36
367,383	0,36
367,843	0,36
368,303	0,36
368,763	0,36
369,223	0,36
369,684	0,36
370,144	0,36
370,604	0,36
371,064	0,36
371,524	0,36
371,984	0,36
372,444	0,36
372,904	0,36
373,363	0,36
373,823	0,35
374,283	0,35
374,743	0,35
375,203	0,35
375,663	0,35
376,122	0,35
376,582	0,35
377,042	0,35
377,501	0,35
377,961	0,35
378,42	0,35
378,88	0,35
379,34	0,35
379,799	0,35
380,259	0,35
380,718	0,35
381,177	0,35
381,637	0,35
382,096	0,35
382,555	0,35
383,015	0,35
383,474	0,35
383,933	0,35
384,393	0,35
384,852	0,35
385,311	0,35
385,77	0,35
386,229	0,35
386,688	0,35
387,147	0,35
387,606	0,35
388,065	0,35
388,524	0,35
388,983	0,35
389,442	0,35
389,901	0,35
390,36	0,35
390,819	0,35
391,277	0,35
391,736	0,35
392,195	0,35
392,654	0,35
393,112	0,35
393,571	0,35
394,03	0,35
394,488	0,34
394,947	0,34
395,405	0,34
395,864	0,34
396,322	0,34
396,781	0,34
397,239	0,34
397,698	0,34
398,156	0,34
398,614	0,34
399,073	0,34
399,531	0,34
399,989	0,34
400,447	0,34
400,905	0,34
401,364	0,34
401,822	0,34
402,28	0,34
402,738	0,34
403,196	0,34
403,654	0,34
404,112	0,34
404,57	0,34
405,028	0,34
405,486	0,34
405,944	0,34
406,402	0,34
406,859	0,34
407,317	0,34
407,775	0,34
408,233	0,34
408,691	0,34
409,148	0,34
409,606	0,34
410,064	0,34
410,521	0,34
410,979	0,34
411,436	0,34
411,894	0,34
412,351	0,34
412,809	0,34
413,266	0,34
413,724	0,34
414,181	0,34
414,638	0,34
415,096	0,34
415,553	0,34
416,01	0,34
416,467	0,34
416,925	0,34
417,382	0,34
417,839	0,34
418,296	0,34
418,753	0,34
419,21	0,34
419,667	0,33
420,124	0,33
420,581	0,33
421,038	0,33
421,495	0,33
421,952	0,33
422,409	0,33
422,866	0,33
423,322	0,33
423,779	0,33
424,236	0,34
424,693	0,34
425,149	0,34
425,606	0,34
426,063	0,34
426,519	0,34
426,976	0,33
427,433	0,33
427,889	0,33
428,346	0,33
428,802	0,33
429,258	0,33
429,715	0,33
430,171	0,33
430,628	0,33
431,084	0,33
431,54	0,33
431,997	0,33
432,453	0,33
432,909	0,33
433,365	0,33
433,821	0,33
434,277	0,33
434,734	0,33
435,19	0,33
435,646	0,33
436,102	0,33
436,558	0,33
437,014	0,33
437,47	0,33
437,925	0,33
438,381	0,33
438,837	0,33
439,293	0,33
439,749	0,33
440,205	0,33
440,66	0,33
441,116	0,33
441,572	0,33
442,027	0,33
442,483	0,33
442,939	0,33
443,394	0,33
443,85	0,33
444,305	0,33
444,761	0,33
445,216	0,33
445,672	0,33
446,127	0,33
446,582	0,33
447,038	0,33
447,493	0,33
447,948	0,33
448,403	0,33
448,859	0,33
449,314	0,33
449,769	0,33
450,224	0,33
450,679	0,33
451,134	0,33
451,589	0,33
452,044	0,33
452,499	0,33
452,954	0,33
453,409	0,33
453,864	0,33
454,319	0,33
454,774	0,33
455,229	0,33
455,684	0,33
456,138	0,33
456,593	0,33
457,048	0,33
457,503	0,33
457,957	0,33
458,412	0,33
458,866	0,33
459,321	0,33
459,776	0,33
460,23	0,33
460,685	0,33
461,139	0,33
461,593	0,33
462,048	0,33
462,502	0,33
462,957	0,33
463,411	0,33
463,865	0,33
464,319	0,33
464,774	0,33
465,228	0,33
465,682	0,33
466,136	0,34
466,59	0,34
467,044	0,34
467,499	0,34
467,953	0,34
468,407	0,34
468,861	0,34
469,315	0,34
469,768	0,34
470,222	0,34
470,676	0,34
471,13	0,34
471,584	0,34
472,038	0,34
472,491	0,34
472,945	0,34
473,399	0,34
473,852	0,34
474,306	0,34
474,76	0,34
475,213	0,34
475,667	0,34
476,12	0,34
476,574	0,34
477,027	0,34
477,481	0,34
477,934	0,34
478,388	0,34
478,841	0,35
479,294	0,35
479,748	0,35
480,201	0,35
480,654	0,35
481,107	0,35
481,561	0,35
482,014	0,35
482,467	0,35
482,92	0,35
483,373	0,35
483,826	0,35
484,279	0,35
484,732	0,35
485,185	0,36
485,638	0,36
486,091	0,36
486,544	0,36
486,997	0,36
487,449	0,36
487,902	0,36
488,355	0,36
488,808	0,36
489,26	0,36
489,713	0,36
490,166	0,37
490,618	0,37
491,071	0,37
491,523	0,37
491,976	0,37
492,429	0,37
492,881	0,37
493,333	0,38
493,786	0,38
494,238	0,38
494,691	0,38
495,143	0,38
495,595	0,38
496,048	0,38
496,5	0,39
496,952	0,39
497,404	0,39
497,856	0,39
498,309	0,39
498,761	0,39
499,213	0,4
499,665	0,4
500,117	0,4
500,569	0,4
501,021	0,4
501,473	0,41
501,925	0,41
502,377	0,41
502,828	0,41
503,28	0,41
503,732	0,42
504,184	0,42
504,636	0,42
505,087	0,42
505,539	0,42
505,991	0,43
506,442	0,43
506,894	0,43
507,345	0,43
507,797	0,43
508,249	0,43
508,7	0,44
509,151	0,44
509,603	0,44
510,054	0,44
510,506	0,44
510,957	0,45
511,408	0,45
511,86	0,45
512,311	0,45
512,762	0,45
513,213	0,45
513,665	0,46
514,116	0,46
514,567	0,46
515,018	0,46
515,469	0,46
515,92	0,46
516,371	0,47
516,822	0,47
517,273	0,47
517,724	0,47
518,175	0,47
518,626	0,47
519,076	0,48
519,527	0,48
519,978	0,48
520,429	0,48
520,88	0,48
521,33	0,48
521,781	0,48
522,232	0,48
522,682	0,48
523,133	0,49
523,583	0,49
524,034	0,49
524,484	0,49
524,935	0,49
525,385	0,49
525,836	0,49
526,286	0,49
526,736	0,49
527,187	0,49
527,637	0,49
528,087	0,49
528,538	0,49
528,988	0,49
529,438	0,49
529,888	0,49
530,338	0,49
530,788	0,49
531,238	0,49
531,688	0,49
532,139	0,49
532,589	0,49
533,038	0,49
533,488	0,49
533,938	0,49
534,388	0,49
534,838	0,49
535,288	0,49
535,738	0,49
536,187	0,49
536,637	0,48
537,087	0,48
537,537	0,48
537,986	0,48
538,436	0,48
538,885	0,48
539,335	0,47
539,785	0,47
540,234	0,47
540,684	0,47
541,133	0,47
541,582	0,46
542,032	0,46
542,481	0,46
542,931	0,46
543,38	0,46
543,829	0,46
544,278	0,45
544,728	0,45
545,177	0,45
545,626	0,45
546,075	0,45
546,524	0,45
546,973	0,44
547,422	0,44
547,871	0,44
548,32	0,44
548,769	0,44
549,218	0,44
549,667	0,44
550,116	0,44
550,565	0,44
551,014	0,44
551,463	0,44
551,911	0,43
552,36	0,43
552,809	0,43
553,258	0,43
553,706	0,43
554,155	0,43
554,603	0,43
555,052	0,42
555,501	0,42
555,949	0,42
556,398	0,42
556,846	0,42
557,294	0,42
557,743	0,41
558,191	0,41
558,64	0,41
559,088	0,41
559,536	0,41
559,985	0,41
560,433	0,4
560,881	0,4
561,329	0,4
561,777	0,4
562,225	0,4
562,674	0,4
563,122	0,4
563,57	0,39
564,018	0,39
564,466	0,39
564,914	0,39
565,362	0,39
565,809	0,39
566,257	0,39
566,705	0,38
567,153	0,38
567,601	0,38
568,048	0,38
568,496	0,38
568,944	0,38
569,392	0,38
569,839	0,37
570,287	0,37
570,734	0,37
571,182	0,37
571,63	0,37
572,077	0,37
572,525	0,37
572,972	0,36
573,419	0,36
573,867	0,36
574,314	0,36
574,761	0,36
575,209	0,36
575,656	0,36
576,103	0,36
576,551	0,36
576,998	0,36
577,445	0,35
577,892	0,35
578,339	0,35
578,786	0,35
579,233	0,35
579,68	0,35
580,127	0,35
580,574	0,35
581,021	0,35
581,468	0,35
581,915	0,34
582,362	0,34
582,809	0,34
583,255	0,34
583,702	0,34
584,149	0,34
584,596	0,34
585,042	0,34
585,489	0,34
585,936	0,34
586,382	0,34
586,829	0,34
587,275	0,33
587,722	0,33
588,168	0,33
588,615	0,33
589,061	0,33
589,508	0,33
589,954	0,33
590,4	0,33
590,847	0,33
591,293	0,33
591,739	0,33
592,185	0,33
592,632	0,33
593,078	0,33
593,524	0,33
593,97	0,33
594,416	0,33
594,862	0,32
595,308	0,32
595,754	0,32
596,2	0,32
596,646	0,32
597,092	0,32
597,538	0,32
597,984	0,32
598,43	0,32
598,876	0,32
599,321	0,32
599,767	0,32
600,213	0,32
600,659	0,32
601,104	0,32
601,55	0,32
601,995	0,32
602,441	0,32
602,887	0,31
603,332	0,31
603,778	0,31
604,223	0,31
604,668	0,31
605,114	0,31
605,559	0,31
606,005	0,31
606,45	0,31
606,895	0,31
607,341	0,31
607,786	0,31
608,231	0,31
608,676	0,31
609,121	0,31
609,566	0,3
610,012	0,3
610,457	0,3
610,902	0,3
611,347	0,29
611,792	0,29
612,237	0,29
612,682	0,29
613,127	0,29
613,571	0,29
614,016	0,29
614,461	0,3
614,906	0,3
615,351	0,3
615,795	0,3
616,24	0,3
616,685	0,3
617,129	0,3
617,574	0,3
618,019	0,3
618,463	0,3
618,908	0,3
619,352	0,3
619,797	0,3
620,241	0,3
620,686	0,3
621,13	0,3
621,574	0,3
622,019	0,3
622,463	0,3
622,907	0,3
623,352	0,3
623,796	0,3
624,24	0,3
624,684	0,3
625,128	0,3
625,572	0,3
626,016	0,3
626,461	0,3
626,905	0,3
627,349	0,3
627,793	0,3
628,236	0,3
628,68	0,3
629,124	0,3
629,568	0,29
630,012	0,29
630,456	0,29
630,9	0,29
631,343	0,29
631,787	0,29
632,231	0,29
632,674	0,29
633,118	0,29
633,562	0,29
634,005	0,29
634,449	0,29
634,892	0,29
635,336	0,3
635,779	0,29
636,223	0,29
636,666	0,29
637,109	0,29
637,553	0,29
637,996	0,29
638,439	0,29
638,883	0,29
639,326	0,29
639,769	0,29
640,212	0,29
640,655	0,29
641,099	0,29
641,542	0,29
641,985	0,29
642,428	0,29
642,871	0,29
643,314	0,29
643,757	0,29
644,2	0,29
644,643	0,29
645,085	0,29
645,528	0,29
645,971	0,29
646,414	0,29
646,857	0,29
647,299	0,29
647,742	0,29
648,185	0,29
648,627	0,29
649,07	0,28
649,513	0,28
649,955	0,28
650,398	0,28
650,84	0,28
651,283	0,28
651,725	0,28
652,168	0,28
652,61	0,29
653,052	0,29
653,495	0,28
653,937	0,22
654,379	0,18
654,821	0,18
655,264	0,18
655,706	0,18
656,148	0,18
656,59	0,19
657,032	0,19
657,474	0,19
657,916	0,18
658,358	0,18
658,8	0,22
659,242	0,28
659,684	0,28
660,126	0,28
660,568	0,28
661,01	0,28
661,452	0,28
661,894	0,28
662,335	0,28
662,777	0,28
663,219	0,28
663,661	0,28
664,102	0,28
664,544	0,28
664,985	0,28
665,427	0,28
665,869	0,28
666,31	0,28
666,752	0,28
667,193	0,28
667,634	0,28
668,076	0,28
668,517	0,28
668,959	0,28
669,4	0,28
669,841	0,28
670,282	0,28
670,724	0,28
671,165	0,28
671,606	0,28
672,047	0,28
672,488	0,28
672,929	0,28
673,37	0,28
673,811	0,28
674,252	0,28
674,693	0,28
675,134	0,28
675,575	0,28
676,016	0,28
676,457	0,28
676,898	0,28
677,339	0,28
677,78	0,28
678,22	0,28
678,661	0,28
679,102	0,28
679,542	0,28
679,983	0,28
680,424	0,28
680,864	0,28
681,305	0,28
681,745	0,28
682,186	0,28
682,626	0,28
683,067	0,28
683,507	0,28
683,948	0,28
684,388	0,28
684,828	0,28
685,269	0,28
685,709	0,28
686,149	0,28
686,589	0,27
687,029	0,27
687,47	0,27
687,91	0,27
688,35	0,27
688,79	0,27
689,23	0,27
689,67	0,27
690,11	0,27
690,55	0,27
690,99	0,27
691,43	0,27
691,87	0,27
692,31	0,27
692,749	0,27
693,189	0,27
693,629	0,27
694,069	0,26
694,508	0,26
694,948	0,26
695,388	0,27
695,827	0,27
696,267	0,27
696,706	0,27
697,146	0,27
697,586	0,27
698,025	0,27
698,464	0,27
698,904	0,27
699,343	0,27
699,783	0,27
700,222	0,27
700,661	0,27
701,101	0,27
701,54	0,27
701,979	0,27
702,418	0,27
702,857	0,27
703,297	0,27
703,736	0,27
704,175	0,27
704,614	0,27
705,053	0,27
705,492	0,27
705,931	0,27
706,37	0,27
706,809	0,26
707,248	0,26
707,687	0,26
708,125	0,26
708,564	0,26
709,003	0,26
709,442	0,26
709,88	0,26
710,319	0,26
710,758	0,26
711,196	0,26
711,635	0,26
712,074	0,26
712,512	0,26
712,951	0,26
713,389	0,26
713,828	0,26
714,266	0,26
714,705	0,26
715,143	0,26
715,581	0,26
716,02	0,26
716,458	0,26
716,896	0,26
717,334	0,25
717,773	0,25
718,211	0,25
718,649	0,25
719,087	0,25
719,525	0,25
719,963	0,25
720,401	0,25
720,839	0,25
721,277	0,25
721,715	0,26
722,153	0,26
722,591	0,26
723,029	0,26
723,467	0,26
723,905	0,26
724,342	0,25
724,78	0,25
725,218	0,25
725,656	0,25
726,093	0,25
726,531	0,25
726,969	0,25
727,406	0,25
727,844	0,25
728,281	0,25
728,719	0,25
729,156	0,25
729,594	0,25
730,031	0,25
730,469	0,25
730,906	0,25
731,343	0,25
731,781	0,25
732,218	0,25
732,655	0,25
733,092	0,25
733,53	0,25
733,967	0,25
734,404	0,25
734,841	0,25
735,278	0,25
735,715	0,25
736,152	0,25
736,589	0,25
737,026	0,25
737,463	0,24
737,9	0,24
738,337	0,24
738,774	0,24
739,211	0,24
739,647	0,24
740,084	0,24
740,521	0,24
740,958	0,24
741,394	0,24
741,831	0,24
742,268	0,24
742,704	0,24
743,141	0,24
743,577	0,24
744,014	0,24
744,45	0,23
744,887	0,23
745,323	0,23
745,76	0,23
746,196	0,23
746,632	0,23
747,069	0,23
747,505	0,23
747,941	0,23
748,378	0,23
748,814	0,23
749,25	0,23
749,686	0,23
750,122	0,23
750,558	0,24
750,994	0,24
751,43	0,24
751,866	0,24
752,302	0,24
752,738	0,24
753,174	0,24
753,61	0,24
754,046	0,24
754,482	0,24
754,918	0,24
755,354	0,24
755,789	0,24
756,225	0,24
756,661	0,24
757,096	0,24
757,532	0,24
757,968	0,24
758,403	0,24
758,839	0,24
759,274	0,23
759,71	0,23
760,145	0,23
760,581	0,23
761,016	0,22
761,452	0,22
761,887	0,22
762,322	0,21
762,758	0,21
763,193	0,21
763,628	0,2
764,063	0,2
764,499	0,19
764,934	0,19
765,369	0,18
765,804	0,18
766,239	0,18
766,674	0,17
767,109	0,16
767,544	0,16
767,979	0,15
768,414	0,14
768,849	0,14
769,284	0,13
769,719	0,13
770,154	0,12
770,588	0,11
771,023	0,1
771,458	0,1
771,893	0,09
772,327	0,08
772,762	0,07
773,197	0,07
773,631	0,06
774,066	0,05
774,5	0,04
774,935	0,04
775,369	0,03
775,804	0,02
776,238	0,02
776,673	0,01
777,107	0
777,541	-0
777,976	-0,01
778,41	-0,02
778,844	-0,02
779,279	-0,03
779,713	-0,03
780,147	-0,04
780,581	-0,05
781,015	-0,06
781,449	-0,06
781,883	-0,07
782,317	-0,08
782,751	-0,09
783,185	-0,1
783,619	-0,11
784,053	-0,12
784,487	-0,13
784,921	-0,13
785,355	-0,14
785,789	-0,15
786,223	-0,16
786,656	-0,17
787,09	-0,18
787,524	-0,18
787,957	-0,2
788,391	-0,21
788,825	-0,22
789,258	-0,24
789,692	-0,25
790,125	-0,27
790,559	-0,28
790,992	-0,3
791,426	-0,33
791,859	-0,34
792,293	-0,37
792,726	-0,39
793,159	-0,41
793,593	-0,43
794,026	-0,45
794,459	-0,48
794,892	-0,51
795,326	-0,54
795,759	-0,57
796,192	-0,62
796,625	-0,67
797,058	-0,69
797,491	-0,73
797,924	-0,78
798,357	-0,83
798,79	-0,87
799,223	-0,92
799,656	-0,97
800,089	-1,02
800,522	-1,06
800,955	-1,11
801,387	-1,16
801,82	-1,22
802,253	-1,28
802,686	-1,36
803,118	-1,42
803,551	-1,47
803,984	-1,52
804,416	-1,56
804,849	-1,61
805,281	-1,77
805,714	-2,16
806,146	-2,53
806,579	-2,76
807,011	-2,91
807,444	-2,99
807,876	-3,06
808,308	-3,09
808,741	-3,12
809,173	-3,17
809,605	-3,19
810,037	-3,26
810,47	-3,17
810,902	-2,96
811,334	-2,81
811,766	-2,64
812,198	-2,37
812,63	-1,98
813,062	-1,81
813,494	-1,73
813,926	-1,64
814,358	-1,59
814,79	-1,5
815,222	-1,45
815,654	-1,4
816,086	-1,33
816,518	-1,28
816,949	-1,23
817,381	-1,18
817,813	-1,16
818,245	-1,12
818,676	-1,08
819,108	-1,05
819,54	-1,03
819,971	-1,01
820,403	-0,96
820,834	-0,95
821,266	-0,9
821,697	-0,88
822,129	-0,86
822,56	-0,84
822,991	-0,81
823,423	-0,78
823,854	-0,77
824,286	-0,74
824,717	-0,73
825,148	-0,71
825,579	-0,7
826,01	-0,68
826,442	-0,67
826,873	-0,65
827,304	-0,62
827,735	-0,61
828,166	-0,61
828,597	-0,61
829,028	-0,6
829,459	-0,61
829,89	-0,61
830,321	-0,56
830,752	-0,57
831,183	-0,56
831,613	-0,55
832,044	-0,55
832,475	-0,54
832,906	-0,55
833,336	-0,55
833,767	-0,55
834,198	-0,54
834,628	-0,52
835,059	-0,54
835,49	-0,54
835,92	-0,51
836,351	-0,52
836,781	-0,52
837,212	-0,54
837,642	-0,54
838,072	-0,52
838,503	-0,52
838,933	-0,5
839,364	-0,51
839,794	-0,49
840,224	-0,49
840,654	-0,53
841,085	-0,53
841,515	-0,51
841,945	-0,51
842,375	-0,47
842,805	-0,46
843,235	-0,45
843,665	-0,47
844,095	-0,46
844,525	-0,48
844,955	-0,48
845,385	-0,46
845,815	-0,44
846,245	-0,46
846,675	-0,47
847,105	-0,49
847,534	-0,49
847,964	-0,47
848,394	-0,45
848,824	-0,49
849,253	-0,48
849,683	-0,48
850,112	-0,49
850,542	-0,53
850,972	-0,53
851,401	-0,51
851,831	-0,49
852,26	-0,5
852,69	-0,53
853,119	-0,52
853,548	-0,53
853,978	-0,53
854,407	-0,5
854,836	-0,51
855,266	-0,49
855,695	-0,51
856,124	-0,52
856,553	-0,53
856,983	-0,54
857,412	-0,53
857,841	-0,54
858,27	-0,54
858,699	-0,54
859,128	-0,59
859,557	-0,6
859,986	-0,62
860,415	-0,6
860,844	-0,57
861,273	-0,58
861,702	-0,59
862,13	-0,58
862,559	-0,6
862,988	-0,58
863,417	-0,57
863,845	-0,55
864,274	-0,56
864,703	-0,54
865,131	-0,54
865,56	-0,55
865,989	-0,57
866,417	-0,54
866,846	-0,55
867,274	-0,53
867,703	-0,56
868,131	-0,57
868,559	-0,58
868,988	-0,61
869,416	-0,61
869,844	-0,62
870,273	-0,65
870,701	-0,62
871,129	-0,65
871,557	-0,68
871,986	-0,68
872,414	-0,69
872,842	-0,67
873,27	-0,64
873,698	-0,61
874,126	-0,64
874,554	-0,63
874,982	-0,63
875,41	-0,66
875,838	-0,61
876,266	-0,58
876,694	-0,58
877,122	-0,56
877,549	-0,62
877,977	-0,59
878,405	-0,61
878,833	-0,58
879,26	-0,56
879,688	-0,56
880,116	-0,54
880,543	-0,53
880,971	-0,52
881,399	-0,55
881,826	-0,56
882,254	-0,54
882,681	-0,56
883,109	-0,53
883,536	-0,55
883,963	-0,56
884,391	-0,53
884,818	-0,52
885,245	-0,56
885,673	-0,58
886,1	-0,56
886,527	-0,56
886,954	-0,52
887,381	-0,54
887,809	-0,55
888,236	-0,56
888,663	-0,58
889,09	-0,62
889,517	-0,63
889,944	-0,62
890,371	-0,61
890,798	-0,61
891,225	-0,61
891,652	-0,64
892,078	-0,61
892,505	-0,64
892,932	-0,6
893,359	-0,6
893,786	-0,6
894,212	-0,57
894,639	-0,59
895,066	-0,61
895,492	-0,55
895,919	-0,54
896,346	-0,54
896,772	-0,54
897,199	-0,51
897,625	-0,54
898,052	-0,51
898,478	-0,49
898,904	-0,5
899,331	-0,5
899,757	-0,51
900,183	-0,54
900,61	-0,53
901,036	-0,53
901,462	-0,53
901,888	-0,53
902,315	-0,52
902,741	-0,58
903,167	-0,56
903,593	-0,59
904,019	-0,57
904,445	-0,55
904,871	-0,58
905,297	-0,61
905,723	-0,6
906,149	-0,59
906,575	-0,59
907,001	-0,59
907,427	-0,56
907,852	-0,55
908,278	-0,56
908,704	-0,54
909,13	-0,52
909,555	-0,52
909,981	-0,51
910,407	-0,51
910,832	-0,5
911,258	-0,52
911,684	-0,52
912,109	-0,52
912,535	-0,54
912,96	-0,5
913,386	-0,54
913,811	-0,55
914,236	-0,56
914,662	-0,54
915,087	-0,58
915,512	-0,58
915,938	-0,59
916,363	-0,58
916,788	-0,6
917,213	-0,57
917,639	-0,63
918,064	-0,61
918,489	-0,6
918,914	-0,61
919,339	-0,61
919,764	-0,58
920,189	-0,58
920,614	-0,6
921,039	-0,6
921,464	-0,56
921,889	-0,58
922,314	-0,59
922,738	-0,62
923,163	-0,62
923,588	-0,61
924,013	-0,62
924,437	-0,62
924,862	-0,62
925,287	-0,58
925,711	-0,6
926,136	-0,61
926,561	-0,59
926,985	-0,58
927,41	-0,55
927,834	-0,53
928,259	-0,51
928,683	-0,49
929,108	-0,47
929,532	-0,48
929,956	-0,48
930,381	-0,47
930,805	-0,47
931,229	-0,47
931,653	-0,45
932,078	-0,45
932,502	-0,47
932,926	-0,48
933,35	-0,47
933,774	-0,47
934,198	-0,45
934,622	-0,44
935,046	-0,44
935,47	-0,44
935,894	-0,44
936,318	-0,43
936,742	-0,43
937,166	-0,43
937,59	-0,43
938,014	-0,45
938,437	-0,46
938,861	-0,48
939,285	-0,48
939,709	-0,48
940,132	-0,48
940,556	-0,49
940,98	-0,48
941,403	-0,46
941,827	-0,46
942,25	-0,48
942,674	-0,47
943,097	-0,47
943,521	-0,46
943,944	-0,47
944,368	-0,46
944,791	-0,45
945,214	-0,47
945,638	-0,48
946,061	-0,52
946,484	-0,53
946,907	-0,52
947,331	-0,51
947,754	-0,55
948,177	-0,52
948,6	-0,52
949,023	-0,51
949,446	-0,52
949,869	-0,49
950,292	-0,48
950,715	-0,45
951,138	-0,44
951,561	-0,41
951,984	-0,42
952,407	-0,4
952,83	-0,38
953,252	-0,35
953,675	-0,35
954,098	-0,37
954,521	-0,36
954,943	-0,35
955,366	-0,36
955,789	-0,34
956,211	-0,36
956,634	-0,37
957,056	-0,35
957,479	-0,36
957,902	-0,38
958,324	-0,39
958,746	-0,36
959,169	-0,37
959,591	-0,38
960,014	-0,38
960,436	-0,38
960,858	-0,37
961,281	-0,38
961,703	-0,39
962,125	-0,39
962,547	-0,37
962,969	-0,37
963,391	-0,38
963,814	-0,4
964,236	-0,39
964,658	-0,37
965,08	-0,37
965,502	-0,37
965,924	-0,34
966,346	-0,34
966,768	-0,33
967,189	-0,36
967,611	-0,35
968,033	-0,35
968,455	-0,33
968,877	-0,34
969,298	-0,34
969,72	-0,36
970,142	-0,35
970,563	-0,35
970,985	-0,34
971,407	-0,33
971,828	-0,31
972,25	-0,31
972,671	-0,3
973,093	-0,29
973,514	-0,27
973,936	-0,26
974,357	-0,25
974,778	-0,24
975,2	-0,24
975,621	-0,23
976,042	-0,21
976,464	-0,2
976,885	-0,2
977,306	-0,19
977,727	-0,19
978,148	-0,18
978,57	-0,17
978,991	-0,16
979,412	-0,16
979,833	-0,16
980,254	-0,15
980,675	-0,16
981,096	-0,15
981,517	-0,14
981,937	-0,13
982,358	-0,12
982,779	-0,1
983,2	-0,1
983,621	-0,09
984,042	-0,08
984,462	-0,07
984,883	-0,05
985,304	-0,04
985,724	-0,03
986,145	-0,03
986,565	-0,01
986,986	-0
987,407	0
987,827	0,01
988,248	0,02
988,668	0,03
989,088	0,03
989,509	0,04
989,929	0,05
990,35	0,06
990,77	0,07
991,19	0,07
991,61	0,08
992,031	0,08
992,451	0,09
992,871	0,09
993,291	0,1
993,711	0,11
994,131	0,11
994,551	0,11
994,971	0,12
995,391	0,12
995,811	0,12
996,231	0,13
996,651	0,13
997,071	0,13
997,491	0,14
997,911	0,14
998,331	0,15
998,75	0,15
999,17	0,15
999,59	0,16
1000,009	0,16
1000,429	0,16
1000,849	0,17
1001,268	0,17
1001,688	0,17
1002,107	0,17
1002,527	0,17
1002,946	0,18
1003,366	0,18
1003,785	0,18
1004,205	0,18
1004,624	0,18
1005,044	0,19
1005,463	0,19
1005,882	0,19
1006,301	0,19
1006,721	0,19
1007,14	0,19
1007,559	0,19
1007,978	0,19
1008,397	0,19
1008,816	0,19
1009,235	0,19
1009,655	0,19
1010,074	0,18
1010,492	0,18
1010,911	0,18
1011,33	0,18
1011,749	0,18
1012,168	0,18
1012,587	0,18
1013,006	0,18
1013,425	0,18
1013,843	0,18
1014,262	0,18
1014,681	0,18
1015,099	0,18
1015,518	0,18
1015,937	0,18
1016,355	0,18
1016,774	0,18
1017,192	0,18
1017,611	0,18
1018,029	0,18
1018,448	0,18
1018,866	0,18
1019,285	0,18
1019,703	0,18
1020,121	0,18
1020,54	0,18
1020,958	0,18
1021,376	0,18
1021,794	0,18
1022,213	0,18
1022,631	0,18
1023,049	0,18
1023,467	0,18
1023,885	0,18
1024,303	0,18
1024,721	0,18
1025,139	0,18
1025,557	0,18
1025,975	0,18
1026,393	0,18
1026,811	0,18
1027,229	0,17
1027,647	0,17
1028,065	0,17
1028,482	0,17
1028,9	0,17
1029,318	0,17
1029,735	0,17
1030,153	0,17
1030,571	0,17
1030,988	0,17
1031,406	0,17
1031,823	0,17
1032,241	0,17
1032,659	0,17
1033,076	0,17
1033,493	0,17
1033,911	0,17
1034,328	0,17
1034,746	0,17
1035,163	0,17
1035,58	0,17
1035,997	0,17
1036,415	0,17
1036,832	0,17
1037,249	0,17
1037,666	0,17
1038,083	0,17
1038,501	0,17
1038,918	0,17
1039,335	0,17
1039,752	0,17
1040,169	0,17
1040,586	0,17
1041,003	0,17
1041,419	0,17
1041,836	0,17
1042,253	0,17
1042,67	0,17
1043,087	0,17
1043,504	0,17
1043,92	0,17
1044,337	0,16
1044,754	0,16
1045,17	0,16
1045,587	0,16
1046,004	0,16
1046,42	0,16
1046,837	0,16
1047,253	0,16
1047,67	0,16
1048,086	0,16
1048,503	0,16
1048,919	0,16
1049,335	0,16
1049,752	0,16
1050,168	0,16
1050,584	0,16
1051,001	0,16
1051,417	0,16
1051,833	0,16
1052,249	0,16
1052,665	0,16
1053,081	0,16
1053,497	0,16
1053,914	0,16
1054,33	0,16
1054,746	0,16
1055,162	0,16
1055,578	0,16
1055,993	0,16
1056,409	0,16
1056,825	0,16
1057,241	0,16
1057,657	0,16
1058,073	0,16
1058,488	0,16
1058,904	0,16
1059,32	0,16
1059,736	0,16
1060,151	0,16
1060,567	0,16
1060,982	0,16
1061,398	0,16
1061,813	0,16
1062,229	0,16
1062,644	0,16
1063,06	0,16
1063,475	0,16
1063,891	0,16
1064,306	0,16
1064,721	0,16
1065,137	0,16
1065,552	0,16
1065,967	0,16
1066,382	0,16
1066,798	0,16
1067,213	0,16
1067,628	0,16
1068,043	0,16
1068,458	0,16
1068,873	0,16
1069,288	0,16
1069,703	0,16
1070,118	0,16
1070,533	0,16
1070,948	0,17
1071,363	0,17
1071,778	0,17
1072,193	0,17
1072,607	0,17
1073,022	0,17
1073,437	0,17
1073,852	0,17
1074,266	0,17
1074,681	0,17
1075,096	0,17
1075,51	0,17
1075,925	0,17
1076,339	0,17
1076,754	0,17
1077,168	0,17
1077,583	0,17
1077,997	0,17
1078,412	0,17
1078,826	0,17
1079,24	0,16
1079,655	0,16
1080,069	0,16
1080,483	0,16
1080,897	0,16
1081,312	0,16
1081,726	0,16
1082,14	0,16
1082,554	0,16
1082,968	0,16
1083,382	0,16
1083,796	0,16
1084,21	0,16
1084,624	0,16
1085,038	0,16
1085,452	0,16
1085,866	0,15
1086,28	0,15
1086,694	0,15
1087,108	0,15
1087,521	0,15
1087,935	0,15
1088,349	0,15
1088,763	0,15
1089,176	0,15
1089,59	0,15
1090,004	0,15
1090,417	0,14
1090,831	0,14
1091,244	0,14
1091,658	0,14
1092,071	0,14
1092,485	0,13
1092,898	0,13
1093,312	0,13
1093,725	0,13
1094,138	0,13
1094,552	0,13
1094,965	0,13
1095,378	0,13
1095,791	0,12
1096,205	0,12
1096,618	0,12
1097,031	0,12
1097,444	0,12
1097,857	0,12
1098,27	0,12
1098,683	0,12
1099,096	0,12
1099,509	0,11
1099,922	0,11
1100,335	0,11
1100,748	0,11
1101,161	0,1
1101,574	0,1
1101,986	0,1
1102,399	0,1
1102,812	0,09
1103,225	0,09
1103,637	0,09
1104,05	0,09
1104,463	0,09
1104,875	0,09
1105,288	0,08
1105,7	0,08
1106,113	0,08
1106,525	0,08
1106,938	0,07
1107,35	0,07
1107,763	0,06
1108,175	0,06
1108,588	0,06
1109	0,06
1109,412	0,05
1109,824	0,05
1110,237	0,05
1110,649	0,05
1111,061	0,04
