Data from 18C-808nm-8A_Absorbance__906__00906.txt Node

Date: Mon Jul 17 16:54:08 CEST 2023
User: Laser008
Spectrometer: MAYP115816
Trigger mode: 0
Integration Time (sec): 2,500000E-1
Scans to average: 10
Electric dark correction enabled: true
Nonlinearity correction enabled: true
Boxcar width: 5
XAxis mode: Wavelengths
Number of Pixels in Spectrum: 2068
>>>>>Begin Spectral Data<<<<<
198,914	-0,65
199,384	-0,45
199,855	-0,35
200,325	-0,28
200,796	-0,26
201,266	-0,22
201,737	-0,2
202,207	-0,19
202,677	-0,18
203,147	-0,17
203,618	-0,16
204,088	-0,14
204,558	-0,13
205,028	-0,12
205,498	-0,12
205,968	-0,12
206,439	-0,13
206,909	-0,13
207,379	-0,13
207,849	-0,14
208,319	-0,15
208,789	-0,15
209,258	-0,15
209,728	-0,17
210,198	-0,17
210,668	-0,17
211,138	-0,16
211,608	-0,16
212,077	-0,16
212,547	-0,16
213,017	-0,15
213,486	-0,15
213,956	-0,15
214,426	-0,16
214,895	-0,16
215,365	-0,16
215,834	-0,16
216,304	-0,17
216,773	-0,18
217,243	-0,19
217,712	-0,2
218,181	-0,2
218,651	-0,2
219,12	-0,2
219,589	-0,19
220,058	-0,18
220,528	-0,18
220,997	-0,19
221,466	-0,2
221,935	-0,2
222,404	-0,2
222,873	-0,19
223,342	-0,19
223,812	-0,19
224,281	-0,19
224,749	-0,2
225,218	-0,22
225,687	-0,22
226,156	-0,21
226,625	-0,2
227,094	-0,2
227,563	-0,2
228,031	-0,21
228,5	-0,21
228,969	-0,23
229,438	-0,22
229,906	-0,21
230,375	-0,2
230,844	-0,2
231,312	-0,2
231,781	-0,2
232,249	-0,18
232,718	-0,19
233,186	-0,17
233,655	-0,17
234,123	-0,16
234,591	-0,17
235,06	-0,17
235,528	-0,18
235,996	-0,17
236,465	-0,17
236,933	-0,17
237,401	-0,17
237,869	-0,16
238,337	-0,17
238,805	-0,16
239,274	-0,15
239,742	-0,14
240,21	-0,14
240,678	-0,13
241,146	-0,12
241,614	-0,13
242,081	-0,12
242,549	-0,12
243,017	-0,13
243,485	-0,13
243,953	-0,13
244,421	-0,13
244,888	-0,13
245,356	-0,14
245,824	-0,13
246,291	-0,14
246,759	-0,15
247,227	-0,16
247,694	-0,15
248,162	-0,14
248,629	-0,13
249,097	-0,14
249,564	-0,14
250,032	-0,15
250,499	-0,14
250,967	-0,15
251,434	-0,15
251,901	-0,14
252,369	-0,14
252,836	-0,15
253,303	-0,17
253,77	-0,19
254,237	-0,19
254,705	-0,19
255,172	-0,18
255,639	-0,18
256,106	-0,2
256,573	-0,2
257,04	-0,2
257,507	-0,2
257,974	-0,2
258,441	-0,18
258,908	-0,18
259,375	-0,19
259,841	-0,19
260,308	-0,2
260,775	-0,19
261,242	-0,18
261,709	-0,19
262,175	-0,2
262,642	-0,2
263,109	-0,19
263,575	-0,21
264,042	-0,19
264,508	-0,19
264,975	-0,2
265,441	-0,21
265,908	-0,22
266,374	-0,21
266,841	-0,22
267,307	-0,21
267,773	-0,2
268,24	-0,21
268,706	-0,21
269,172	-0,22
269,639	-0,23
270,105	-0,22
270,571	-0,22
271,037	-0,22
271,503	-0,23
271,969	-0,23
272,435	-0,23
272,902	-0,24
273,368	-0,25
273,834	-0,24
274,3	-0,25
274,765	-0,25
275,231	-0,25
275,697	-0,24
276,163	-0,24
276,629	-0,24
277,095	-0,25
277,56	-0,24
278,026	-0,25
278,492	-0,23
278,958	-0,24
279,423	-0,24
279,889	-0,22
280,354	-0,22
280,82	-0,22
281,286	-0,23
281,751	-0,23
282,217	-0,21
282,682	-0,22
283,147	-0,21
283,613	-0,23
284,078	-0,22
284,544	-0,24
285,009	-0,25
285,474	-0,25
285,939	-0,26
286,405	-0,25
286,87	-0,24
287,335	-0,24
287,8	-0,23
288,265	-0,22
288,73	-0,22
289,195	-0,25
289,66	-0,24
290,125	-0,22
290,59	-0,23
291,055	-0,22
291,52	-0,22
291,985	-0,23
292,45	-0,25
292,915	-0,25
293,38	-0,26
293,844	-0,24
294,309	-0,22
294,774	-0,21
295,239	-0,23
295,703	-0,23
296,168	-0,22
296,632	-0,22
297,097	-0,2
297,562	-0,19
298,026	-0,2
298,491	-0,19
298,955	-0,19
299,419	-0,19
299,884	-0,18
300,348	-0,17
300,813	-0,17
301,277	-0,17
301,741	-0,17
302,205	-0,17
302,67	-0,16
303,134	-0,15
303,598	-0,15
304,062	-0,15
304,526	-0,14
304,99	-0,15
305,454	-0,16
305,919	-0,15
306,383	-0,16
306,847	-0,16
307,31	-0,17
307,774	-0,18
308,238	-0,18
308,702	-0,17
309,166	-0,19
309,63	-0,19
310,094	-0,16
310,557	-0,16
311,021	-0,16
311,485	-0,16
311,948	-0,15
312,412	-0,14
312,876	-0,13
313,339	-0,14
313,803	-0,15
314,266	-0,14
314,73	-0,14
315,193	-0,14
315,657	-0,13
316,12	-0,13
316,584	-0,11
317,047	-0,11
317,51	-0,11
317,973	-0,11
318,437	-0,1
318,9	-0,08
319,363	-0,09
319,826	-0,08
320,29	-0,09
320,753	-0,1
321,216	-0,09
321,679	-0,1
322,142	-0,09
322,605	-0,1
323,068	-0,11
323,531	-0,11
323,994	-0,11
324,457	-0,11
324,92	-0,1
325,382	-0,09
325,845	-0,09
326,308	-0,08
326,771	-0,08
327,233	-0,08
327,696	-0,07
328,159	-0,06
328,622	-0,05
329,084	-0,06
329,547	-0,05
330,009	-0,05
330,472	-0,04
330,934	-0,03
331,397	-0,03
331,859	-0,03
332,322	-0,02
332,784	-0,02
333,246	-0,01
333,709	-0,02
334,171	-0,01
334,633	-0,01
335,096	-0,02
335,558	-0,02
336,02	-0,01
336,482	-0,01
336,944	0
337,406	0,01
337,868	0,01
338,331	0,01
338,793	0,02
339,255	0,03
339,717	0,03
340,178	0,04
340,64	0,05
341,102	0,04
341,564	0,05
342,026	0,05
342,488	0,06
342,949	0,07
343,411	0,09
343,873	0,11
344,335	0,12
344,796	0,14
345,258	0,17
345,719	0,19
346,181	0,22
346,643	0,24
347,104	0,25
347,566	0,27
348,027	0,29
348,488	0,3
348,95	0,31
349,411	0,32
349,873	0,33
350,334	0,33
350,795	0,34
351,256	0,35
351,718	0,35
352,179	0,35
352,64	0,35
353,101	0,36
353,562	0,36
354,023	0,36
354,484	0,36
354,945	0,36
355,406	0,36
355,867	0,36
356,328	0,36
356,789	0,36
357,25	0,37
357,711	0,37
358,172	0,37
358,633	0,37
359,093	0,37
359,554	0,37
360,015	0,37
360,476	0,37
360,936	0,37
361,397	0,37
361,858	0,37
362,318	0,37
362,779	0,37
363,239	0,37
363,7	0,37
364,16	0,37
364,621	0,37
365,081	0,37
365,541	0,37
366,002	0,37
366,462	0,37
366,922	0,37
367,383	0,37
367,843	0,37
368,303	0,37
368,763	0,37
369,223	0,37
369,684	0,37
370,144	0,37
370,604	0,37
371,064	0,37
371,524	0,37
371,984	0,37
372,444	0,37
372,904	0,37
373,363	0,37
373,823	0,37
374,283	0,37
374,743	0,37
375,203	0,37
375,663	0,36
376,122	0,36
376,582	0,36
377,042	0,36
377,501	0,36
377,961	0,36
378,42	0,36
378,88	0,36
379,34	0,36
379,799	0,36
380,259	0,36
380,718	0,36
381,177	0,36
381,637	0,36
382,096	0,36
382,555	0,36
383,015	0,36
383,474	0,36
383,933	0,36
384,393	0,36
384,852	0,36
385,311	0,36
385,77	0,36
386,229	0,36
386,688	0,36
387,147	0,36
387,606	0,36
388,065	0,36
388,524	0,36
388,983	0,36
389,442	0,36
389,901	0,36
390,36	0,36
390,819	0,36
391,277	0,36
391,736	0,36
392,195	0,36
392,654	0,36
393,112	0,36
393,571	0,36
394,03	0,36
394,488	0,36
394,947	0,36
395,405	0,36
395,864	0,36
396,322	0,36
396,781	0,36
397,239	0,36
397,698	0,36
398,156	0,36
398,614	0,36
399,073	0,36
399,531	0,35
399,989	0,35
400,447	0,35
400,905	0,35
401,364	0,35
401,822	0,35
402,28	0,35
402,738	0,35
403,196	0,35
403,654	0,35
404,112	0,35
404,57	0,35
405,028	0,35
405,486	0,35
405,944	0,35
406,402	0,35
406,859	0,35
407,317	0,35
407,775	0,35
408,233	0,35
408,691	0,35
409,148	0,35
409,606	0,35
410,064	0,35
410,521	0,35
410,979	0,35
411,436	0,35
411,894	0,35
412,351	0,35
412,809	0,35
413,266	0,35
413,724	0,35
414,181	0,35
414,638	0,35
415,096	0,35
415,553	0,35
416,01	0,35
416,467	0,35
416,925	0,35
417,382	0,35
417,839	0,35
418,296	0,35
418,753	0,35
419,21	0,35
419,667	0,35
420,124	0,35
420,581	0,35
421,038	0,35
421,495	0,35
421,952	0,35
422,409	0,35
422,866	0,35
423,322	0,35
423,779	0,35
424,236	0,35
424,693	0,35
425,149	0,35
425,606	0,35
426,063	0,35
426,519	0,35
426,976	0,35
427,433	0,35
427,889	0,35
428,346	0,35
428,802	0,34
429,258	0,34
429,715	0,34
430,171	0,34
430,628	0,34
431,084	0,34
431,54	0,34
431,997	0,34
432,453	0,34
432,909	0,34
433,365	0,34
433,821	0,34
434,277	0,34
434,734	0,34
435,19	0,34
435,646	0,34
436,102	0,34
436,558	0,34
437,014	0,34
437,47	0,34
437,925	0,34
438,381	0,34
438,837	0,34
439,293	0,34
439,749	0,34
440,205	0,34
440,66	0,34
441,116	0,34
441,572	0,34
442,027	0,34
442,483	0,34
442,939	0,34
443,394	0,34
443,85	0,34
444,305	0,34
444,761	0,34
445,216	0,34
445,672	0,34
446,127	0,34
446,582	0,34
447,038	0,34
447,493	0,34
447,948	0,34
448,403	0,34
448,859	0,34
449,314	0,34
449,769	0,34
450,224	0,34
450,679	0,34
451,134	0,34
451,589	0,34
452,044	0,34
452,499	0,34
452,954	0,34
453,409	0,34
453,864	0,34
454,319	0,34
454,774	0,34
455,229	0,34
455,684	0,34
456,138	0,34
456,593	0,34
457,048	0,34
457,503	0,34
457,957	0,34
458,412	0,34
458,866	0,34
459,321	0,34
459,776	0,34
460,23	0,34
460,685	0,34
461,139	0,34
461,593	0,34
462,048	0,34
462,502	0,34
462,957	0,34
463,411	0,34
463,865	0,34
464,319	0,34
464,774	0,35
465,228	0,35
465,682	0,35
466,136	0,35
466,59	0,35
467,044	0,35
467,499	0,35
467,953	0,35
468,407	0,35
468,861	0,35
469,315	0,35
469,768	0,35
470,222	0,35
470,676	0,35
471,13	0,35
471,584	0,35
472,038	0,35
472,491	0,35
472,945	0,35
473,399	0,35
473,852	0,35
474,306	0,35
474,76	0,35
475,213	0,35
475,667	0,35
476,12	0,35
476,574	0,35
477,027	0,35
477,481	0,35
477,934	0,36
478,388	0,36
478,841	0,36
479,294	0,36
479,748	0,36
480,201	0,36
480,654	0,36
481,107	0,36
481,561	0,36
482,014	0,36
482,467	0,36
482,92	0,36
483,373	0,36
483,826	0,37
484,279	0,37
484,732	0,37
485,185	0,37
485,638	0,37
486,091	0,37
486,544	0,37
486,997	0,37
487,449	0,37
487,902	0,37
488,355	0,37
488,808	0,37
489,26	0,38
489,713	0,38
490,166	0,38
490,618	0,38
491,071	0,38
491,523	0,38
491,976	0,38
492,429	0,39
492,881	0,39
493,333	0,39
493,786	0,39
494,238	0,39
494,691	0,39
495,143	0,39
495,595	0,4
496,048	0,4
496,5	0,4
496,952	0,4
497,404	0,4
497,856	0,4
498,309	0,41
498,761	0,41
499,213	0,41
499,665	0,41
500,117	0,41
500,569	0,42
501,021	0,42
501,473	0,42
501,925	0,42
502,377	0,42
502,828	0,43
503,28	0,43
503,732	0,43
504,184	0,43
504,636	0,43
505,087	0,44
505,539	0,44
505,991	0,44
506,442	0,44
506,894	0,44
507,345	0,44
507,797	0,45
508,249	0,45
508,7	0,45
509,151	0,45
509,603	0,45
510,054	0,46
510,506	0,46
510,957	0,46
511,408	0,46
511,86	0,46
512,311	0,47
512,762	0,47
513,213	0,47
513,665	0,47
514,116	0,47
514,567	0,47
515,018	0,48
515,469	0,48
515,92	0,48
516,371	0,48
516,822	0,48
517,273	0,48
517,724	0,49
518,175	0,49
518,626	0,49
519,076	0,49
519,527	0,49
519,978	0,49
520,429	0,49
520,88	0,49
521,33	0,5
521,781	0,5
522,232	0,5
522,682	0,5
523,133	0,5
523,583	0,5
524,034	0,5
524,484	0,5
524,935	0,5
525,385	0,51
525,836	0,51
526,286	0,51
526,736	0,51
527,187	0,51
527,637	0,51
528,087	0,51
528,538	0,51
528,988	0,51
529,438	0,51
529,888	0,51
530,338	0,5
530,788	0,5
531,238	0,5
531,688	0,5
532,139	0,5
532,589	0,5
533,038	0,5
533,488	0,5
533,938	0,5
534,388	0,5
534,838	0,5
535,288	0,5
535,738	0,5
536,187	0,5
536,637	0,5
537,087	0,5
537,537	0,49
537,986	0,49
538,436	0,49
538,885	0,49
539,335	0,49
539,785	0,48
540,234	0,48
540,684	0,48
541,133	0,48
541,582	0,48
542,032	0,48
542,481	0,47
542,931	0,47
543,38	0,47
543,829	0,47
544,278	0,47
544,728	0,46
545,177	0,46
545,626	0,46
546,075	0,46
546,524	0,46
546,973	0,46
547,422	0,45
547,871	0,45
548,32	0,45
548,769	0,45
549,218	0,45
549,667	0,45
550,116	0,45
550,565	0,45
551,014	0,45
551,463	0,45
551,911	0,45
552,36	0,45
552,809	0,44
553,258	0,44
553,706	0,44
554,155	0,44
554,603	0,44
555,052	0,44
555,501	0,43
555,949	0,43
556,398	0,43
556,846	0,43
557,294	0,43
557,743	0,43
558,191	0,42
558,64	0,42
559,088	0,42
559,536	0,42
559,985	0,42
560,433	0,42
560,881	0,42
561,329	0,41
561,777	0,41
562,225	0,41
562,674	0,41
563,122	0,41
563,57	0,41
564,018	0,4
564,466	0,4
564,914	0,4
565,362	0,4
565,809	0,4
566,257	0,4
566,705	0,39
567,153	0,39
567,601	0,39
568,048	0,39
568,496	0,39
568,944	0,39
569,392	0,39
569,839	0,38
570,287	0,38
570,734	0,38
571,182	0,38
571,63	0,38
572,077	0,38
572,525	0,38
572,972	0,38
573,419	0,37
573,867	0,37
574,314	0,37
574,761	0,37
575,209	0,37
575,656	0,37
576,103	0,37
576,551	0,37
576,998	0,37
577,445	0,36
577,892	0,36
578,339	0,36
578,786	0,36
579,233	0,36
579,68	0,36
580,127	0,36
580,574	0,36
581,021	0,36
581,468	0,36
581,915	0,35
582,362	0,35
582,809	0,35
583,255	0,35
583,702	0,35
584,149	0,35
584,596	0,35
585,042	0,35
585,489	0,35
585,936	0,35
586,382	0,34
586,829	0,34
587,275	0,34
587,722	0,34
588,168	0,34
588,615	0,34
589,061	0,34
589,508	0,34
589,954	0,34
590,4	0,34
590,847	0,34
591,293	0,34
591,739	0,34
592,185	0,34
592,632	0,34
593,078	0,34
593,524	0,34
593,97	0,34
594,416	0,33
594,862	0,33
595,308	0,33
595,754	0,33
596,2	0,33
596,646	0,33
597,092	0,33
597,538	0,33
597,984	0,33
598,43	0,33
598,876	0,33
599,321	0,33
599,767	0,33
600,213	0,33
600,659	0,33
601,104	0,33
601,55	0,33
601,995	0,32
602,441	0,32
602,887	0,32
603,332	0,32
603,778	0,32
604,223	0,32
604,668	0,32
605,114	0,32
605,559	0,32
606,005	0,32
606,45	0,32
606,895	0,32
607,341	0,32
607,786	0,32
608,231	0,32
608,676	0,32
609,121	0,31
609,566	0,31
610,012	0,31
610,457	0,31
610,902	0,3
611,347	0,3
611,792	0,3
612,237	0,3
612,682	0,3
613,127	0,3
613,571	0,3
614,016	0,3
614,461	0,3
614,906	0,31
615,351	0,31
615,795	0,31
616,24	0,31
616,685	0,31
617,129	0,31
617,574	0,31
618,019	0,31
618,463	0,31
618,908	0,31
619,352	0,31
619,797	0,31
620,241	0,31
620,686	0,31
621,13	0,31
621,574	0,31
622,019	0,31
622,463	0,31
622,907	0,31
623,352	0,3
623,796	0,3
624,24	0,3
624,684	0,3
625,128	0,3
625,572	0,3
626,016	0,3
626,461	0,3
626,905	0,3
627,349	0,3
627,793	0,3
628,236	0,3
628,68	0,3
629,124	0,3
629,568	0,3
630,012	0,3
630,456	0,3
630,9	0,3
631,343	0,3
631,787	0,3
632,231	0,3
632,674	0,3
633,118	0,3
633,562	0,3
634,005	0,3
634,449	0,3
634,892	0,3
635,336	0,3
635,779	0,3
636,223	0,3
636,666	0,3
637,109	0,3
637,553	0,3
637,996	0,3
638,439	0,3
638,883	0,3
639,326	0,3
639,769	0,3
640,212	0,3
640,655	0,3
641,099	0,3
641,542	0,3
641,985	0,3
642,428	0,3
642,871	0,3
643,314	0,3
643,757	0,3
644,2	0,3
644,643	0,3
645,085	0,3
645,528	0,3
645,971	0,3
646,414	0,3
646,857	0,3
647,299	0,29
647,742	0,29
648,185	0,29
648,627	0,29
649,07	0,29
649,513	0,29
649,955	0,29
650,398	0,29
650,84	0,29
651,283	0,29
651,725	0,29
652,168	0,29
652,61	0,29
653,052	0,29
653,495	0,29
653,937	0,23
654,379	0,18
654,821	0,19
655,264	0,19
655,706	0,19
656,148	0,19
656,59	0,19
657,032	0,19
657,474	0,19
657,916	0,19
658,358	0,18
658,8	0,23
659,242	0,29
659,684	0,29
660,126	0,29
660,568	0,29
661,01	0,29
661,452	0,29
661,894	0,29
662,335	0,29
662,777	0,29
663,219	0,29
663,661	0,29
664,102	0,29
664,544	0,29
664,985	0,29
665,427	0,29
665,869	0,29
666,31	0,29
666,752	0,29
667,193	0,29
667,634	0,29
668,076	0,29
668,517	0,29
668,959	0,29
669,4	0,29
669,841	0,29
670,282	0,29
670,724	0,29
671,165	0,29
671,606	0,29
672,047	0,29
672,488	0,29
672,929	0,29
673,37	0,29
673,811	0,29
674,252	0,29
674,693	0,29
675,134	0,29
675,575	0,29
676,016	0,29
676,457	0,29
676,898	0,29
677,339	0,29
677,78	0,29
678,22	0,29
678,661	0,29
679,102	0,29
679,542	0,29
679,983	0,29
680,424	0,29
680,864	0,29
681,305	0,29
681,745	0,29
682,186	0,29
682,626	0,29
683,067	0,29
683,507	0,29
683,948	0,29
684,388	0,29
684,828	0,29
685,269	0,28
685,709	0,28
686,149	0,28
686,589	0,28
687,029	0,28
687,47	0,28
687,91	0,28
688,35	0,28
688,79	0,28
689,23	0,28
689,67	0,28
690,11	0,28
690,55	0,28
690,99	0,27
691,43	0,27
691,87	0,27
692,31	0,27
692,749	0,27
693,189	0,27
693,629	0,27
694,069	0,27
694,508	0,27
694,948	0,27
695,388	0,27
695,827	0,27
696,267	0,27
696,706	0,27
697,146	0,28
697,586	0,28
698,025	0,28
698,464	0,28
698,904	0,28
699,343	0,28
699,783	0,28
700,222	0,28
700,661	0,28
701,101	0,28
701,54	0,28
701,979	0,28
702,418	0,28
702,857	0,28
703,297	0,28
703,736	0,28
704,175	0,28
704,614	0,28
705,053	0,28
705,492	0,27
705,931	0,27
706,37	0,27
706,809	0,27
707,248	0,27
707,687	0,27
708,125	0,27
708,564	0,27
709,003	0,27
709,442	0,27
709,88	0,27
710,319	0,27
710,758	0,27
711,196	0,27
711,635	0,27
712,074	0,27
712,512	0,27
712,951	0,27
713,389	0,27
713,828	0,27
714,266	0,27
714,705	0,27
715,143	0,26
715,581	0,26
716,02	0,26
716,458	0,26
716,896	0,26
717,334	0,26
717,773	0,26
718,211	0,26
718,649	0,26
719,087	0,26
719,525	0,26
719,963	0,26
720,401	0,26
720,839	0,26
721,277	0,26
721,715	0,26
722,153	0,26
722,591	0,26
723,029	0,26
723,467	0,26
723,905	0,26
724,342	0,26
724,78	0,26
725,218	0,26
725,656	0,26
726,093	0,26
726,531	0,26
726,969	0,26
727,406	0,26
727,844	0,26
728,281	0,26
728,719	0,26
729,156	0,26
729,594	0,26
730,031	0,26
730,469	0,26
730,906	0,26
731,343	0,26
731,781	0,26
732,218	0,26
732,655	0,26
733,092	0,26
733,53	0,26
733,967	0,26
734,404	0,26
734,841	0,26
735,278	0,26
735,715	0,26
736,152	0,25
736,589	0,25
737,026	0,25
737,463	0,25
737,9	0,25
738,337	0,25
738,774	0,25
739,211	0,25
739,647	0,25
740,084	0,25
740,521	0,25
740,958	0,25
741,394	0,25
741,831	0,25
742,268	0,25
742,704	0,24
743,141	0,24
743,577	0,24
744,014	0,24
744,45	0,24
744,887	0,24
745,323	0,24
745,76	0,24
746,196	0,24
746,632	0,24
747,069	0,24
747,505	0,24
747,941	0,24
748,378	0,24
748,814	0,24
749,25	0,24
749,686	0,24
750,122	0,24
750,558	0,24
750,994	0,24
751,43	0,24
751,866	0,25
752,302	0,25
752,738	0,25
753,174	0,25
753,61	0,25
754,046	0,25
754,482	0,25
754,918	0,25
755,354	0,25
755,789	0,25
756,225	0,25
756,661	0,25
757,096	0,25
757,532	0,25
757,968	0,25
758,403	0,24
758,839	0,24
759,274	0,24
759,71	0,24
760,145	0,24
760,581	0,23
761,016	0,23
761,452	0,23
761,887	0,22
762,322	0,22
762,758	0,22
763,193	0,21
763,628	0,21
764,063	0,21
764,499	0,2
764,934	0,2
765,369	0,19
765,804	0,18
766,239	0,18
766,674	0,18
767,109	0,17
767,544	0,16
767,979	0,16
768,414	0,15
768,849	0,15
769,284	0,14
769,719	0,14
770,154	0,13
770,588	0,13
771,023	0,12
771,458	0,11
771,893	0,1
772,327	0,09
772,762	0,09
773,197	0,08
773,631	0,07
774,066	0,06
774,5	0,06
774,935	0,05
775,369	0,04
775,804	0,03
776,238	0,03
776,673	0,02
777,107	0,01
777,541	0
777,976	-0,01
778,41	-0,01
778,844	-0,02
779,279	-0,02
779,713	-0,03
780,147	-0,03
780,581	-0,04
781,015	-0,05
781,449	-0,06
781,883	-0,07
782,317	-0,08
782,751	-0,09
783,185	-0,09
783,619	-0,1
784,053	-0,11
784,487	-0,12
784,921	-0,13
785,355	-0,14
785,789	-0,15
786,223	-0,16
786,656	-0,17
787,09	-0,17
787,524	-0,17
787,957	-0,19
788,391	-0,21
788,825	-0,22
789,258	-0,23
789,692	-0,24
790,125	-0,26
790,559	-0,27
790,992	-0,29
791,426	-0,31
791,859	-0,33
792,293	-0,36
792,726	-0,38
793,159	-0,4
793,593	-0,42
794,026	-0,45
794,459	-0,47
794,892	-0,5
795,326	-0,53
795,759	-0,56
796,192	-0,61
796,625	-0,65
797,058	-0,68
797,491	-0,72
797,924	-0,76
798,357	-0,81
798,79	-0,86
799,223	-0,9
799,656	-0,96
800,089	-1,01
800,522	-1,05
800,955	-1,1
801,387	-1,16
801,82	-1,21
802,253	-1,27
802,686	-1,35
803,118	-1,41
803,551	-1,46
803,984	-1,51
804,416	-1,55
804,849	-1,6
805,281	-1,75
805,714	-2,12
806,146	-2,51
806,579	-2,75
807,011	-2,9
807,444	-2,99
807,876	-3,06
808,308	-3,09
808,741	-3,12
809,173	-3,17
809,605	-3,19
810,037	-3,26
810,47	-3,17
810,902	-2,97
811,334	-2,81
811,766	-2,65
812,198	-2,38
812,63	-1,99
813,062	-1,81
813,494	-1,72
813,926	-1,64
814,358	-1,58
814,79	-1,5
815,222	-1,44
815,654	-1,39
816,086	-1,33
816,518	-1,27
816,949	-1,22
817,381	-1,18
817,813	-1,16
818,245	-1,12
818,676	-1,08
819,108	-1,04
819,54	-1,03
819,971	-1,01
820,403	-0,95
820,834	-0,94
821,266	-0,89
821,697	-0,87
822,129	-0,85
822,56	-0,83
822,991	-0,81
823,423	-0,78
823,854	-0,77
824,286	-0,74
824,717	-0,73
825,148	-0,71
825,579	-0,7
826,01	-0,69
826,442	-0,68
826,873	-0,66
827,304	-0,62
827,735	-0,62
828,166	-0,61
828,597	-0,61
829,028	-0,6
829,459	-0,61
829,89	-0,61
830,321	-0,57
830,752	-0,57
831,183	-0,57
831,613	-0,56
832,044	-0,55
832,475	-0,54
832,906	-0,57
833,336	-0,56
833,767	-0,56
834,198	-0,55
834,628	-0,53
835,059	-0,56
835,49	-0,57
835,92	-0,54
836,351	-0,55
836,781	-0,55
837,212	-0,56
837,642	-0,56
838,072	-0,54
838,503	-0,54
838,933	-0,52
839,364	-0,53
839,794	-0,51
840,224	-0,49
840,654	-0,53
841,085	-0,54
841,515	-0,51
841,945	-0,51
842,375	-0,47
842,805	-0,47
843,235	-0,45
843,665	-0,47
844,095	-0,45
844,525	-0,47
844,955	-0,48
845,385	-0,46
845,815	-0,43
846,245	-0,46
846,675	-0,46
847,105	-0,48
847,534	-0,47
847,964	-0,46
848,394	-0,44
848,824	-0,47
849,253	-0,46
849,683	-0,46
850,112	-0,47
850,542	-0,51
850,972	-0,51
851,401	-0,49
851,831	-0,47
852,26	-0,48
852,69	-0,51
853,119	-0,51
853,548	-0,51
853,978	-0,52
854,407	-0,51
854,836	-0,51
855,266	-0,49
855,695	-0,51
856,124	-0,53
856,553	-0,54
856,983	-0,56
857,412	-0,55
857,841	-0,56
858,27	-0,55
858,699	-0,57
859,128	-0,59
859,557	-0,61
859,986	-0,62
860,415	-0,6
860,844	-0,57
861,273	-0,58
861,702	-0,59
862,13	-0,57
862,559	-0,59
862,988	-0,56
863,417	-0,54
863,845	-0,54
864,274	-0,55
864,703	-0,54
865,131	-0,55
865,56	-0,55
865,989	-0,57
866,417	-0,55
866,846	-0,54
867,274	-0,54
867,703	-0,56
868,131	-0,57
868,559	-0,56
868,988	-0,58
869,416	-0,57
869,844	-0,58
870,273	-0,6
870,701	-0,58
871,129	-0,61
871,557	-0,64
871,986	-0,64
872,414	-0,66
872,842	-0,63
873,27	-0,61
873,698	-0,58
874,126	-0,62
874,554	-0,6
874,982	-0,59
875,41	-0,61
875,838	-0,57
876,266	-0,54
876,694	-0,55
877,122	-0,55
877,549	-0,6
877,977	-0,57
878,405	-0,6
878,833	-0,57
879,26	-0,56
879,688	-0,56
880,116	-0,54
880,543	-0,53
880,971	-0,52
881,399	-0,55
881,826	-0,55
882,254	-0,54
882,681	-0,57
883,109	-0,53
883,536	-0,55
883,963	-0,56
884,391	-0,54
884,818	-0,53
885,245	-0,56
885,673	-0,58
886,1	-0,54
886,527	-0,54
886,954	-0,5
887,381	-0,51
887,809	-0,53
888,236	-0,53
888,663	-0,54
889,09	-0,57
889,517	-0,6
889,944	-0,6
890,371	-0,58
890,798	-0,6
891,225	-0,59
891,652	-0,62
892,078	-0,59
892,505	-0,62
892,932	-0,58
893,359	-0,58
893,786	-0,57
894,212	-0,54
894,639	-0,56
895,066	-0,59
895,492	-0,53
895,919	-0,54
896,346	-0,54
896,772	-0,55
897,199	-0,52
897,625	-0,55
898,052	-0,52
898,478	-0,51
898,904	-0,52
899,331	-0,51
899,757	-0,52
900,183	-0,55
900,61	-0,52
901,036	-0,53
901,462	-0,52
901,888	-0,51
902,315	-0,5
902,741	-0,55
903,167	-0,54
903,593	-0,56
904,019	-0,55
904,445	-0,52
904,871	-0,54
905,297	-0,57
905,723	-0,57
906,149	-0,56
906,575	-0,57
907,001	-0,57
907,427	-0,55
907,852	-0,54
908,278	-0,55
908,704	-0,53
909,13	-0,52
909,555	-0,51
909,981	-0,5
910,407	-0,5
910,832	-0,49
911,258	-0,49
911,684	-0,5
912,109	-0,49
912,535	-0,51
912,96	-0,48
913,386	-0,52
913,811	-0,52
914,236	-0,53
914,662	-0,51
915,087	-0,55
915,512	-0,56
915,938	-0,58
916,363	-0,57
916,788	-0,59
917,213	-0,57
917,639	-0,61
918,064	-0,59
918,489	-0,59
918,914	-0,6
919,339	-0,62
919,764	-0,59
920,189	-0,59
920,614	-0,61
921,039	-0,61
921,464	-0,57
921,889	-0,6
922,314	-0,6
922,738	-0,63
923,163	-0,64
923,588	-0,63
924,013	-0,63
924,437	-0,62
924,862	-0,64
925,287	-0,6
925,711	-0,6
926,136	-0,62
926,561	-0,59
926,985	-0,58
927,41	-0,56
927,834	-0,54
928,259	-0,52
928,683	-0,5
929,108	-0,47
929,532	-0,48
929,956	-0,47
930,381	-0,47
930,805	-0,47
931,229	-0,47
931,653	-0,46
932,078	-0,46
932,502	-0,46
932,926	-0,47
933,35	-0,46
933,774	-0,46
934,198	-0,43
934,622	-0,43
935,046	-0,43
935,47	-0,43
935,894	-0,42
936,318	-0,42
936,742	-0,41
937,166	-0,42
937,59	-0,41
938,014	-0,44
938,437	-0,46
938,861	-0,48
939,285	-0,49
939,709	-0,48
940,132	-0,49
940,556	-0,49
940,98	-0,49
941,403	-0,48
941,827	-0,49
942,25	-0,51
942,674	-0,5
943,097	-0,49
943,521	-0,48
943,944	-0,49
944,368	-0,48
944,791	-0,47
945,214	-0,49
945,638	-0,49
946,061	-0,52
946,484	-0,53
946,907	-0,5
947,331	-0,5
947,754	-0,55
948,177	-0,52
948,6	-0,52
949,023	-0,52
949,446	-0,52
949,869	-0,5
950,292	-0,5
950,715	-0,46
951,138	-0,44
951,561	-0,42
951,984	-0,43
952,407	-0,4
952,83	-0,39
953,252	-0,36
953,675	-0,36
954,098	-0,36
954,521	-0,35
954,943	-0,34
955,366	-0,35
955,789	-0,34
956,211	-0,36
956,634	-0,36
957,056	-0,34
957,479	-0,36
957,902	-0,38
958,324	-0,39
958,746	-0,38
959,169	-0,38
959,591	-0,38
960,014	-0,39
960,436	-0,38
960,858	-0,38
961,281	-0,38
961,703	-0,39
962,125	-0,38
962,547	-0,37
962,969	-0,37
963,391	-0,38
963,814	-0,39
964,236	-0,38
964,658	-0,35
965,08	-0,37
965,502	-0,35
965,924	-0,33
966,346	-0,33
966,768	-0,33
967,189	-0,34
967,611	-0,34
968,033	-0,34
968,455	-0,32
968,877	-0,33
969,298	-0,35
969,72	-0,35
970,142	-0,34
970,563	-0,35
970,985	-0,34
971,407	-0,33
971,828	-0,31
972,25	-0,29
972,671	-0,27
973,093	-0,27
973,514	-0,25
973,936	-0,23
974,357	-0,22
974,778	-0,22
975,2	-0,22
975,621	-0,21
976,042	-0,18
976,464	-0,18
976,885	-0,17
977,306	-0,18
977,727	-0,18
978,148	-0,18
978,57	-0,16
978,991	-0,15
979,412	-0,14
979,833	-0,13
980,254	-0,13
980,675	-0,14
981,096	-0,14
981,517	-0,12
981,937	-0,12
982,358	-0,11
982,779	-0,09
983,2	-0,1
983,621	-0,1
984,042	-0,09
984,462	-0,08
984,883	-0,06
985,304	-0,05
985,724	-0,04
986,145	-0,03
986,565	-0,02
986,986	-0,01
987,407	-0,01
987,827	0,01
988,248	0,03
988,668	0,03
989,088	0,04
989,509	0,04
989,929	0,05
990,35	0,06
990,77	0,07
991,19	0,07
991,61	0,08
992,031	0,09
992,451	0,09
992,871	0,1
993,291	0,11
993,711	0,11
994,131	0,12
994,551	0,12
994,971	0,12
995,391	0,13
995,811	0,13
996,231	0,13
996,651	0,14
997,071	0,14
997,491	0,15
997,911	0,15
998,331	0,15
998,75	0,16
999,17	0,16
999,59	0,16
1000,009	0,17
1000,429	0,17
1000,849	0,17
1001,268	0,18
1001,688	0,18
1002,107	0,18
1002,527	0,18
1002,946	0,18
1003,366	0,18
1003,785	0,19
1004,205	0,19
1004,624	0,19
1005,044	0,19
1005,463	0,19
1005,882	0,19
1006,301	0,19
1006,721	0,2
1007,14	0,2
1007,559	0,2
1007,978	0,2
1008,397	0,2
1008,816	0,19
1009,235	0,19
1009,655	0,19
1010,074	0,19
1010,492	0,19
1010,911	0,19
1011,33	0,19
1011,749	0,19
1012,168	0,19
1012,587	0,19
1013,006	0,19
1013,425	0,19
1013,843	0,18
1014,262	0,18
1014,681	0,18
1015,099	0,18
1015,518	0,18
1015,937	0,18
1016,355	0,18
1016,774	0,19
1017,192	0,19
1017,611	0,19
1018,029	0,19
1018,448	0,19
1018,866	0,19
1019,285	0,19
1019,703	0,19
1020,121	0,19
1020,54	0,19
1020,958	0,19
1021,376	0,19
1021,794	0,19
1022,213	0,19
1022,631	0,19
1023,049	0,19
1023,467	0,19
1023,885	0,19
1024,303	0,19
1024,721	0,19
1025,139	0,19
1025,557	0,19
1025,975	0,18
1026,393	0,18
1026,811	0,18
1027,229	0,18
1027,647	0,18
1028,065	0,18
1028,482	0,18
1028,9	0,18
1029,318	0,18
1029,735	0,18
1030,153	0,18
1030,571	0,18
1030,988	0,18
1031,406	0,18
1031,823	0,18
1032,241	0,18
1032,659	0,18
1033,076	0,18
1033,493	0,18
1033,911	0,18
1034,328	0,18
1034,746	0,18
1035,163	0,18
1035,58	0,18
1035,997	0,18
1036,415	0,18
1036,832	0,18
1037,249	0,18
1037,666	0,18
1038,083	0,18
1038,501	0,18
1038,918	0,18
1039,335	0,18
1039,752	0,18
1040,169	0,17
1040,586	0,17
1041,003	0,17
1041,419	0,17
1041,836	0,17
1042,253	0,17
1042,67	0,17
1043,087	0,17
1043,504	0,17
1043,92	0,17
1044,337	0,17
1044,754	0,17
1045,17	0,17
1045,587	0,17
1046,004	0,17
1046,42	0,17
1046,837	0,17
1047,253	0,17
1047,67	0,17
1048,086	0,17
1048,503	0,16
1048,919	0,16
1049,335	0,16
1049,752	0,16
1050,168	0,16
1050,584	0,16
1051,001	0,16
1051,417	0,16
1051,833	0,17
1052,249	0,17
1052,665	0,17
1053,081	0,17
1053,497	0,17
1053,914	0,17
1054,33	0,17
1054,746	0,17
1055,162	0,17
1055,578	0,17
1055,993	0,17
1056,409	0,17
1056,825	0,17
1057,241	0,17
1057,657	0,17
1058,073	0,17
1058,488	0,17
1058,904	0,17
1059,32	0,17
1059,736	0,17
1060,151	0,17
1060,567	0,17
1060,982	0,17
1061,398	0,17
1061,813	0,17
1062,229	0,17
1062,644	0,17
1063,06	0,17
1063,475	0,17
1063,891	0,17
1064,306	0,17
1064,721	0,17
1065,137	0,17
1065,552	0,17
1065,967	0,17
1066,382	0,17
1066,798	0,17
1067,213	0,17
1067,628	0,17
1068,043	0,17
1068,458	0,17
1068,873	0,17
1069,288	0,17
1069,703	0,17
1070,118	0,17
1070,533	0,17
1070,948	0,17
1071,363	0,17
1071,778	0,17
1072,193	0,17
1072,607	0,18
1073,022	0,18
1073,437	0,18
1073,852	0,18
1074,266	0,18
1074,681	0,18
1075,096	0,18
1075,51	0,18
1075,925	0,18
1076,339	0,18
1076,754	0,18
1077,168	0,18
1077,583	0,18
1077,997	0,18
1078,412	0,18
1078,826	0,18
1079,24	0,17
1079,655	0,17
1080,069	0,17
1080,483	0,17
1080,897	0,17
1081,312	0,17
1081,726	0,17
1082,14	0,17
1082,554	0,17
1082,968	0,17
1083,382	0,17
1083,796	0,17
1084,21	0,17
1084,624	0,17
1085,038	0,16
1085,452	0,16
1085,866	0,16
1086,28	0,16
1086,694	0,16
1087,108	0,16
1087,521	0,16
1087,935	0,16
1088,349	0,16
1088,763	0,16
1089,176	0,15
1089,59	0,15
1090,004	0,15
1090,417	0,15
1090,831	0,15
1091,244	0,15
1091,658	0,14
1092,071	0,14
1092,485	0,14
1092,898	0,14
1093,312	0,14
1093,725	0,14
1094,138	0,14
1094,552	0,14
1094,965	0,14
1095,378	0,14
1095,791	0,13
1096,205	0,13
1096,618	0,13
1097,031	0,13
1097,444	0,13
1097,857	0,13
1098,27	0,13
1098,683	0,12
1099,096	0,12
1099,509	0,12
1099,922	0,12
1100,335	0,12
1100,748	0,11
1101,161	0,11
1101,574	0,11
1101,986	0,11
1102,399	0,1
1102,812	0,1
1103,225	0,1
1103,637	0,1
1104,05	0,1
1104,463	0,1
1104,875	0,1
1105,288	0,1
1105,7	0,09
1106,113	0,09
1106,525	0,09
1106,938	0,09
1107,35	0,08
1107,763	0,08
1108,175	0,08
1108,588	0,07
1109	0,07
1109,412	0,06
1109,824	0,06
1110,237	0,06
1110,649	0,06
1111,061	0,04
