Data from 18C-808nm-8A_Absorbance__838__00838.txt Node

Date: Mon Jul 17 16:51:18 CEST 2023
User: Laser008
Spectrometer: MAYP115816
Trigger mode: 0
Integration Time (sec): 2,500000E-1
Scans to average: 10
Electric dark correction enabled: true
Nonlinearity correction enabled: true
Boxcar width: 5
XAxis mode: Wavelengths
Number of Pixels in Spectrum: 2068
>>>>>Begin Spectral Data<<<<<
198,914	-0,69
199,384	-0,48
199,855	-0,36
200,325	-0,29
200,796	-0,25
201,266	-0,23
201,737	-0,21
202,207	-0,2
202,677	-0,19
203,147	-0,18
203,618	-0,15
204,088	-0,13
204,558	-0,12
205,028	-0,12
205,498	-0,12
205,968	-0,12
206,439	-0,12
206,909	-0,11
207,379	-0,12
207,849	-0,11
208,319	-0,12
208,789	-0,12
209,258	-0,12
209,728	-0,13
210,198	-0,13
210,668	-0,12
211,138	-0,12
211,608	-0,12
212,077	-0,13
212,547	-0,13
213,017	-0,14
213,486	-0,13
213,956	-0,14
214,426	-0,15
214,895	-0,15
215,365	-0,16
215,834	-0,16
216,304	-0,17
216,773	-0,17
217,243	-0,18
217,712	-0,19
218,181	-0,19
218,651	-0,19
219,12	-0,19
219,589	-0,18
220,058	-0,17
220,528	-0,18
220,997	-0,18
221,466	-0,19
221,935	-0,2
222,404	-0,2
222,873	-0,19
223,342	-0,19
223,812	-0,2
224,281	-0,2
224,749	-0,21
225,218	-0,22
225,687	-0,22
226,156	-0,21
226,625	-0,2
227,094	-0,2
227,563	-0,2
228,031	-0,21
228,5	-0,21
228,969	-0,21
229,438	-0,2
229,906	-0,19
230,375	-0,19
230,844	-0,18
231,312	-0,17
231,781	-0,18
232,249	-0,17
232,718	-0,17
233,186	-0,16
233,655	-0,16
234,123	-0,16
234,591	-0,17
235,06	-0,17
235,528	-0,17
235,996	-0,17
236,465	-0,17
236,933	-0,16
237,401	-0,16
237,869	-0,15
238,337	-0,15
238,805	-0,14
239,274	-0,14
239,742	-0,13
240,21	-0,13
240,678	-0,13
241,146	-0,12
241,614	-0,13
242,081	-0,12
242,549	-0,12
243,017	-0,13
243,485	-0,13
243,953	-0,13
244,421	-0,12
244,888	-0,12
245,356	-0,12
245,824	-0,12
246,291	-0,12
246,759	-0,13
247,227	-0,13
247,694	-0,12
248,162	-0,12
248,629	-0,11
249,097	-0,12
249,564	-0,13
250,032	-0,14
250,499	-0,14
250,967	-0,15
251,434	-0,14
251,901	-0,14
252,369	-0,14
252,836	-0,16
253,303	-0,18
253,77	-0,19
254,237	-0,18
254,705	-0,18
255,172	-0,16
255,639	-0,16
256,106	-0,18
256,573	-0,18
257,04	-0,18
257,507	-0,19
257,974	-0,19
258,441	-0,17
258,908	-0,17
259,375	-0,18
259,841	-0,19
260,308	-0,21
260,775	-0,21
261,242	-0,2
261,709	-0,2
262,175	-0,21
262,642	-0,2
263,109	-0,19
263,575	-0,21
264,042	-0,2
264,508	-0,2
264,975	-0,21
265,441	-0,22
265,908	-0,23
266,374	-0,22
266,841	-0,23
267,307	-0,23
267,773	-0,22
268,24	-0,22
268,706	-0,22
269,172	-0,23
269,639	-0,23
270,105	-0,21
270,571	-0,21
271,037	-0,21
271,503	-0,22
271,969	-0,21
272,435	-0,21
272,902	-0,23
273,368	-0,25
273,834	-0,25
274,3	-0,25
274,765	-0,24
275,231	-0,25
275,697	-0,24
276,163	-0,23
276,629	-0,24
277,095	-0,24
277,56	-0,23
278,026	-0,23
278,492	-0,21
278,958	-0,21
279,423	-0,21
279,889	-0,2
280,354	-0,21
280,82	-0,21
281,286	-0,22
281,751	-0,22
282,217	-0,21
282,682	-0,21
283,147	-0,21
283,613	-0,22
284,078	-0,22
284,544	-0,24
285,009	-0,25
285,474	-0,25
285,939	-0,26
286,405	-0,25
286,87	-0,24
287,335	-0,24
287,8	-0,24
288,265	-0,22
288,73	-0,24
289,195	-0,25
289,66	-0,24
290,125	-0,22
290,59	-0,22
291,055	-0,21
291,52	-0,21
291,985	-0,22
292,45	-0,23
292,915	-0,23
293,38	-0,24
293,844	-0,22
294,309	-0,2
294,774	-0,19
295,239	-0,21
295,703	-0,21
296,168	-0,2
296,632	-0,2
297,097	-0,19
297,562	-0,17
298,026	-0,17
298,491	-0,17
298,955	-0,17
299,419	-0,18
299,884	-0,18
300,348	-0,17
300,813	-0,17
301,277	-0,17
301,741	-0,17
302,205	-0,16
302,67	-0,16
303,134	-0,16
303,598	-0,16
304,062	-0,15
304,526	-0,15
304,99	-0,17
305,454	-0,17
305,919	-0,16
306,383	-0,16
306,847	-0,16
307,31	-0,17
307,774	-0,18
308,238	-0,18
308,702	-0,17
309,166	-0,19
309,63	-0,19
310,094	-0,17
310,557	-0,16
311,021	-0,16
311,485	-0,16
311,948	-0,16
312,412	-0,15
312,876	-0,14
313,339	-0,14
313,803	-0,15
314,266	-0,14
314,73	-0,14
315,193	-0,13
315,657	-0,13
316,12	-0,13
316,584	-0,12
317,047	-0,11
317,51	-0,1
317,973	-0,1
318,437	-0,09
318,9	-0,09
319,363	-0,08
319,826	-0,07
320,29	-0,08
320,753	-0,09
321,216	-0,08
321,679	-0,08
322,142	-0,08
322,605	-0,09
323,068	-0,1
323,531	-0,1
323,994	-0,09
324,457	-0,09
324,92	-0,08
325,382	-0,07
325,845	-0,07
326,308	-0,07
326,771	-0,06
327,233	-0,06
327,696	-0,05
328,159	-0,04
328,622	-0,03
329,084	-0,03
329,547	-0,02
330,009	-0,03
330,472	-0,01
330,934	-0,01
331,397	-0,01
331,859	-0
332,322	-0
332,784	-0
333,246	-0
333,709	-0,01
334,171	-0,01
334,633	-0
335,096	-0,01
335,558	-0,01
336,02	-0,01
336,482	-0,01
336,944	-0
337,406	0,01
337,868	0,01
338,331	0,01
338,793	0,02
339,255	0,02
339,717	0,02
340,178	0,03
340,64	0,03
341,102	0,03
341,564	0,04
342,026	0,05
342,488	0,05
342,949	0,06
343,411	0,08
343,873	0,1
344,335	0,12
344,796	0,14
345,258	0,17
345,719	0,19
346,181	0,21
346,643	0,23
347,104	0,25
347,566	0,26
348,027	0,27
348,488	0,28
348,95	0,29
349,411	0,3
349,873	0,31
350,334	0,31
350,795	0,32
351,256	0,33
351,718	0,33
352,179	0,33
352,64	0,33
353,101	0,33
353,562	0,33
354,023	0,34
354,484	0,34
354,945	0,34
355,406	0,34
355,867	0,34
356,328	0,34
356,789	0,34
357,25	0,34
357,711	0,34
358,172	0,34
358,633	0,35
359,093	0,35
359,554	0,35
360,015	0,35
360,476	0,35
360,936	0,35
361,397	0,35
361,858	0,35
362,318	0,35
362,779	0,35
363,239	0,35
363,7	0,35
364,16	0,35
364,621	0,35
365,081	0,35
365,541	0,35
366,002	0,35
366,462	0,35
366,922	0,35
367,383	0,34
367,843	0,34
368,303	0,34
368,763	0,34
369,223	0,35
369,684	0,35
370,144	0,35
370,604	0,35
371,064	0,35
371,524	0,35
371,984	0,35
372,444	0,35
372,904	0,34
373,363	0,34
373,823	0,34
374,283	0,34
374,743	0,34
375,203	0,34
375,663	0,34
376,122	0,34
376,582	0,34
377,042	0,34
377,501	0,34
377,961	0,34
378,42	0,34
378,88	0,34
379,34	0,34
379,799	0,34
380,259	0,34
380,718	0,34
381,177	0,34
381,637	0,34
382,096	0,34
382,555	0,34
383,015	0,34
383,474	0,34
383,933	0,34
384,393	0,34
384,852	0,34
385,311	0,34
385,77	0,34
386,229	0,34
386,688	0,34
387,147	0,34
387,606	0,34
388,065	0,34
388,524	0,34
388,983	0,34
389,442	0,34
389,901	0,34
390,36	0,34
390,819	0,34
391,277	0,34
391,736	0,34
392,195	0,33
392,654	0,33
393,112	0,33
393,571	0,33
394,03	0,33
394,488	0,33
394,947	0,33
395,405	0,33
395,864	0,33
396,322	0,33
396,781	0,33
397,239	0,33
397,698	0,33
398,156	0,33
398,614	0,33
399,073	0,33
399,531	0,33
399,989	0,33
400,447	0,33
400,905	0,33
401,364	0,33
401,822	0,33
402,28	0,33
402,738	0,33
403,196	0,33
403,654	0,33
404,112	0,33
404,57	0,33
405,028	0,33
405,486	0,33
405,944	0,33
406,402	0,33
406,859	0,33
407,317	0,33
407,775	0,33
408,233	0,33
408,691	0,33
409,148	0,33
409,606	0,33
410,064	0,33
410,521	0,33
410,979	0,33
411,436	0,33
411,894	0,33
412,351	0,33
412,809	0,33
413,266	0,33
413,724	0,33
414,181	0,33
414,638	0,33
415,096	0,32
415,553	0,32
416,01	0,32
416,467	0,32
416,925	0,32
417,382	0,32
417,839	0,32
418,296	0,32
418,753	0,32
419,21	0,32
419,667	0,32
420,124	0,32
420,581	0,32
421,038	0,32
421,495	0,32
421,952	0,32
422,409	0,32
422,866	0,32
423,322	0,32
423,779	0,32
424,236	0,32
424,693	0,32
425,149	0,32
425,606	0,32
426,063	0,32
426,519	0,32
426,976	0,32
427,433	0,32
427,889	0,32
428,346	0,32
428,802	0,32
429,258	0,32
429,715	0,32
430,171	0,32
430,628	0,32
431,084	0,32
431,54	0,32
431,997	0,32
432,453	0,32
432,909	0,32
433,365	0,32
433,821	0,32
434,277	0,32
434,734	0,32
435,19	0,32
435,646	0,32
436,102	0,32
436,558	0,32
437,014	0,32
437,47	0,32
437,925	0,32
438,381	0,32
438,837	0,32
439,293	0,32
439,749	0,32
440,205	0,32
440,66	0,32
441,116	0,32
441,572	0,32
442,027	0,32
442,483	0,32
442,939	0,32
443,394	0,32
443,85	0,32
444,305	0,32
444,761	0,32
445,216	0,32
445,672	0,32
446,127	0,32
446,582	0,32
447,038	0,32
447,493	0,32
447,948	0,32
448,403	0,32
448,859	0,32
449,314	0,32
449,769	0,32
450,224	0,32
450,679	0,32
451,134	0,32
451,589	0,32
452,044	0,32
452,499	0,32
452,954	0,32
453,409	0,32
453,864	0,32
454,319	0,32
454,774	0,32
455,229	0,32
455,684	0,32
456,138	0,32
456,593	0,32
457,048	0,32
457,503	0,32
457,957	0,32
458,412	0,32
458,866	0,32
459,321	0,32
459,776	0,32
460,23	0,32
460,685	0,32
461,139	0,32
461,593	0,32
462,048	0,32
462,502	0,32
462,957	0,32
463,411	0,32
463,865	0,32
464,319	0,32
464,774	0,32
465,228	0,32
465,682	0,32
466,136	0,32
466,59	0,32
467,044	0,32
467,499	0,32
467,953	0,32
468,407	0,33
468,861	0,33
469,315	0,33
469,768	0,33
470,222	0,33
470,676	0,33
471,13	0,33
471,584	0,33
472,038	0,33
472,491	0,33
472,945	0,33
473,399	0,33
473,852	0,33
474,306	0,33
474,76	0,33
475,213	0,33
475,667	0,33
476,12	0,33
476,574	0,33
477,027	0,33
477,481	0,33
477,934	0,33
478,388	0,33
478,841	0,33
479,294	0,33
479,748	0,33
480,201	0,34
480,654	0,34
481,107	0,34
481,561	0,34
482,014	0,34
482,467	0,34
482,92	0,34
483,373	0,34
483,826	0,34
484,279	0,34
484,732	0,34
485,185	0,34
485,638	0,34
486,091	0,34
486,544	0,34
486,997	0,35
487,449	0,35
487,902	0,35
488,355	0,35
488,808	0,35
489,26	0,35
489,713	0,35
490,166	0,35
490,618	0,35
491,071	0,36
491,523	0,36
491,976	0,36
492,429	0,36
492,881	0,36
493,333	0,36
493,786	0,36
494,238	0,37
494,691	0,37
495,143	0,37
495,595	0,37
496,048	0,37
496,5	0,37
496,952	0,37
497,404	0,38
497,856	0,38
498,309	0,38
498,761	0,38
499,213	0,38
499,665	0,39
500,117	0,39
500,569	0,39
501,021	0,39
501,473	0,39
501,925	0,39
502,377	0,4
502,828	0,4
503,28	0,4
503,732	0,4
504,184	0,4
504,636	0,41
505,087	0,41
505,539	0,41
505,991	0,41
506,442	0,41
506,894	0,41
507,345	0,42
507,797	0,42
508,249	0,42
508,7	0,42
509,151	0,42
509,603	0,43
510,054	0,43
510,506	0,43
510,957	0,43
511,408	0,43
511,86	0,43
512,311	0,44
512,762	0,44
513,213	0,44
513,665	0,44
514,116	0,44
514,567	0,44
515,018	0,45
515,469	0,45
515,92	0,45
516,371	0,45
516,822	0,45
517,273	0,45
517,724	0,46
518,175	0,46
518,626	0,46
519,076	0,46
519,527	0,46
519,978	0,46
520,429	0,46
520,88	0,47
521,33	0,47
521,781	0,47
522,232	0,47
522,682	0,47
523,133	0,47
523,583	0,47
524,034	0,47
524,484	0,47
524,935	0,47
525,385	0,47
525,836	0,48
526,286	0,48
526,736	0,48
527,187	0,48
527,637	0,48
528,087	0,48
528,538	0,48
528,988	0,48
529,438	0,48
529,888	0,48
530,338	0,48
530,788	0,48
531,238	0,48
531,688	0,48
532,139	0,48
532,589	0,48
533,038	0,48
533,488	0,48
533,938	0,47
534,388	0,47
534,838	0,47
535,288	0,47
535,738	0,47
536,187	0,47
536,637	0,47
537,087	0,47
537,537	0,47
537,986	0,46
538,436	0,46
538,885	0,46
539,335	0,46
539,785	0,46
540,234	0,45
540,684	0,45
541,133	0,45
541,582	0,45
542,032	0,45
542,481	0,45
542,931	0,45
543,38	0,44
543,829	0,44
544,278	0,44
544,728	0,44
545,177	0,44
545,626	0,43
546,075	0,43
546,524	0,43
546,973	0,43
547,422	0,43
547,871	0,43
548,32	0,43
548,769	0,43
549,218	0,43
549,667	0,43
550,116	0,43
550,565	0,43
551,014	0,42
551,463	0,42
551,911	0,42
552,36	0,42
552,809	0,42
553,258	0,42
553,706	0,42
554,155	0,41
554,603	0,41
555,052	0,41
555,501	0,41
555,949	0,41
556,398	0,41
556,846	0,41
557,294	0,41
557,743	0,4
558,191	0,4
558,64	0,4
559,088	0,4
559,536	0,4
559,985	0,39
560,433	0,39
560,881	0,39
561,329	0,39
561,777	0,39
562,225	0,39
562,674	0,39
563,122	0,39
563,57	0,38
564,018	0,38
564,466	0,38
564,914	0,38
565,362	0,38
565,809	0,38
566,257	0,38
566,705	0,37
567,153	0,37
567,601	0,37
568,048	0,37
568,496	0,37
568,944	0,37
569,392	0,37
569,839	0,36
570,287	0,36
570,734	0,36
571,182	0,36
571,63	0,36
572,077	0,36
572,525	0,36
572,972	0,36
573,419	0,35
573,867	0,35
574,314	0,35
574,761	0,35
575,209	0,35
575,656	0,35
576,103	0,35
576,551	0,35
576,998	0,35
577,445	0,35
577,892	0,35
578,339	0,34
578,786	0,34
579,233	0,34
579,68	0,34
580,127	0,34
580,574	0,34
581,021	0,34
581,468	0,34
581,915	0,34
582,362	0,34
582,809	0,33
583,255	0,33
583,702	0,33
584,149	0,33
584,596	0,33
585,042	0,33
585,489	0,33
585,936	0,33
586,382	0,33
586,829	0,33
587,275	0,33
587,722	0,33
588,168	0,33
588,615	0,32
589,061	0,32
589,508	0,32
589,954	0,32
590,4	0,32
590,847	0,32
591,293	0,32
591,739	0,32
592,185	0,32
592,632	0,32
593,078	0,32
593,524	0,32
593,97	0,32
594,416	0,32
594,862	0,32
595,308	0,32
595,754	0,32
596,2	0,32
596,646	0,31
597,092	0,31
597,538	0,31
597,984	0,31
598,43	0,31
598,876	0,31
599,321	0,31
599,767	0,31
600,213	0,31
600,659	0,31
601,104	0,31
601,55	0,31
601,995	0,31
602,441	0,31
602,887	0,31
603,332	0,31
603,778	0,31
604,223	0,31
604,668	0,31
605,114	0,31
605,559	0,31
606,005	0,31
606,45	0,31
606,895	0,31
607,341	0,31
607,786	0,3
608,231	0,3
608,676	0,3
609,121	0,3
609,566	0,3
610,012	0,29
610,457	0,29
610,902	0,29
611,347	0,29
611,792	0,29
612,237	0,29
612,682	0,28
613,127	0,28
613,571	0,29
614,016	0,29
614,461	0,29
614,906	0,29
615,351	0,29
615,795	0,29
616,24	0,29
616,685	0,29
617,129	0,29
617,574	0,29
618,019	0,29
618,463	0,29
618,908	0,29
619,352	0,29
619,797	0,29
620,241	0,29
620,686	0,29
621,13	0,29
621,574	0,29
622,019	0,29
622,463	0,29
622,907	0,29
623,352	0,29
623,796	0,29
624,24	0,29
624,684	0,29
625,128	0,29
625,572	0,29
626,016	0,29
626,461	0,29
626,905	0,29
627,349	0,29
627,793	0,29
628,236	0,29
628,68	0,29
629,124	0,29
629,568	0,29
630,012	0,29
630,456	0,29
630,9	0,29
631,343	0,29
631,787	0,29
632,231	0,29
632,674	0,29
633,118	0,29
633,562	0,29
634,005	0,29
634,449	0,29
634,892	0,29
635,336	0,29
635,779	0,29
636,223	0,29
636,666	0,29
637,109	0,29
637,553	0,29
637,996	0,29
638,439	0,29
638,883	0,29
639,326	0,29
639,769	0,28
640,212	0,28
640,655	0,28
641,099	0,28
641,542	0,28
641,985	0,28
642,428	0,28
642,871	0,28
643,314	0,28
643,757	0,28
644,2	0,28
644,643	0,28
645,085	0,28
645,528	0,28
645,971	0,28
646,414	0,28
646,857	0,28
647,299	0,28
647,742	0,28
648,185	0,28
648,627	0,28
649,07	0,28
649,513	0,28
649,955	0,28
650,398	0,28
650,84	0,28
651,283	0,28
651,725	0,28
652,168	0,28
652,61	0,28
653,052	0,28
653,495	0,28
653,937	0,22
654,379	0,18
654,821	0,18
655,264	0,18
655,706	0,18
656,148	0,18
656,59	0,18
657,032	0,18
657,474	0,18
657,916	0,18
658,358	0,18
658,8	0,22
659,242	0,28
659,684	0,28
660,126	0,28
660,568	0,28
661,01	0,28
661,452	0,28
661,894	0,28
662,335	0,28
662,777	0,28
663,219	0,28
663,661	0,28
664,102	0,28
664,544	0,28
664,985	0,28
665,427	0,28
665,869	0,28
666,31	0,28
666,752	0,28
667,193	0,28
667,634	0,28
668,076	0,28
668,517	0,28
668,959	0,28
669,4	0,28
669,841	0,27
670,282	0,27
670,724	0,27
671,165	0,27
671,606	0,27
672,047	0,27
672,488	0,27
672,929	0,27
673,37	0,27
673,811	0,27
674,252	0,27
674,693	0,27
675,134	0,27
675,575	0,27
676,016	0,27
676,457	0,27
676,898	0,27
677,339	0,27
677,78	0,27
678,22	0,27
678,661	0,27
679,102	0,27
679,542	0,27
679,983	0,27
680,424	0,27
680,864	0,27
681,305	0,27
681,745	0,27
682,186	0,27
682,626	0,27
683,067	0,27
683,507	0,27
683,948	0,27
684,388	0,27
684,828	0,27
685,269	0,27
685,709	0,27
686,149	0,27
686,589	0,27
687,029	0,27
687,47	0,27
687,91	0,27
688,35	0,27
688,79	0,26
689,23	0,26
689,67	0,26
690,11	0,26
690,55	0,26
690,99	0,26
691,43	0,26
691,87	0,26
692,31	0,26
692,749	0,26
693,189	0,26
693,629	0,26
694,069	0,26
694,508	0,26
694,948	0,26
695,388	0,26
695,827	0,26
696,267	0,26
696,706	0,26
697,146	0,26
697,586	0,26
698,025	0,27
698,464	0,27
698,904	0,27
699,343	0,27
699,783	0,27
700,222	0,27
700,661	0,27
701,101	0,27
701,54	0,27
701,979	0,27
702,418	0,27
702,857	0,27
703,297	0,26
703,736	0,26
704,175	0,26
704,614	0,26
705,053	0,26
705,492	0,26
705,931	0,26
706,37	0,26
706,809	0,26
707,248	0,26
707,687	0,26
708,125	0,26
708,564	0,26
709,003	0,26
709,442	0,26
709,88	0,25
710,319	0,25
710,758	0,25
711,196	0,25
711,635	0,25
712,074	0,25
712,512	0,25
712,951	0,25
713,389	0,25
713,828	0,25
714,266	0,25
714,705	0,25
715,143	0,25
715,581	0,25
716,02	0,25
716,458	0,25
716,896	0,25
717,334	0,25
717,773	0,25
718,211	0,25
718,649	0,25
719,087	0,25
719,525	0,25
719,963	0,25
720,401	0,25
720,839	0,25
721,277	0,25
721,715	0,25
722,153	0,25
722,591	0,25
723,029	0,25
723,467	0,25
723,905	0,25
724,342	0,25
724,78	0,25
725,218	0,25
725,656	0,25
726,093	0,25
726,531	0,25
726,969	0,25
727,406	0,25
727,844	0,25
728,281	0,25
728,719	0,25
729,156	0,25
729,594	0,25
730,031	0,25
730,469	0,25
730,906	0,25
731,343	0,25
731,781	0,25
732,218	0,25
732,655	0,24
733,092	0,24
733,53	0,24
733,967	0,24
734,404	0,24
734,841	0,24
735,278	0,24
735,715	0,24
736,152	0,24
736,589	0,24
737,026	0,24
737,463	0,24
737,9	0,24
738,337	0,24
738,774	0,24
739,211	0,24
739,647	0,24
740,084	0,24
740,521	0,24
740,958	0,24
741,394	0,24
741,831	0,23
742,268	0,23
742,704	0,23
743,141	0,23
743,577	0,23
744,014	0,23
744,45	0,23
744,887	0,23
745,323	0,23
745,76	0,23
746,196	0,22
746,632	0,22
747,069	0,22
747,505	0,22
747,941	0,22
748,378	0,23
748,814	0,23
749,25	0,23
749,686	0,23
750,122	0,23
750,558	0,23
750,994	0,23
751,43	0,23
751,866	0,23
752,302	0,23
752,738	0,24
753,174	0,24
753,61	0,24
754,046	0,24
754,482	0,24
754,918	0,24
755,354	0,24
755,789	0,24
756,225	0,24
756,661	0,24
757,096	0,24
757,532	0,24
757,968	0,23
758,403	0,23
758,839	0,23
759,274	0,23
759,71	0,23
760,145	0,22
760,581	0,22
761,016	0,22
761,452	0,21
761,887	0,21
762,322	0,21
762,758	0,21
763,193	0,2
763,628	0,2
764,063	0,19
764,499	0,19
764,934	0,19
765,369	0,18
765,804	0,18
766,239	0,18
766,674	0,17
767,109	0,16
767,544	0,16
767,979	0,15
768,414	0,15
768,849	0,14
769,284	0,13
769,719	0,13
770,154	0,12
770,588	0,12
771,023	0,1
771,458	0,1
771,893	0,09
772,327	0,08
772,762	0,07
773,197	0,07
773,631	0,06
774,066	0,05
774,5	0,04
774,935	0,04
775,369	0,03
775,804	0,02
776,238	0,02
776,673	0,01
777,107	0,01
777,541	0
777,976	-0,01
778,41	-0,02
778,844	-0,02
779,279	-0,03
779,713	-0,04
780,147	-0,04
780,581	-0,05
781,015	-0,06
781,449	-0,06
781,883	-0,07
782,317	-0,09
782,751	-0,09
783,185	-0,1
783,619	-0,1
784,053	-0,11
784,487	-0,12
784,921	-0,13
785,355	-0,13
785,789	-0,14
786,223	-0,16
786,656	-0,16
787,09	-0,17
787,524	-0,18
787,957	-0,19
788,391	-0,21
788,825	-0,22
789,258	-0,23
789,692	-0,24
790,125	-0,27
790,559	-0,28
790,992	-0,3
791,426	-0,32
791,859	-0,34
792,293	-0,37
792,726	-0,39
793,159	-0,41
793,593	-0,43
794,026	-0,45
794,459	-0,48
794,892	-0,5
795,326	-0,53
795,759	-0,57
796,192	-0,61
796,625	-0,66
797,058	-0,69
797,491	-0,73
797,924	-0,77
798,357	-0,82
798,79	-0,87
799,223	-0,91
799,656	-0,97
800,089	-1,02
800,522	-1,06
800,955	-1,1
801,387	-1,16
801,82	-1,22
802,253	-1,28
802,686	-1,36
803,118	-1,42
803,551	-1,47
803,984	-1,52
804,416	-1,56
804,849	-1,62
805,281	-1,79
805,714	-2,18
806,146	-2,54
806,579	-2,77
807,011	-2,91
807,444	-3
807,876	-3,06
808,308	-3,09
808,741	-3,12
809,173	-3,17
809,605	-3,19
810,037	-3,26
810,47	-3,16
810,902	-2,96
811,334	-2,8
811,766	-2,62
812,198	-2,34
812,63	-1,96
813,062	-1,8
813,494	-1,72
813,926	-1,63
814,358	-1,58
814,79	-1,5
815,222	-1,44
815,654	-1,39
816,086	-1,33
816,518	-1,27
816,949	-1,22
817,381	-1,18
817,813	-1,16
818,245	-1,12
818,676	-1,08
819,108	-1,04
819,54	-1,03
819,971	-1
820,403	-0,95
820,834	-0,94
821,266	-0,89
821,697	-0,87
822,129	-0,86
822,56	-0,83
822,991	-0,81
823,423	-0,78
823,854	-0,77
824,286	-0,74
824,717	-0,72
825,148	-0,7
825,579	-0,69
826,01	-0,68
826,442	-0,67
826,873	-0,65
827,304	-0,61
827,735	-0,61
828,166	-0,61
828,597	-0,61
829,028	-0,6
829,459	-0,61
829,89	-0,61
830,321	-0,57
830,752	-0,58
831,183	-0,56
831,613	-0,55
832,044	-0,55
832,475	-0,54
832,906	-0,55
833,336	-0,55
833,767	-0,55
834,198	-0,54
834,628	-0,52
835,059	-0,55
835,49	-0,55
835,92	-0,52
836,351	-0,53
836,781	-0,53
837,212	-0,53
837,642	-0,53
838,072	-0,51
838,503	-0,53
838,933	-0,5
839,364	-0,51
839,794	-0,49
840,224	-0,48
840,654	-0,52
841,085	-0,52
841,515	-0,5
841,945	-0,5
842,375	-0,45
842,805	-0,45
843,235	-0,42
843,665	-0,44
844,095	-0,42
844,525	-0,44
844,955	-0,44
845,385	-0,42
845,815	-0,4
846,245	-0,42
846,675	-0,42
847,105	-0,45
847,534	-0,45
847,964	-0,44
848,394	-0,43
848,824	-0,47
849,253	-0,47
849,683	-0,47
850,112	-0,49
850,542	-0,52
850,972	-0,53
851,401	-0,51
851,831	-0,49
852,26	-0,5
852,69	-0,53
853,119	-0,53
853,548	-0,52
853,978	-0,53
854,407	-0,51
854,836	-0,5
855,266	-0,49
855,695	-0,5
856,124	-0,51
856,553	-0,53
856,983	-0,55
857,412	-0,53
857,841	-0,55
858,27	-0,55
858,699	-0,56
859,128	-0,59
859,557	-0,6
859,986	-0,61
860,415	-0,59
860,844	-0,56
861,273	-0,56
861,702	-0,57
862,13	-0,55
862,559	-0,56
862,988	-0,54
863,417	-0,53
863,845	-0,51
864,274	-0,52
864,703	-0,51
865,131	-0,51
865,56	-0,52
865,989	-0,55
866,417	-0,51
866,846	-0,51
867,274	-0,51
867,703	-0,53
868,131	-0,54
868,559	-0,54
868,988	-0,57
869,416	-0,57
869,844	-0,58
870,273	-0,6
870,701	-0,58
871,129	-0,62
871,557	-0,64
871,986	-0,64
872,414	-0,65
872,842	-0,62
873,27	-0,6
873,698	-0,57
874,126	-0,6
874,554	-0,59
874,982	-0,59
875,41	-0,62
875,838	-0,57
876,266	-0,54
876,694	-0,55
877,122	-0,54
877,549	-0,6
877,977	-0,57
878,405	-0,6
878,833	-0,57
879,26	-0,55
879,688	-0,55
880,116	-0,53
880,543	-0,51
880,971	-0,5
881,399	-0,53
881,826	-0,54
882,254	-0,51
882,681	-0,54
883,109	-0,5
883,536	-0,51
883,963	-0,53
884,391	-0,51
884,818	-0,51
885,245	-0,54
885,673	-0,56
886,1	-0,52
886,527	-0,52
886,954	-0,49
887,381	-0,51
887,809	-0,53
888,236	-0,54
888,663	-0,54
889,09	-0,58
889,517	-0,6
889,944	-0,6
890,371	-0,59
890,798	-0,59
891,225	-0,59
891,652	-0,62
892,078	-0,59
892,505	-0,62
892,932	-0,57
893,359	-0,58
893,786	-0,58
894,212	-0,56
894,639	-0,57
895,066	-0,59
895,492	-0,54
895,919	-0,55
896,346	-0,54
896,772	-0,54
897,199	-0,51
897,625	-0,55
898,052	-0,52
898,478	-0,49
898,904	-0,51
899,331	-0,5
899,757	-0,51
900,183	-0,53
900,61	-0,52
901,036	-0,53
901,462	-0,52
901,888	-0,52
902,315	-0,5
902,741	-0,54
903,167	-0,53
903,593	-0,57
904,019	-0,55
904,445	-0,52
904,871	-0,55
905,297	-0,57
905,723	-0,56
906,149	-0,55
906,575	-0,55
907,001	-0,55
907,427	-0,54
907,852	-0,53
908,278	-0,52
908,704	-0,51
909,13	-0,5
909,555	-0,49
909,981	-0,49
910,407	-0,49
910,832	-0,49
911,258	-0,5
911,684	-0,49
912,109	-0,49
912,535	-0,52
912,96	-0,48
913,386	-0,52
913,811	-0,51
914,236	-0,53
914,662	-0,52
915,087	-0,55
915,512	-0,55
915,938	-0,56
916,363	-0,55
916,788	-0,56
917,213	-0,54
917,639	-0,58
918,064	-0,55
918,489	-0,56
918,914	-0,56
919,339	-0,56
919,764	-0,53
920,189	-0,53
920,614	-0,56
921,039	-0,57
921,464	-0,53
921,889	-0,56
922,314	-0,56
922,738	-0,6
923,163	-0,61
923,588	-0,61
924,013	-0,61
924,437	-0,61
924,862	-0,62
925,287	-0,57
925,711	-0,58
926,136	-0,59
926,561	-0,57
926,985	-0,58
927,41	-0,55
927,834	-0,53
928,259	-0,5
928,683	-0,48
929,108	-0,45
929,532	-0,45
929,956	-0,45
930,381	-0,45
930,805	-0,45
931,229	-0,44
931,653	-0,42
932,078	-0,42
932,502	-0,43
932,926	-0,44
933,35	-0,44
933,774	-0,44
934,198	-0,42
934,622	-0,42
935,046	-0,42
935,47	-0,42
935,894	-0,42
936,318	-0,42
936,742	-0,41
937,166	-0,41
937,59	-0,4
938,014	-0,42
938,437	-0,43
938,861	-0,45
939,285	-0,46
939,709	-0,46
940,132	-0,47
940,556	-0,47
940,98	-0,47
941,403	-0,47
941,827	-0,47
942,25	-0,48
942,674	-0,47
943,097	-0,47
943,521	-0,47
943,944	-0,48
944,368	-0,46
944,791	-0,45
945,214	-0,47
945,638	-0,47
946,061	-0,49
946,484	-0,5
946,907	-0,48
947,331	-0,48
947,754	-0,52
948,177	-0,5
948,6	-0,49
949,023	-0,49
949,446	-0,49
949,869	-0,47
950,292	-0,47
950,715	-0,43
951,138	-0,42
951,561	-0,4
951,984	-0,4
952,407	-0,39
952,83	-0,37
953,252	-0,33
953,675	-0,33
954,098	-0,34
954,521	-0,33
954,943	-0,33
955,366	-0,34
955,789	-0,33
956,211	-0,35
956,634	-0,35
957,056	-0,32
957,479	-0,33
957,902	-0,36
958,324	-0,37
958,746	-0,35
959,169	-0,36
959,591	-0,37
960,014	-0,38
960,436	-0,38
960,858	-0,37
961,281	-0,37
961,703	-0,38
962,125	-0,38
962,547	-0,36
962,969	-0,36
963,391	-0,37
963,814	-0,38
964,236	-0,37
964,658	-0,34
965,08	-0,35
965,502	-0,35
965,924	-0,33
966,346	-0,33
966,768	-0,33
967,189	-0,34
967,611	-0,35
968,033	-0,34
968,455	-0,32
968,877	-0,34
969,298	-0,34
969,72	-0,35
970,142	-0,34
970,563	-0,34
970,985	-0,32
971,407	-0,32
971,828	-0,3
972,25	-0,29
972,671	-0,27
973,093	-0,27
973,514	-0,26
973,936	-0,24
974,357	-0,23
974,778	-0,23
975,2	-0,23
975,621	-0,23
976,042	-0,21
976,464	-0,19
976,885	-0,19
977,306	-0,19
977,727	-0,18
978,148	-0,17
978,57	-0,17
978,991	-0,15
979,412	-0,14
979,833	-0,14
980,254	-0,13
980,675	-0,14
981,096	-0,13
981,517	-0,12
981,937	-0,12
982,358	-0,1
982,779	-0,08
983,2	-0,08
983,621	-0,08
984,042	-0,07
984,462	-0,06
984,883	-0,05
985,304	-0,03
985,724	-0,03
986,145	-0,02
986,565	-0,01
986,986	-0,01
987,407	-0
987,827	0
988,248	0,01
988,668	0,02
989,088	0,03
989,509	0,04
989,929	0,05
990,35	0,05
990,77	0,06
991,19	0,07
991,61	0,08
992,031	0,08
992,451	0,09
992,871	0,1
993,291	0,1
993,711	0,11
994,131	0,11
994,551	0,11
994,971	0,11
995,391	0,11
995,811	0,12
996,231	0,12
996,651	0,13
997,071	0,13
997,491	0,13
997,911	0,14
998,331	0,14
998,75	0,14
999,17	0,15
999,59	0,15
1000,009	0,15
1000,429	0,15
1000,849	0,16
1001,268	0,16
1001,688	0,16
1002,107	0,16
1002,527	0,17
1002,946	0,17
1003,366	0,17
1003,785	0,17
1004,205	0,17
1004,624	0,17
1005,044	0,18
1005,463	0,18
1005,882	0,18
1006,301	0,18
1006,721	0,18
1007,14	0,18
1007,559	0,18
1007,978	0,18
1008,397	0,18
1008,816	0,18
1009,235	0,18
1009,655	0,18
1010,074	0,18
1010,492	0,18
1010,911	0,18
1011,33	0,17
1011,749	0,17
1012,168	0,17
1012,587	0,17
1013,006	0,17
1013,425	0,17
1013,843	0,17
1014,262	0,17
1014,681	0,17
1015,099	0,17
1015,518	0,17
1015,937	0,17
1016,355	0,17
1016,774	0,17
1017,192	0,17
1017,611	0,17
1018,029	0,17
1018,448	0,17
1018,866	0,17
1019,285	0,17
1019,703	0,17
1020,121	0,17
1020,54	0,17
1020,958	0,17
1021,376	0,17
1021,794	0,17
1022,213	0,17
1022,631	0,17
1023,049	0,17
1023,467	0,17
1023,885	0,17
1024,303	0,17
1024,721	0,17
1025,139	0,17
1025,557	0,17
1025,975	0,17
1026,393	0,17
1026,811	0,17
1027,229	0,17
1027,647	0,17
1028,065	0,17
1028,482	0,17
1028,9	0,17
1029,318	0,17
1029,735	0,17
1030,153	0,17
1030,571	0,17
1030,988	0,17
1031,406	0,17
1031,823	0,17
1032,241	0,17
1032,659	0,17
1033,076	0,17
1033,493	0,17
1033,911	0,17
1034,328	0,17
1034,746	0,17
1035,163	0,17
1035,58	0,17
1035,997	0,17
1036,415	0,17
1036,832	0,17
1037,249	0,16
1037,666	0,16
1038,083	0,16
1038,501	0,16
1038,918	0,16
1039,335	0,16
1039,752	0,16
1040,169	0,16
1040,586	0,16
1041,003	0,16
1041,419	0,16
1041,836	0,16
1042,253	0,16
1042,67	0,16
1043,087	0,16
1043,504	0,16
1043,92	0,16
1044,337	0,16
1044,754	0,16
1045,17	0,16
1045,587	0,16
1046,004	0,15
1046,42	0,15
1046,837	0,15
1047,253	0,15
1047,67	0,15
1048,086	0,15
1048,503	0,15
1048,919	0,15
1049,335	0,15
1049,752	0,15
1050,168	0,15
1050,584	0,15
1051,001	0,15
1051,417	0,15
1051,833	0,15
1052,249	0,15
1052,665	0,15
1053,081	0,15
1053,497	0,15
1053,914	0,15
1054,33	0,15
1054,746	0,15
1055,162	0,15
1055,578	0,16
1055,993	0,16
1056,409	0,16
1056,825	0,16
1057,241	0,16
1057,657	0,16
1058,073	0,16
1058,488	0,16
1058,904	0,16
1059,32	0,16
1059,736	0,16
1060,151	0,16
1060,567	0,16
1060,982	0,16
1061,398	0,16
1061,813	0,16
1062,229	0,16
1062,644	0,16
1063,06	0,16
1063,475	0,15
1063,891	0,15
1064,306	0,15
1064,721	0,15
1065,137	0,15
1065,552	0,15
1065,967	0,15
1066,382	0,15
1066,798	0,15
1067,213	0,15
1067,628	0,15
1068,043	0,15
1068,458	0,15
1068,873	0,16
1069,288	0,16
1069,703	0,16
1070,118	0,16
1070,533	0,16
1070,948	0,16
1071,363	0,16
1071,778	0,16
1072,193	0,16
1072,607	0,16
1073,022	0,16
1073,437	0,16
1073,852	0,16
1074,266	0,16
1074,681	0,16
1075,096	0,16
1075,51	0,16
1075,925	0,16
1076,339	0,16
1076,754	0,16
1077,168	0,16
1077,583	0,16
1077,997	0,16
1078,412	0,16
1078,826	0,16
1079,24	0,16
1079,655	0,16
1080,069	0,16
1080,483	0,16
1080,897	0,16
1081,312	0,16
1081,726	0,16
1082,14	0,16
1082,554	0,15
1082,968	0,15
1083,382	0,15
1083,796	0,15
1084,21	0,15
1084,624	0,15
1085,038	0,15
1085,452	0,15
1085,866	0,15
1086,28	0,15
1086,694	0,15
1087,108	0,15
1087,521	0,15
1087,935	0,14
1088,349	0,14
1088,763	0,14
1089,176	0,14
1089,59	0,14
1090,004	0,14
1090,417	0,14
1090,831	0,13
1091,244	0,13
1091,658	0,13
1092,071	0,13
1092,485	0,13
1092,898	0,13
1093,312	0,12
1093,725	0,12
1094,138	0,12
1094,552	0,12
1094,965	0,12
1095,378	0,12
1095,791	0,12
1096,205	0,12
1096,618	0,12
1097,031	0,12
1097,444	0,12
1097,857	0,12
1098,27	0,12
1098,683	0,12
1099,096	0,12
1099,509	0,12
1099,922	0,11
1100,335	0,11
1100,748	0,1
1101,161	0,1
1101,574	0,1
1101,986	0,1
1102,399	0,09
1102,812	0,09
1103,225	0,09
1103,637	0,09
1104,05	0,09
1104,463	0,09
1104,875	0,08
1105,288	0,09
1105,7	0,08
1106,113	0,08
1106,525	0,08
1106,938	0,08
1107,35	0,07
1107,763	0,07
1108,175	0,07
1108,588	0,06
1109	0,06
1109,412	0,06
1109,824	0,05
1110,237	0,06
1110,649	0,06
1111,061	0,05
