Data from 18C-808nm-8A_Absorbance__1173__01173.txt Node

Date: Mon Jul 17 17:05:16 CEST 2023
User: Laser008
Spectrometer: MAYP115816
Trigger mode: 0
Integration Time (sec): 2,500000E-1
Scans to average: 10
Electric dark correction enabled: true
Nonlinearity correction enabled: true
Boxcar width: 5
XAxis mode: Wavelengths
Number of Pixels in Spectrum: 2068
>>>>>Begin Spectral Data<<<<<
198,914	-0,66
199,384	-0,47
199,855	-0,36
200,325	-0,28
200,796	-0,25
201,266	-0,21
201,737	-0,2
202,207	-0,18
202,677	-0,18
203,147	-0,16
203,618	-0,14
204,088	-0,13
204,558	-0,11
205,028	-0,1
205,498	-0,12
205,968	-0,11
206,439	-0,13
206,909	-0,12
207,379	-0,13
207,849	-0,13
208,319	-0,14
208,789	-0,15
209,258	-0,14
209,728	-0,15
210,198	-0,15
210,668	-0,15
211,138	-0,15
211,608	-0,15
212,077	-0,14
212,547	-0,14
213,017	-0,14
213,486	-0,14
213,956	-0,15
214,426	-0,16
214,895	-0,15
215,365	-0,16
215,834	-0,15
216,304	-0,17
216,773	-0,17
217,243	-0,19
217,712	-0,2
218,181	-0,2
218,651	-0,2
219,12	-0,19
219,589	-0,19
220,058	-0,18
220,528	-0,19
220,997	-0,2
221,466	-0,21
221,935	-0,21
222,404	-0,21
222,873	-0,2
223,342	-0,19
223,812	-0,19
224,281	-0,19
224,749	-0,2
225,218	-0,21
225,687	-0,21
226,156	-0,19
226,625	-0,17
227,094	-0,17
227,563	-0,17
228,031	-0,19
228,5	-0,18
228,969	-0,19
229,438	-0,19
229,906	-0,18
230,375	-0,18
230,844	-0,19
231,312	-0,19
231,781	-0,21
232,249	-0,19
232,718	-0,2
233,186	-0,18
233,655	-0,19
234,123	-0,19
234,591	-0,19
235,06	-0,19
235,528	-0,19
235,996	-0,18
236,465	-0,17
236,933	-0,17
237,401	-0,17
237,869	-0,16
238,337	-0,16
238,805	-0,15
239,274	-0,15
239,742	-0,15
240,21	-0,15
240,678	-0,15
241,146	-0,14
241,614	-0,14
242,081	-0,14
242,549	-0,14
243,017	-0,14
243,485	-0,14
243,953	-0,14
244,421	-0,13
244,888	-0,13
245,356	-0,14
245,824	-0,13
246,291	-0,13
246,759	-0,15
247,227	-0,14
247,694	-0,14
248,162	-0,13
248,629	-0,13
249,097	-0,13
249,564	-0,14
250,032	-0,15
250,499	-0,15
250,967	-0,15
251,434	-0,16
251,901	-0,15
252,369	-0,16
252,836	-0,17
253,303	-0,18
253,77	-0,19
254,237	-0,18
254,705	-0,18
255,172	-0,17
255,639	-0,17
256,106	-0,18
256,573	-0,18
257,04	-0,18
257,507	-0,18
257,974	-0,19
258,441	-0,17
258,908	-0,17
259,375	-0,18
259,841	-0,18
260,308	-0,19
260,775	-0,19
261,242	-0,18
261,709	-0,19
262,175	-0,2
262,642	-0,19
263,109	-0,18
263,575	-0,2
264,042	-0,19
264,508	-0,19
264,975	-0,21
265,441	-0,22
265,908	-0,23
266,374	-0,21
266,841	-0,22
267,307	-0,21
267,773	-0,2
268,24	-0,2
268,706	-0,21
269,172	-0,21
269,639	-0,21
270,105	-0,19
270,571	-0,19
271,037	-0,19
271,503	-0,2
271,969	-0,2
272,435	-0,2
272,902	-0,23
273,368	-0,23
273,834	-0,23
274,3	-0,24
274,765	-0,24
275,231	-0,24
275,697	-0,24
276,163	-0,24
276,629	-0,24
277,095	-0,25
277,56	-0,24
278,026	-0,24
278,492	-0,23
278,958	-0,22
279,423	-0,21
279,889	-0,21
280,354	-0,21
280,82	-0,21
281,286	-0,22
281,751	-0,22
282,217	-0,2
282,682	-0,21
283,147	-0,2
283,613	-0,2
284,078	-0,21
284,544	-0,22
285,009	-0,24
285,474	-0,23
285,939	-0,25
286,405	-0,24
286,87	-0,23
287,335	-0,23
287,8	-0,23
288,265	-0,22
288,73	-0,24
289,195	-0,26
289,66	-0,25
290,125	-0,23
290,59	-0,23
291,055	-0,22
291,52	-0,22
291,985	-0,23
292,45	-0,24
292,915	-0,24
293,38	-0,25
293,844	-0,23
294,309	-0,21
294,774	-0,21
295,239	-0,22
295,703	-0,23
296,168	-0,22
296,632	-0,21
297,097	-0,19
297,562	-0,17
298,026	-0,18
298,491	-0,18
298,955	-0,17
299,419	-0,17
299,884	-0,17
300,348	-0,16
300,813	-0,15
301,277	-0,15
301,741	-0,16
302,205	-0,16
302,67	-0,16
303,134	-0,16
303,598	-0,16
304,062	-0,16
304,526	-0,15
304,99	-0,16
305,454	-0,17
305,919	-0,17
306,383	-0,17
306,847	-0,16
307,31	-0,17
307,774	-0,19
308,238	-0,18
308,702	-0,16
309,166	-0,18
309,63	-0,18
310,094	-0,15
310,557	-0,15
311,021	-0,14
311,485	-0,15
311,948	-0,14
312,412	-0,13
312,876	-0,12
313,339	-0,13
313,803	-0,14
314,266	-0,14
314,73	-0,14
315,193	-0,15
315,657	-0,14
316,12	-0,14
316,584	-0,13
317,047	-0,13
317,51	-0,12
317,973	-0,11
318,437	-0,1
318,9	-0,09
319,363	-0,07
319,826	-0,07
320,29	-0,07
320,753	-0,07
321,216	-0,07
321,679	-0,07
322,142	-0,07
322,605	-0,08
323,068	-0,09
323,531	-0,09
323,994	-0,09
324,457	-0,09
324,92	-0,08
325,382	-0,08
325,845	-0,07
326,308	-0,07
326,771	-0,07
327,233	-0,06
327,696	-0,05
328,159	-0,04
328,622	-0,03
329,084	-0,04
329,547	-0,03
330,009	-0,03
330,472	-0,01
330,934	-0,01
331,397	-0
331,859	0
332,322	0
332,784	0
333,246	0,01
333,709	0
334,171	0
334,633	0,01
335,096	-0
335,558	-0
336,02	-0
336,482	-0
336,944	0
337,406	0,01
337,868	0,02
338,331	0,02
338,793	0,03
339,255	0,04
339,717	0,04
340,178	0,06
340,64	0,06
341,102	0,06
341,564	0,08
342,026	0,08
342,488	0,08
342,949	0,1
343,411	0,12
343,873	0,14
344,335	0,16
344,796	0,19
345,258	0,22
345,719	0,25
346,181	0,28
346,643	0,3
347,104	0,32
347,566	0,35
348,027	0,36
348,488	0,37
348,95	0,39
349,411	0,4
349,873	0,41
350,334	0,42
350,795	0,42
351,256	0,43
351,718	0,44
352,179	0,44
352,64	0,44
353,101	0,44
353,562	0,44
354,023	0,44
354,484	0,44
354,945	0,45
355,406	0,45
355,867	0,45
356,328	0,45
356,789	0,45
357,25	0,45
357,711	0,45
358,172	0,45
358,633	0,45
359,093	0,46
359,554	0,46
360,015	0,46
360,476	0,46
360,936	0,46
361,397	0,46
361,858	0,46
362,318	0,46
362,779	0,46
363,239	0,46
363,7	0,46
364,16	0,46
364,621	0,46
365,081	0,46
365,541	0,46
366,002	0,46
366,462	0,46
366,922	0,46
367,383	0,46
367,843	0,46
368,303	0,46
368,763	0,46
369,223	0,46
369,684	0,46
370,144	0,46
370,604	0,46
371,064	0,46
371,524	0,46
371,984	0,46
372,444	0,46
372,904	0,46
373,363	0,46
373,823	0,46
374,283	0,46
374,743	0,46
375,203	0,45
375,663	0,45
376,122	0,45
376,582	0,45
377,042	0,45
377,501	0,45
377,961	0,45
378,42	0,45
378,88	0,45
379,34	0,45
379,799	0,45
380,259	0,45
380,718	0,45
381,177	0,45
381,637	0,45
382,096	0,45
382,555	0,45
383,015	0,45
383,474	0,45
383,933	0,45
384,393	0,45
384,852	0,45
385,311	0,45
385,77	0,45
386,229	0,45
386,688	0,45
387,147	0,45
387,606	0,45
388,065	0,45
388,524	0,45
388,983	0,45
389,442	0,45
389,901	0,45
390,36	0,45
390,819	0,45
391,277	0,45
391,736	0,44
392,195	0,44
392,654	0,44
393,112	0,44
393,571	0,44
394,03	0,44
394,488	0,44
394,947	0,44
395,405	0,44
395,864	0,44
396,322	0,44
396,781	0,44
397,239	0,44
397,698	0,44
398,156	0,44
398,614	0,44
399,073	0,44
399,531	0,44
399,989	0,44
400,447	0,44
400,905	0,44
401,364	0,44
401,822	0,44
402,28	0,44
402,738	0,44
403,196	0,44
403,654	0,44
404,112	0,44
404,57	0,44
405,028	0,44
405,486	0,44
405,944	0,44
406,402	0,44
406,859	0,44
407,317	0,44
407,775	0,44
408,233	0,44
408,691	0,44
409,148	0,44
409,606	0,44
410,064	0,44
410,521	0,44
410,979	0,44
411,436	0,44
411,894	0,44
412,351	0,44
412,809	0,44
413,266	0,44
413,724	0,43
414,181	0,43
414,638	0,43
415,096	0,43
415,553	0,43
416,01	0,43
416,467	0,43
416,925	0,43
417,382	0,43
417,839	0,43
418,296	0,43
418,753	0,43
419,21	0,43
419,667	0,43
420,124	0,43
420,581	0,43
421,038	0,43
421,495	0,43
421,952	0,43
422,409	0,43
422,866	0,43
423,322	0,43
423,779	0,43
424,236	0,43
424,693	0,43
425,149	0,43
425,606	0,43
426,063	0,43
426,519	0,43
426,976	0,43
427,433	0,43
427,889	0,43
428,346	0,43
428,802	0,43
429,258	0,43
429,715	0,43
430,171	0,43
430,628	0,43
431,084	0,43
431,54	0,43
431,997	0,43
432,453	0,43
432,909	0,43
433,365	0,43
433,821	0,43
434,277	0,43
434,734	0,43
435,19	0,43
435,646	0,43
436,102	0,43
436,558	0,43
437,014	0,43
437,47	0,43
437,925	0,43
438,381	0,43
438,837	0,43
439,293	0,43
439,749	0,43
440,205	0,43
440,66	0,43
441,116	0,43
441,572	0,43
442,027	0,43
442,483	0,43
442,939	0,43
443,394	0,43
443,85	0,43
444,305	0,43
444,761	0,43
445,216	0,43
445,672	0,43
446,127	0,43
446,582	0,43
447,038	0,43
447,493	0,43
447,948	0,43
448,403	0,43
448,859	0,43
449,314	0,43
449,769	0,43
450,224	0,43
450,679	0,43
451,134	0,43
451,589	0,43
452,044	0,43
452,499	0,43
452,954	0,43
453,409	0,43
453,864	0,43
454,319	0,43
454,774	0,43
455,229	0,43
455,684	0,43
456,138	0,43
456,593	0,43
457,048	0,43
457,503	0,43
457,957	0,43
458,412	0,43
458,866	0,43
459,321	0,43
459,776	0,43
460,23	0,43
460,685	0,43
461,139	0,43
461,593	0,43
462,048	0,43
462,502	0,43
462,957	0,43
463,411	0,43
463,865	0,43
464,319	0,43
464,774	0,44
465,228	0,44
465,682	0,44
466,136	0,44
466,59	0,44
467,044	0,44
467,499	0,44
467,953	0,44
468,407	0,44
468,861	0,44
469,315	0,44
469,768	0,44
470,222	0,44
470,676	0,44
471,13	0,44
471,584	0,44
472,038	0,44
472,491	0,44
472,945	0,44
473,399	0,44
473,852	0,44
474,306	0,44
474,76	0,44
475,213	0,44
475,667	0,44
476,12	0,45
476,574	0,45
477,027	0,45
477,481	0,45
477,934	0,45
478,388	0,45
478,841	0,45
479,294	0,45
479,748	0,45
480,201	0,45
480,654	0,46
481,107	0,46
481,561	0,46
482,014	0,46
482,467	0,46
482,92	0,46
483,373	0,46
483,826	0,46
484,279	0,46
484,732	0,46
485,185	0,47
485,638	0,47
486,091	0,47
486,544	0,47
486,997	0,47
487,449	0,47
487,902	0,47
488,355	0,47
488,808	0,48
489,26	0,48
489,713	0,48
490,166	0,48
490,618	0,48
491,071	0,48
491,523	0,49
491,976	0,49
492,429	0,49
492,881	0,49
493,333	0,49
493,786	0,49
494,238	0,5
494,691	0,5
495,143	0,5
495,595	0,5
496,048	0,5
496,5	0,51
496,952	0,51
497,404	0,51
497,856	0,51
498,309	0,51
498,761	0,52
499,213	0,52
499,665	0,52
500,117	0,52
500,569	0,53
501,021	0,53
501,473	0,53
501,925	0,53
502,377	0,54
502,828	0,54
503,28	0,54
503,732	0,54
504,184	0,55
504,636	0,55
505,087	0,55
505,539	0,55
505,991	0,56
506,442	0,56
506,894	0,56
507,345	0,56
507,797	0,57
508,249	0,57
508,7	0,57
509,151	0,57
509,603	0,58
510,054	0,58
510,506	0,58
510,957	0,58
511,408	0,59
511,86	0,59
512,311	0,59
512,762	0,59
513,213	0,59
513,665	0,6
514,116	0,6
514,567	0,6
515,018	0,6
515,469	0,6
515,92	0,61
516,371	0,61
516,822	0,61
517,273	0,61
517,724	0,61
518,175	0,62
518,626	0,62
519,076	0,62
519,527	0,62
519,978	0,62
520,429	0,62
520,88	0,63
521,33	0,63
521,781	0,63
522,232	0,63
522,682	0,63
523,133	0,63
523,583	0,63
524,034	0,63
524,484	0,64
524,935	0,64
525,385	0,64
525,836	0,64
526,286	0,64
526,736	0,64
527,187	0,64
527,637	0,64
528,087	0,64
528,538	0,64
528,988	0,64
529,438	0,64
529,888	0,64
530,338	0,64
530,788	0,63
531,238	0,63
531,688	0,63
532,139	0,63
532,589	0,63
533,038	0,63
533,488	0,63
533,938	0,63
534,388	0,63
534,838	0,63
535,288	0,63
535,738	0,63
536,187	0,62
536,637	0,62
537,087	0,62
537,537	0,62
537,986	0,62
538,436	0,61
538,885	0,61
539,335	0,61
539,785	0,61
540,234	0,6
540,684	0,6
541,133	0,6
541,582	0,6
542,032	0,59
542,481	0,59
542,931	0,59
543,38	0,59
543,829	0,58
544,278	0,58
544,728	0,58
545,177	0,57
545,626	0,57
546,075	0,57
546,524	0,57
546,973	0,57
547,422	0,56
547,871	0,56
548,32	0,56
548,769	0,56
549,218	0,56
549,667	0,56
550,116	0,56
550,565	0,56
551,014	0,55
551,463	0,55
551,911	0,55
552,36	0,55
552,809	0,55
553,258	0,54
553,706	0,54
554,155	0,54
554,603	0,54
555,052	0,53
555,501	0,53
555,949	0,53
556,398	0,53
556,846	0,53
557,294	0,52
557,743	0,52
558,191	0,52
558,64	0,52
559,088	0,51
559,536	0,51
559,985	0,51
560,433	0,51
560,881	0,5
561,329	0,5
561,777	0,5
562,225	0,5
562,674	0,49
563,122	0,49
563,57	0,49
564,018	0,49
564,466	0,49
564,914	0,48
565,362	0,48
565,809	0,48
566,257	0,48
566,705	0,47
567,153	0,47
567,601	0,47
568,048	0,47
568,496	0,47
568,944	0,46
569,392	0,46
569,839	0,46
570,287	0,46
570,734	0,46
571,182	0,45
571,63	0,45
572,077	0,45
572,525	0,45
572,972	0,45
573,419	0,44
573,867	0,44
574,314	0,44
574,761	0,44
575,209	0,44
575,656	0,44
576,103	0,43
576,551	0,43
576,998	0,43
577,445	0,43
577,892	0,43
578,339	0,43
578,786	0,43
579,233	0,43
579,68	0,42
580,127	0,42
580,574	0,42
581,021	0,42
581,468	0,42
581,915	0,42
582,362	0,42
582,809	0,41
583,255	0,41
583,702	0,41
584,149	0,41
584,596	0,41
585,042	0,41
585,489	0,41
585,936	0,4
586,382	0,4
586,829	0,4
587,275	0,4
587,722	0,4
588,168	0,4
588,615	0,4
589,061	0,4
589,508	0,4
589,954	0,4
590,4	0,4
590,847	0,39
591,293	0,39
591,739	0,39
592,185	0,39
592,632	0,39
593,078	0,39
593,524	0,39
593,97	0,39
594,416	0,39
594,862	0,39
595,308	0,39
595,754	0,39
596,2	0,39
596,646	0,38
597,092	0,38
597,538	0,38
597,984	0,38
598,43	0,38
598,876	0,38
599,321	0,38
599,767	0,38
600,213	0,38
600,659	0,38
601,104	0,38
601,55	0,38
601,995	0,37
602,441	0,37
602,887	0,37
603,332	0,37
603,778	0,37
604,223	0,37
604,668	0,37
605,114	0,37
605,559	0,37
606,005	0,37
606,45	0,37
606,895	0,37
607,341	0,37
607,786	0,37
608,231	0,37
608,676	0,37
609,121	0,36
609,566	0,36
610,012	0,35
610,457	0,35
610,902	0,35
611,347	0,35
611,792	0,35
612,237	0,34
612,682	0,34
613,127	0,34
613,571	0,34
614,016	0,35
614,461	0,35
614,906	0,35
615,351	0,35
615,795	0,35
616,24	0,35
616,685	0,35
617,129	0,35
617,574	0,35
618,019	0,35
618,463	0,35
618,908	0,35
619,352	0,35
619,797	0,35
620,241	0,35
620,686	0,35
621,13	0,35
621,574	0,35
622,019	0,35
622,463	0,35
622,907	0,35
623,352	0,35
623,796	0,35
624,24	0,35
624,684	0,35
625,128	0,35
625,572	0,35
626,016	0,35
626,461	0,35
626,905	0,35
627,349	0,35
627,793	0,35
628,236	0,35
628,68	0,34
629,124	0,34
629,568	0,34
630,012	0,34
630,456	0,34
630,9	0,34
631,343	0,34
631,787	0,34
632,231	0,34
632,674	0,34
633,118	0,34
633,562	0,34
634,005	0,34
634,449	0,34
634,892	0,34
635,336	0,34
635,779	0,34
636,223	0,34
636,666	0,34
637,109	0,34
637,553	0,34
637,996	0,34
638,439	0,34
638,883	0,34
639,326	0,34
639,769	0,34
640,212	0,34
640,655	0,34
641,099	0,34
641,542	0,34
641,985	0,34
642,428	0,34
642,871	0,34
643,314	0,34
643,757	0,34
644,2	0,34
644,643	0,34
645,085	0,34
645,528	0,34
645,971	0,34
646,414	0,33
646,857	0,33
647,299	0,33
647,742	0,33
648,185	0,33
648,627	0,33
649,07	0,33
649,513	0,33
649,955	0,33
650,398	0,33
650,84	0,33
651,283	0,33
651,725	0,33
652,168	0,33
652,61	0,33
653,052	0,33
653,495	0,33
653,937	0,26
654,379	0,21
654,821	0,21
655,264	0,21
655,706	0,21
656,148	0,21
656,59	0,21
657,032	0,21
657,474	0,21
657,916	0,21
658,358	0,21
658,8	0,26
659,242	0,33
659,684	0,33
660,126	0,33
660,568	0,33
661,01	0,33
661,452	0,33
661,894	0,33
662,335	0,33
662,777	0,33
663,219	0,33
663,661	0,33
664,102	0,33
664,544	0,33
664,985	0,33
665,427	0,33
665,869	0,33
666,31	0,33
666,752	0,33
667,193	0,33
667,634	0,33
668,076	0,33
668,517	0,33
668,959	0,33
669,4	0,33
669,841	0,33
670,282	0,33
670,724	0,32
671,165	0,32
671,606	0,32
672,047	0,32
672,488	0,32
672,929	0,32
673,37	0,32
673,811	0,32
674,252	0,32
674,693	0,32
675,134	0,32
675,575	0,32
676,016	0,32
676,457	0,32
676,898	0,32
677,339	0,32
677,78	0,32
678,22	0,32
678,661	0,32
679,102	0,32
679,542	0,32
679,983	0,32
680,424	0,32
680,864	0,32
681,305	0,32
681,745	0,32
682,186	0,32
682,626	0,32
683,067	0,32
683,507	0,32
683,948	0,32
684,388	0,32
684,828	0,32
685,269	0,32
685,709	0,32
686,149	0,32
686,589	0,31
687,029	0,31
687,47	0,31
687,91	0,31
688,35	0,31
688,79	0,31
689,23	0,31
689,67	0,31
690,11	0,31
690,55	0,31
690,99	0,31
691,43	0,31
691,87	0,31
692,31	0,31
692,749	0,31
693,189	0,31
693,629	0,31
694,069	0,31
694,508	0,31
694,948	0,31
695,388	0,31
695,827	0,31
696,267	0,31
696,706	0,31
697,146	0,31
697,586	0,31
698,025	0,31
698,464	0,31
698,904	0,31
699,343	0,31
699,783	0,31
700,222	0,31
700,661	0,31
701,101	0,31
701,54	0,31
701,979	0,31
702,418	0,31
702,857	0,31
703,297	0,31
703,736	0,31
704,175	0,31
704,614	0,31
705,053	0,31
705,492	0,31
705,931	0,31
706,37	0,31
706,809	0,3
707,248	0,3
707,687	0,3
708,125	0,3
708,564	0,3
709,003	0,3
709,442	0,3
709,88	0,3
710,319	0,3
710,758	0,3
711,196	0,3
711,635	0,3
712,074	0,3
712,512	0,3
712,951	0,3
713,389	0,3
713,828	0,3
714,266	0,3
714,705	0,3
715,143	0,3
715,581	0,3
716,02	0,3
716,458	0,3
716,896	0,29
717,334	0,29
717,773	0,29
718,211	0,29
718,649	0,29
719,087	0,29
719,525	0,29
719,963	0,29
720,401	0,29
720,839	0,29
721,277	0,29
721,715	0,29
722,153	0,29
722,591	0,3
723,029	0,3
723,467	0,3
723,905	0,29
724,342	0,29
724,78	0,29
725,218	0,29
725,656	0,29
726,093	0,29
726,531	0,29
726,969	0,29
727,406	0,29
727,844	0,29
728,281	0,29
728,719	0,29
729,156	0,29
729,594	0,29
730,031	0,29
730,469	0,29
730,906	0,29
731,343	0,29
731,781	0,29
732,218	0,29
732,655	0,29
733,092	0,29
733,53	0,29
733,967	0,29
734,404	0,29
734,841	0,29
735,278	0,29
735,715	0,29
736,152	0,29
736,589	0,29
737,026	0,29
737,463	0,29
737,9	0,29
738,337	0,29
738,774	0,28
739,211	0,28
739,647	0,28
740,084	0,28
740,521	0,28
740,958	0,28
741,394	0,28
741,831	0,28
742,268	0,28
742,704	0,28
743,141	0,28
743,577	0,28
744,014	0,27
744,45	0,27
744,887	0,27
745,323	0,27
745,76	0,27
746,196	0,27
746,632	0,27
747,069	0,27
747,505	0,27
747,941	0,27
748,378	0,27
748,814	0,27
749,25	0,27
749,686	0,27
750,122	0,27
750,558	0,28
750,994	0,28
751,43	0,28
751,866	0,28
752,302	0,28
752,738	0,28
753,174	0,28
753,61	0,28
754,046	0,28
754,482	0,28
754,918	0,28
755,354	0,28
755,789	0,28
756,225	0,28
756,661	0,28
757,096	0,28
757,532	0,28
757,968	0,28
758,403	0,28
758,839	0,28
759,274	0,27
759,71	0,27
760,145	0,27
760,581	0,26
761,016	0,26
761,452	0,26
761,887	0,25
762,322	0,25
762,758	0,25
763,193	0,24
763,628	0,24
764,063	0,24
764,499	0,23
764,934	0,23
765,369	0,22
765,804	0,22
766,239	0,21
766,674	0,21
767,109	0,2
767,544	0,2
767,979	0,19
768,414	0,18
768,849	0,17
769,284	0,16
769,719	0,16
770,154	0,15
770,588	0,14
771,023	0,13
771,458	0,12
771,893	0,11
772,327	0,1
772,762	0,1
773,197	0,09
773,631	0,08
774,066	0,08
774,5	0,07
774,935	0,06
775,369	0,05
775,804	0,04
776,238	0,04
776,673	0,03
777,107	0,02
777,541	0,01
777,976	0
778,41	-0,01
778,844	-0,01
779,279	-0,02
779,713	-0,02
780,147	-0,03
780,581	-0,04
781,015	-0,05
781,449	-0,05
781,883	-0,06
782,317	-0,07
782,751	-0,08
783,185	-0,08
783,619	-0,09
784,053	-0,1
784,487	-0,11
784,921	-0,12
785,355	-0,12
785,789	-0,13
786,223	-0,14
786,656	-0,15
787,09	-0,16
787,524	-0,17
787,957	-0,18
788,391	-0,2
788,825	-0,21
789,258	-0,22
789,692	-0,24
790,125	-0,25
790,559	-0,27
790,992	-0,29
791,426	-0,31
791,859	-0,32
792,293	-0,36
792,726	-0,37
793,159	-0,39
793,593	-0,41
794,026	-0,43
794,459	-0,46
794,892	-0,48
795,326	-0,51
795,759	-0,54
796,192	-0,58
796,625	-0,63
797,058	-0,65
797,491	-0,7
797,924	-0,74
798,357	-0,79
798,79	-0,83
799,223	-0,88
799,656	-0,93
800,089	-0,98
800,522	-1,03
800,955	-1,07
801,387	-1,13
801,82	-1,18
802,253	-1,25
802,686	-1,32
803,118	-1,38
803,551	-1,43
803,984	-1,48
804,416	-1,52
804,849	-1,56
805,281	-1,71
805,714	-2,08
806,146	-2,49
806,579	-2,74
807,011	-2,89
807,444	-2,98
807,876	-3,07
808,308	-3,1
808,741	-3,13
809,173	-3,18
809,605	-3,2
810,037	-3,27
810,47	-3,19
810,902	-2,99
811,334	-2,84
811,766	-2,68
812,198	-2,45
812,63	-2,03
813,062	-1,82
813,494	-1,72
813,926	-1,63
814,358	-1,58
814,79	-1,5
815,222	-1,44
815,654	-1,39
816,086	-1,32
816,518	-1,27
816,949	-1,22
817,381	-1,17
817,813	-1,15
818,245	-1,11
818,676	-1,07
819,108	-1,04
819,54	-1,02
819,971	-0,99
820,403	-0,94
820,834	-0,93
821,266	-0,88
821,697	-0,86
822,129	-0,85
822,56	-0,82
822,991	-0,8
823,423	-0,78
823,854	-0,77
824,286	-0,75
824,717	-0,74
825,148	-0,72
825,579	-0,71
826,01	-0,69
826,442	-0,68
826,873	-0,66
827,304	-0,62
827,735	-0,61
828,166	-0,62
828,597	-0,6
829,028	-0,6
829,459	-0,6
829,89	-0,6
830,321	-0,56
830,752	-0,56
831,183	-0,55
831,613	-0,54
832,044	-0,53
832,475	-0,52
832,906	-0,53
833,336	-0,54
833,767	-0,54
834,198	-0,52
834,628	-0,5
835,059	-0,53
835,49	-0,54
835,92	-0,52
836,351	-0,52
836,781	-0,52
837,212	-0,53
837,642	-0,53
838,072	-0,51
838,503	-0,52
838,933	-0,5
839,364	-0,51
839,794	-0,47
840,224	-0,46
840,654	-0,5
841,085	-0,52
841,515	-0,49
841,945	-0,5
842,375	-0,46
842,805	-0,45
843,235	-0,44
843,665	-0,46
844,095	-0,45
844,525	-0,48
844,955	-0,48
845,385	-0,46
845,815	-0,44
846,245	-0,46
846,675	-0,46
847,105	-0,47
847,534	-0,48
847,964	-0,47
848,394	-0,45
848,824	-0,49
849,253	-0,48
849,683	-0,48
850,112	-0,49
850,542	-0,52
850,972	-0,53
851,401	-0,51
851,831	-0,5
852,26	-0,5
852,69	-0,53
853,119	-0,53
853,548	-0,53
853,978	-0,53
854,407	-0,51
854,836	-0,51
855,266	-0,5
855,695	-0,52
856,124	-0,53
856,553	-0,54
856,983	-0,56
857,412	-0,55
857,841	-0,55
858,27	-0,56
858,699	-0,56
859,128	-0,6
859,557	-0,61
859,986	-0,63
860,415	-0,61
860,844	-0,59
861,273	-0,59
861,702	-0,59
862,13	-0,57
862,559	-0,6
862,988	-0,58
863,417	-0,56
863,845	-0,56
864,274	-0,56
864,703	-0,56
865,131	-0,56
865,56	-0,57
865,989	-0,59
866,417	-0,56
866,846	-0,56
867,274	-0,55
867,703	-0,57
868,131	-0,59
868,559	-0,59
868,988	-0,61
869,416	-0,6
869,844	-0,62
870,273	-0,64
870,701	-0,62
871,129	-0,65
871,557	-0,67
871,986	-0,67
872,414	-0,69
872,842	-0,66
873,27	-0,64
873,698	-0,6
874,126	-0,64
874,554	-0,62
874,982	-0,62
875,41	-0,65
875,838	-0,6
876,266	-0,57
876,694	-0,58
877,122	-0,57
877,549	-0,62
877,977	-0,59
878,405	-0,61
878,833	-0,58
879,26	-0,56
879,688	-0,56
880,116	-0,54
880,543	-0,53
880,971	-0,52
881,399	-0,54
881,826	-0,55
882,254	-0,53
882,681	-0,57
883,109	-0,53
883,536	-0,53
883,963	-0,55
884,391	-0,53
884,818	-0,52
885,245	-0,55
885,673	-0,58
886,1	-0,54
886,527	-0,54
886,954	-0,5
887,381	-0,52
887,809	-0,54
888,236	-0,56
888,663	-0,57
889,09	-0,61
889,517	-0,63
889,944	-0,63
890,371	-0,61
890,798	-0,62
891,225	-0,61
891,652	-0,65
892,078	-0,62
892,505	-0,65
892,932	-0,6
893,359	-0,62
893,786	-0,61
894,212	-0,58
894,639	-0,6
895,066	-0,63
895,492	-0,58
895,919	-0,57
896,346	-0,56
896,772	-0,56
897,199	-0,53
897,625	-0,57
898,052	-0,52
898,478	-0,51
898,904	-0,53
899,331	-0,52
899,757	-0,53
900,183	-0,55
900,61	-0,55
901,036	-0,55
901,462	-0,54
901,888	-0,54
902,315	-0,53
902,741	-0,58
903,167	-0,57
903,593	-0,59
904,019	-0,58
904,445	-0,55
904,871	-0,58
905,297	-0,59
905,723	-0,59
906,149	-0,58
906,575	-0,58
907,001	-0,58
907,427	-0,55
907,852	-0,53
908,278	-0,54
908,704	-0,52
909,13	-0,51
909,555	-0,5
909,981	-0,5
910,407	-0,5
910,832	-0,5
911,258	-0,5
911,684	-0,51
912,109	-0,51
912,535	-0,54
912,96	-0,49
913,386	-0,53
913,811	-0,53
914,236	-0,55
914,662	-0,52
915,087	-0,56
915,512	-0,55
915,938	-0,57
916,363	-0,56
916,788	-0,58
917,213	-0,56
917,639	-0,61
918,064	-0,58
918,489	-0,59
918,914	-0,59
919,339	-0,6
919,764	-0,57
920,189	-0,58
920,614	-0,6
921,039	-0,6
921,464	-0,57
921,889	-0,6
922,314	-0,61
922,738	-0,64
923,163	-0,66
923,588	-0,66
924,013	-0,66
924,437	-0,65
924,862	-0,66
925,287	-0,62
925,711	-0,63
926,136	-0,64
926,561	-0,61
926,985	-0,59
927,41	-0,57
927,834	-0,55
928,259	-0,52
928,683	-0,51
929,108	-0,47
929,532	-0,48
929,956	-0,47
930,381	-0,47
930,805	-0,47
931,229	-0,46
931,653	-0,45
932,078	-0,44
932,502	-0,45
932,926	-0,46
933,35	-0,46
933,774	-0,46
934,198	-0,43
934,622	-0,43
935,046	-0,43
935,47	-0,43
935,894	-0,43
936,318	-0,43
936,742	-0,43
937,166	-0,44
937,59	-0,43
938,014	-0,46
938,437	-0,46
938,861	-0,48
939,285	-0,49
939,709	-0,48
940,132	-0,49
940,556	-0,49
940,98	-0,49
941,403	-0,47
941,827	-0,47
942,25	-0,49
942,674	-0,47
943,097	-0,47
943,521	-0,47
943,944	-0,48
944,368	-0,48
944,791	-0,46
945,214	-0,48
945,638	-0,49
946,061	-0,52
946,484	-0,54
946,907	-0,52
947,331	-0,52
947,754	-0,56
948,177	-0,52
948,6	-0,53
949,023	-0,52
949,446	-0,51
949,869	-0,49
950,292	-0,5
950,715	-0,46
951,138	-0,45
951,561	-0,42
951,984	-0,43
952,407	-0,41
952,83	-0,4
953,252	-0,35
953,675	-0,35
954,098	-0,36
954,521	-0,34
954,943	-0,34
955,366	-0,35
955,789	-0,33
956,211	-0,36
956,634	-0,36
957,056	-0,34
957,479	-0,35
957,902	-0,38
958,324	-0,38
958,746	-0,37
959,169	-0,37
959,591	-0,38
960,014	-0,4
960,436	-0,39
960,858	-0,39
961,281	-0,38
961,703	-0,39
962,125	-0,39
962,547	-0,37
962,969	-0,38
963,391	-0,38
963,814	-0,4
964,236	-0,39
964,658	-0,36
965,08	-0,37
965,502	-0,36
965,924	-0,34
966,346	-0,34
966,768	-0,33
967,189	-0,36
967,611	-0,36
968,033	-0,35
968,455	-0,33
968,877	-0,34
969,298	-0,34
969,72	-0,35
970,142	-0,35
970,563	-0,35
970,985	-0,34
971,407	-0,33
971,828	-0,31
972,25	-0,3
972,671	-0,28
973,093	-0,29
973,514	-0,27
973,936	-0,25
974,357	-0,24
974,778	-0,24
975,2	-0,24
975,621	-0,24
976,042	-0,22
976,464	-0,21
976,885	-0,21
977,306	-0,21
977,727	-0,2
978,148	-0,2
978,57	-0,19
978,991	-0,18
979,412	-0,16
979,833	-0,15
980,254	-0,15
980,675	-0,15
981,096	-0,14
981,517	-0,12
981,937	-0,11
982,358	-0,09
982,779	-0,08
983,2	-0,08
983,621	-0,07
984,042	-0,07
984,462	-0,06
984,883	-0,04
985,304	-0,03
985,724	-0,01
986,145	-0,01
986,565	0,01
986,986	0,01
987,407	0,02
987,827	0,03
988,248	0,05
988,668	0,05
989,088	0,06
989,509	0,07
989,929	0,08
990,35	0,09
990,77	0,1
991,19	0,1
991,61	0,11
992,031	0,12
992,451	0,13
992,871	0,13
993,291	0,14
993,711	0,15
994,131	0,15
994,551	0,15
994,971	0,16
995,391	0,16
995,811	0,16
996,231	0,17
996,651	0,17
997,071	0,17
997,491	0,18
997,911	0,18
998,331	0,19
998,75	0,19
999,17	0,2
999,59	0,2
1000,009	0,21
1000,429	0,21
1000,849	0,21
1001,268	0,22
1001,688	0,22
1002,107	0,22
1002,527	0,22
1002,946	0,22
1003,366	0,23
1003,785	0,23
1004,205	0,23
1004,624	0,23
1005,044	0,23
1005,463	0,23
1005,882	0,23
1006,301	0,24
1006,721	0,24
1007,14	0,24
1007,559	0,24
1007,978	0,24
1008,397	0,24
1008,816	0,24
1009,235	0,24
1009,655	0,24
1010,074	0,24
1010,492	0,23
1010,911	0,23
1011,33	0,23
1011,749	0,23
1012,168	0,23
1012,587	0,23
1013,006	0,23
1013,425	0,23
1013,843	0,23
1014,262	0,23
1014,681	0,23
1015,099	0,23
1015,518	0,23
1015,937	0,23
1016,355	0,23
1016,774	0,23
1017,192	0,23
1017,611	0,23
1018,029	0,23
1018,448	0,23
1018,866	0,23
1019,285	0,23
1019,703	0,23
1020,121	0,23
1020,54	0,23
1020,958	0,23
1021,376	0,23
1021,794	0,23
1022,213	0,23
1022,631	0,23
1023,049	0,23
1023,467	0,23
1023,885	0,23
1024,303	0,23
1024,721	0,23
1025,139	0,23
1025,557	0,23
1025,975	0,23
1026,393	0,23
1026,811	0,23
1027,229	0,22
1027,647	0,22
1028,065	0,22
1028,482	0,22
1028,9	0,22
1029,318	0,22
1029,735	0,22
1030,153	0,22
1030,571	0,22
1030,988	0,22
1031,406	0,22
1031,823	0,22
1032,241	0,22
1032,659	0,22
1033,076	0,22
1033,493	0,22
1033,911	0,22
1034,328	0,22
1034,746	0,22
1035,163	0,22
1035,58	0,22
1035,997	0,22
1036,415	0,22
1036,832	0,22
1037,249	0,22
1037,666	0,22
1038,083	0,22
1038,501	0,22
1038,918	0,22
1039,335	0,22
1039,752	0,22
1040,169	0,22
1040,586	0,22
1041,003	0,22
1041,419	0,22
1041,836	0,22
1042,253	0,22
1042,67	0,22
1043,087	0,21
1043,504	0,22
1043,92	0,21
1044,337	0,21
1044,754	0,21
1045,17	0,21
1045,587	0,21
1046,004	0,21
1046,42	0,21
1046,837	0,21
1047,253	0,21
1047,67	0,21
1048,086	0,21
1048,503	0,21
1048,919	0,21
1049,335	0,21
1049,752	0,21
1050,168	0,21
1050,584	0,21
1051,001	0,21
1051,417	0,21
1051,833	0,21
1052,249	0,21
1052,665	0,21
1053,081	0,21
1053,497	0,21
1053,914	0,21
1054,33	0,21
1054,746	0,21
1055,162	0,21
1055,578	0,21
1055,993	0,21
1056,409	0,21
1056,825	0,22
1057,241	0,22
1057,657	0,22
1058,073	0,22
1058,488	0,22
1058,904	0,22
1059,32	0,22
1059,736	0,22
1060,151	0,22
1060,567	0,22
1060,982	0,22
1061,398	0,22
1061,813	0,22
1062,229	0,22
1062,644	0,22
1063,06	0,22
1063,475	0,21
1063,891	0,21
1064,306	0,21
1064,721	0,21
1065,137	0,21
1065,552	0,21
1065,967	0,21
1066,382	0,21
1066,798	0,21
1067,213	0,21
1067,628	0,21
1068,043	0,21
1068,458	0,21
1068,873	0,21
1069,288	0,21
1069,703	0,21
1070,118	0,21
1070,533	0,22
1070,948	0,22
1071,363	0,22
1071,778	0,22
1072,193	0,22
1072,607	0,22
1073,022	0,22
1073,437	0,22
1073,852	0,22
1074,266	0,22
1074,681	0,22
1075,096	0,22
1075,51	0,22
1075,925	0,22
1076,339	0,22
1076,754	0,22
1077,168	0,22
1077,583	0,22
1077,997	0,22
1078,412	0,22
1078,826	0,22
1079,24	0,22
1079,655	0,21
1080,069	0,21
1080,483	0,21
1080,897	0,21
1081,312	0,21
1081,726	0,21
1082,14	0,21
1082,554	0,21
1082,968	0,21
1083,382	0,21
1083,796	0,21
1084,21	0,21
1084,624	0,21
1085,038	0,2
1085,452	0,2
1085,866	0,2
1086,28	0,2
1086,694	0,2
1087,108	0,2
1087,521	0,2
1087,935	0,2
1088,349	0,2
1088,763	0,2
1089,176	0,19
1089,59	0,19
1090,004	0,19
1090,417	0,19
1090,831	0,19
1091,244	0,18
1091,658	0,18
1092,071	0,18
1092,485	0,18
1092,898	0,18
1093,312	0,18
1093,725	0,18
1094,138	0,18
1094,552	0,18
1094,965	0,18
1095,378	0,18
1095,791	0,17
1096,205	0,17
1096,618	0,17
1097,031	0,17
1097,444	0,17
1097,857	0,17
1098,27	0,17
1098,683	0,17
1099,096	0,16
1099,509	0,16
1099,922	0,16
1100,335	0,15
1100,748	0,15
1101,161	0,15
1101,574	0,14
1101,986	0,14
1102,399	0,14
1102,812	0,14
1103,225	0,14
1103,637	0,13
1104,05	0,13
1104,463	0,14
1104,875	0,13
1105,288	0,13
1105,7	0,12
1106,113	0,12
1106,525	0,12
1106,938	0,12
1107,35	0,11
1107,763	0,11
1108,175	0,11
1108,588	0,1
1109	0,1
1109,412	0,1
1109,824	0,1
1110,237	0,1
1110,649	0,11
1111,061	0,12
