Data from 18C-808nm-8A_Absorbance__1330__01330.txt Node

Date: Mon Jul 17 17:11:48 CEST 2023
User: Laser008
Spectrometer: MAYP115816
Trigger mode: 0
Integration Time (sec): 2,500000E-1
Scans to average: 10
Electric dark correction enabled: true
Nonlinearity correction enabled: true
Boxcar width: 5
XAxis mode: Wavelengths
Number of Pixels in Spectrum: 2068
>>>>>Begin Spectral Data<<<<<
198,914	-0,68
199,384	-0,44
199,855	-0,32
200,325	-0,25
200,796	-0,23
201,266	-0,18
201,737	-0,17
202,207	-0,16
202,677	-0,15
203,147	-0,14
203,618	-0,11
204,088	-0,1
204,558	-0,11
205,028	-0,1
205,498	-0,1
205,968	-0,1
206,439	-0,12
206,909	-0,11
207,379	-0,12
207,849	-0,11
208,319	-0,12
208,789	-0,12
209,258	-0,11
209,728	-0,12
210,198	-0,12
210,668	-0,13
211,138	-0,12
211,608	-0,12
212,077	-0,12
212,547	-0,11
213,017	-0,12
213,486	-0,13
213,956	-0,14
214,426	-0,16
214,895	-0,15
215,365	-0,16
215,834	-0,16
216,304	-0,17
216,773	-0,17
217,243	-0,19
217,712	-0,2
218,181	-0,2
218,651	-0,2
219,12	-0,2
219,589	-0,19
220,058	-0,18
220,528	-0,19
220,997	-0,19
221,466	-0,21
221,935	-0,22
222,404	-0,21
222,873	-0,2
223,342	-0,2
223,812	-0,2
224,281	-0,2
224,749	-0,2
225,218	-0,22
225,687	-0,22
226,156	-0,21
226,625	-0,18
227,094	-0,18
227,563	-0,18
228,031	-0,19
228,5	-0,19
228,969	-0,2
229,438	-0,19
229,906	-0,18
230,375	-0,17
230,844	-0,17
231,312	-0,17
231,781	-0,18
232,249	-0,18
232,718	-0,17
233,186	-0,16
233,655	-0,17
234,123	-0,17
234,591	-0,17
235,06	-0,17
235,528	-0,18
235,996	-0,18
236,465	-0,17
236,933	-0,17
237,401	-0,17
237,869	-0,16
238,337	-0,16
238,805	-0,15
239,274	-0,15
239,742	-0,15
240,21	-0,14
240,678	-0,13
241,146	-0,13
241,614	-0,13
242,081	-0,13
242,549	-0,13
243,017	-0,13
243,485	-0,13
243,953	-0,13
244,421	-0,13
244,888	-0,13
245,356	-0,12
245,824	-0,12
246,291	-0,12
246,759	-0,13
247,227	-0,13
247,694	-0,12
248,162	-0,12
248,629	-0,11
249,097	-0,11
249,564	-0,12
250,032	-0,13
250,499	-0,13
250,967	-0,14
251,434	-0,15
251,901	-0,14
252,369	-0,14
252,836	-0,15
253,303	-0,16
253,77	-0,18
254,237	-0,16
254,705	-0,16
255,172	-0,15
255,639	-0,16
256,106	-0,16
256,573	-0,16
257,04	-0,16
257,507	-0,17
257,974	-0,17
258,441	-0,16
258,908	-0,17
259,375	-0,19
259,841	-0,19
260,308	-0,2
260,775	-0,2
261,242	-0,2
261,709	-0,21
262,175	-0,22
262,642	-0,22
263,109	-0,21
263,575	-0,22
264,042	-0,2
264,508	-0,19
264,975	-0,2
265,441	-0,2
265,908	-0,21
266,374	-0,21
266,841	-0,21
267,307	-0,21
267,773	-0,19
268,24	-0,2
268,706	-0,21
269,172	-0,2
269,639	-0,22
270,105	-0,21
270,571	-0,21
271,037	-0,21
271,503	-0,22
271,969	-0,22
272,435	-0,22
272,902	-0,23
273,368	-0,24
273,834	-0,24
274,3	-0,25
274,765	-0,24
275,231	-0,25
275,697	-0,24
276,163	-0,24
276,629	-0,23
277,095	-0,24
277,56	-0,24
278,026	-0,24
278,492	-0,22
278,958	-0,22
279,423	-0,21
279,889	-0,2
280,354	-0,2
280,82	-0,21
281,286	-0,22
281,751	-0,22
282,217	-0,21
282,682	-0,21
283,147	-0,2
283,613	-0,22
284,078	-0,22
284,544	-0,23
285,009	-0,24
285,474	-0,23
285,939	-0,24
286,405	-0,23
286,87	-0,22
287,335	-0,21
287,8	-0,21
288,265	-0,19
288,73	-0,21
289,195	-0,22
289,66	-0,23
290,125	-0,22
290,59	-0,21
291,055	-0,21
291,52	-0,21
291,985	-0,22
292,45	-0,23
292,915	-0,22
293,38	-0,23
293,844	-0,21
294,309	-0,2
294,774	-0,19
295,239	-0,2
295,703	-0,21
296,168	-0,2
296,632	-0,19
297,097	-0,18
297,562	-0,17
298,026	-0,18
298,491	-0,18
298,955	-0,18
299,419	-0,18
299,884	-0,17
300,348	-0,16
300,813	-0,15
301,277	-0,16
301,741	-0,16
302,205	-0,16
302,67	-0,15
303,134	-0,14
303,598	-0,14
304,062	-0,14
304,526	-0,13
304,99	-0,15
305,454	-0,15
305,919	-0,16
306,383	-0,15
306,847	-0,15
307,31	-0,15
307,774	-0,15
308,238	-0,15
308,702	-0,16
309,166	-0,18
309,63	-0,18
310,094	-0,15
310,557	-0,15
311,021	-0,14
311,485	-0,14
311,948	-0,14
312,412	-0,13
312,876	-0,13
313,339	-0,14
313,803	-0,14
314,266	-0,13
314,73	-0,13
315,193	-0,13
315,657	-0,12
316,12	-0,13
316,584	-0,12
317,047	-0,12
317,51	-0,11
317,973	-0,1
318,437	-0,09
318,9	-0,08
319,363	-0,07
319,826	-0,07
320,29	-0,08
320,753	-0,08
321,216	-0,08
321,679	-0,08
322,142	-0,08
322,605	-0,09
323,068	-0,09
323,531	-0,1
323,994	-0,1
324,457	-0,1
324,92	-0,09
325,382	-0,08
325,845	-0,08
326,308	-0,06
326,771	-0,06
327,233	-0,06
327,696	-0,04
328,159	-0,03
328,622	-0,02
329,084	-0,02
329,547	-0,02
330,009	-0,02
330,472	-0,01
330,934	-0,01
331,397	-0,01
331,859	-0
332,322	0,01
332,784	0,01
333,246	0,01
333,709	0,01
334,171	0,02
334,633	0,03
335,096	0,03
335,558	0,03
336,02	0,03
336,482	0,03
336,944	0,04
337,406	0,05
337,868	0,05
338,331	0,04
338,793	0,05
339,255	0,05
339,717	0,05
340,178	0,06
340,64	0,07
341,102	0,08
341,564	0,08
342,026	0,09
342,488	0,1
342,949	0,11
343,411	0,13
343,873	0,15
344,335	0,18
344,796	0,21
345,258	0,24
345,719	0,28
346,181	0,31
346,643	0,34
347,104	0,36
347,566	0,38
348,027	0,4
348,488	0,41
348,95	0,42
349,411	0,44
349,873	0,45
350,334	0,46
350,795	0,47
351,256	0,48
351,718	0,48
352,179	0,49
352,64	0,49
353,101	0,49
353,562	0,49
354,023	0,49
354,484	0,49
354,945	0,5
355,406	0,5
355,867	0,5
356,328	0,5
356,789	0,5
357,25	0,5
357,711	0,5
358,172	0,5
358,633	0,5
359,093	0,51
359,554	0,51
360,015	0,51
360,476	0,51
360,936	0,51
361,397	0,51
361,858	0,51
362,318	0,51
362,779	0,51
363,239	0,51
363,7	0,51
364,16	0,51
364,621	0,51
365,081	0,51
365,541	0,51
366,002	0,51
366,462	0,51
366,922	0,51
367,383	0,51
367,843	0,51
368,303	0,51
368,763	0,51
369,223	0,51
369,684	0,51
370,144	0,51
370,604	0,51
371,064	0,51
371,524	0,51
371,984	0,51
372,444	0,51
372,904	0,51
373,363	0,51
373,823	0,51
374,283	0,51
374,743	0,51
375,203	0,51
375,663	0,51
376,122	0,51
376,582	0,51
377,042	0,51
377,501	0,51
377,961	0,51
378,42	0,51
378,88	0,5
379,34	0,5
379,799	0,5
380,259	0,5
380,718	0,5
381,177	0,5
381,637	0,5
382,096	0,5
382,555	0,5
383,015	0,5
383,474	0,5
383,933	0,5
384,393	0,5
384,852	0,5
385,311	0,5
385,77	0,5
386,229	0,5
386,688	0,5
387,147	0,5
387,606	0,5
388,065	0,5
388,524	0,5
388,983	0,5
389,442	0,5
389,901	0,5
390,36	0,49
390,819	0,49
391,277	0,49
391,736	0,49
392,195	0,49
392,654	0,49
393,112	0,49
393,571	0,49
394,03	0,49
394,488	0,49
394,947	0,49
395,405	0,49
395,864	0,49
396,322	0,49
396,781	0,49
397,239	0,49
397,698	0,49
398,156	0,49
398,614	0,49
399,073	0,49
399,531	0,49
399,989	0,49
400,447	0,49
400,905	0,49
401,364	0,49
401,822	0,49
402,28	0,49
402,738	0,49
403,196	0,49
403,654	0,49
404,112	0,49
404,57	0,49
405,028	0,49
405,486	0,49
405,944	0,49
406,402	0,49
406,859	0,49
407,317	0,49
407,775	0,49
408,233	0,49
408,691	0,49
409,148	0,49
409,606	0,49
410,064	0,48
410,521	0,48
410,979	0,48
411,436	0,48
411,894	0,48
412,351	0,48
412,809	0,48
413,266	0,48
413,724	0,48
414,181	0,48
414,638	0,48
415,096	0,48
415,553	0,48
416,01	0,48
416,467	0,48
416,925	0,48
417,382	0,48
417,839	0,48
418,296	0,48
418,753	0,48
419,21	0,48
419,667	0,48
420,124	0,48
420,581	0,48
421,038	0,48
421,495	0,48
421,952	0,48
422,409	0,48
422,866	0,48
423,322	0,48
423,779	0,48
424,236	0,48
424,693	0,48
425,149	0,48
425,606	0,48
426,063	0,48
426,519	0,48
426,976	0,48
427,433	0,48
427,889	0,48
428,346	0,48
428,802	0,48
429,258	0,48
429,715	0,48
430,171	0,48
430,628	0,48
431,084	0,48
431,54	0,48
431,997	0,48
432,453	0,48
432,909	0,48
433,365	0,47
433,821	0,47
434,277	0,47
434,734	0,47
435,19	0,47
435,646	0,47
436,102	0,47
436,558	0,47
437,014	0,47
437,47	0,47
437,925	0,47
438,381	0,47
438,837	0,47
439,293	0,48
439,749	0,47
440,205	0,47
440,66	0,47
441,116	0,47
441,572	0,47
442,027	0,47
442,483	0,47
442,939	0,47
443,394	0,47
443,85	0,47
444,305	0,47
444,761	0,47
445,216	0,48
445,672	0,48
446,127	0,48
446,582	0,48
447,038	0,48
447,493	0,48
447,948	0,48
448,403	0,48
448,859	0,48
449,314	0,48
449,769	0,48
450,224	0,48
450,679	0,48
451,134	0,48
451,589	0,48
452,044	0,48
452,499	0,48
452,954	0,48
453,409	0,48
453,864	0,48
454,319	0,48
454,774	0,48
455,229	0,48
455,684	0,48
456,138	0,48
456,593	0,48
457,048	0,48
457,503	0,48
457,957	0,48
458,412	0,48
458,866	0,48
459,321	0,48
459,776	0,48
460,23	0,48
460,685	0,48
461,139	0,48
461,593	0,48
462,048	0,48
462,502	0,48
462,957	0,48
463,411	0,48
463,865	0,48
464,319	0,48
464,774	0,49
465,228	0,49
465,682	0,49
466,136	0,49
466,59	0,49
467,044	0,49
467,499	0,49
467,953	0,49
468,407	0,49
468,861	0,49
469,315	0,49
469,768	0,49
470,222	0,49
470,676	0,49
471,13	0,49
471,584	0,49
472,038	0,49
472,491	0,49
472,945	0,49
473,399	0,49
473,852	0,5
474,306	0,5
474,76	0,5
475,213	0,5
475,667	0,5
476,12	0,5
476,574	0,5
477,027	0,5
477,481	0,5
477,934	0,5
478,388	0,5
478,841	0,5
479,294	0,51
479,748	0,51
480,201	0,51
480,654	0,51
481,107	0,51
481,561	0,51
482,014	0,51
482,467	0,51
482,92	0,52
483,373	0,52
483,826	0,52
484,279	0,52
484,732	0,52
485,185	0,52
485,638	0,52
486,091	0,52
486,544	0,53
486,997	0,53
487,449	0,53
487,902	0,53
488,355	0,53
488,808	0,53
489,26	0,54
489,713	0,54
490,166	0,54
490,618	0,54
491,071	0,54
491,523	0,55
491,976	0,55
492,429	0,55
492,881	0,55
493,333	0,55
493,786	0,56
494,238	0,56
494,691	0,56
495,143	0,56
495,595	0,57
496,048	0,57
496,5	0,57
496,952	0,57
497,404	0,57
497,856	0,58
498,309	0,58
498,761	0,58
499,213	0,59
499,665	0,59
500,117	0,59
500,569	0,59
501,021	0,6
501,473	0,6
501,925	0,6
502,377	0,61
502,828	0,61
503,28	0,61
503,732	0,61
504,184	0,62
504,636	0,62
505,087	0,62
505,539	0,63
505,991	0,63
506,442	0,63
506,894	0,63
507,345	0,64
507,797	0,64
508,249	0,64
508,7	0,65
509,151	0,65
509,603	0,65
510,054	0,65
510,506	0,66
510,957	0,66
511,408	0,66
511,86	0,66
512,311	0,67
512,762	0,67
513,213	0,67
513,665	0,67
514,116	0,68
514,567	0,68
515,018	0,68
515,469	0,68
515,92	0,69
516,371	0,69
516,822	0,69
517,273	0,69
517,724	0,7
518,175	0,7
518,626	0,7
519,076	0,7
519,527	0,7
519,978	0,71
520,429	0,71
520,88	0,71
521,33	0,71
521,781	0,71
522,232	0,71
522,682	0,71
523,133	0,72
523,583	0,72
524,034	0,72
524,484	0,72
524,935	0,72
525,385	0,72
525,836	0,72
526,286	0,72
526,736	0,72
527,187	0,72
527,637	0,72
528,087	0,72
528,538	0,72
528,988	0,72
529,438	0,72
529,888	0,72
530,338	0,72
530,788	0,72
531,238	0,72
531,688	0,72
532,139	0,72
532,589	0,71
533,038	0,71
533,488	0,71
533,938	0,71
534,388	0,71
534,838	0,71
535,288	0,71
535,738	0,7
536,187	0,7
536,637	0,7
537,087	0,7
537,537	0,7
537,986	0,69
538,436	0,69
538,885	0,69
539,335	0,68
539,785	0,68
540,234	0,68
540,684	0,68
541,133	0,67
541,582	0,67
542,032	0,67
542,481	0,66
542,931	0,66
543,38	0,66
543,829	0,65
544,278	0,65
544,728	0,65
545,177	0,64
545,626	0,64
546,075	0,64
546,524	0,64
546,973	0,63
547,422	0,63
547,871	0,63
548,32	0,63
548,769	0,62
549,218	0,62
549,667	0,62
550,116	0,62
550,565	0,62
551,014	0,61
551,463	0,61
551,911	0,61
552,36	0,61
552,809	0,6
553,258	0,6
553,706	0,6
554,155	0,59
554,603	0,59
555,052	0,59
555,501	0,59
555,949	0,58
556,398	0,58
556,846	0,58
557,294	0,57
557,743	0,57
558,191	0,57
558,64	0,56
559,088	0,56
559,536	0,56
559,985	0,55
560,433	0,55
560,881	0,55
561,329	0,55
561,777	0,54
562,225	0,54
562,674	0,54
563,122	0,54
563,57	0,53
564,018	0,53
564,466	0,53
564,914	0,53
565,362	0,52
565,809	0,52
566,257	0,52
566,705	0,51
567,153	0,51
567,601	0,51
568,048	0,51
568,496	0,5
568,944	0,5
569,392	0,5
569,839	0,5
570,287	0,49
570,734	0,49
571,182	0,49
571,63	0,49
572,077	0,48
572,525	0,48
572,972	0,48
573,419	0,48
573,867	0,47
574,314	0,47
574,761	0,47
575,209	0,47
575,656	0,47
576,103	0,46
576,551	0,46
576,998	0,46
577,445	0,46
577,892	0,46
578,339	0,46
578,786	0,45
579,233	0,45
579,68	0,45
580,127	0,45
580,574	0,45
581,021	0,45
581,468	0,44
581,915	0,44
582,362	0,44
582,809	0,44
583,255	0,44
583,702	0,44
584,149	0,43
584,596	0,43
585,042	0,43
585,489	0,43
585,936	0,43
586,382	0,42
586,829	0,42
587,275	0,42
587,722	0,42
588,168	0,42
588,615	0,42
589,061	0,42
589,508	0,42
589,954	0,42
590,4	0,41
590,847	0,41
591,293	0,41
591,739	0,41
592,185	0,41
592,632	0,41
593,078	0,41
593,524	0,41
593,97	0,41
594,416	0,41
594,862	0,4
595,308	0,4
595,754	0,4
596,2	0,4
596,646	0,4
597,092	0,4
597,538	0,4
597,984	0,4
598,43	0,4
598,876	0,39
599,321	0,39
599,767	0,39
600,213	0,39
600,659	0,39
601,104	0,39
601,55	0,39
601,995	0,39
602,441	0,39
602,887	0,39
603,332	0,38
603,778	0,38
604,223	0,38
604,668	0,38
605,114	0,38
605,559	0,38
606,005	0,38
606,45	0,38
606,895	0,38
607,341	0,38
607,786	0,38
608,231	0,38
608,676	0,38
609,121	0,37
609,566	0,37
610,012	0,36
610,457	0,36
610,902	0,36
611,347	0,36
611,792	0,36
612,237	0,35
612,682	0,35
613,127	0,35
613,571	0,35
614,016	0,36
614,461	0,36
614,906	0,36
615,351	0,36
615,795	0,36
616,24	0,36
616,685	0,36
617,129	0,36
617,574	0,36
618,019	0,36
618,463	0,36
618,908	0,36
619,352	0,36
619,797	0,36
620,241	0,36
620,686	0,36
621,13	0,36
621,574	0,36
622,019	0,36
622,463	0,36
622,907	0,36
623,352	0,35
623,796	0,35
624,24	0,35
624,684	0,35
625,128	0,35
625,572	0,35
626,016	0,35
626,461	0,35
626,905	0,35
627,349	0,35
627,793	0,35
628,236	0,35
628,68	0,35
629,124	0,35
629,568	0,35
630,012	0,35
630,456	0,35
630,9	0,35
631,343	0,35
631,787	0,35
632,231	0,35
632,674	0,35
633,118	0,35
633,562	0,35
634,005	0,35
634,449	0,35
634,892	0,35
635,336	0,35
635,779	0,35
636,223	0,35
636,666	0,35
637,109	0,34
637,553	0,34
637,996	0,34
638,439	0,34
638,883	0,34
639,326	0,34
639,769	0,34
640,212	0,34
640,655	0,34
641,099	0,34
641,542	0,34
641,985	0,34
642,428	0,34
642,871	0,34
643,314	0,34
643,757	0,34
644,2	0,34
644,643	0,34
645,085	0,34
645,528	0,34
645,971	0,34
646,414	0,34
646,857	0,34
647,299	0,34
647,742	0,34
648,185	0,33
648,627	0,33
649,07	0,33
649,513	0,33
649,955	0,33
650,398	0,33
650,84	0,33
651,283	0,33
651,725	0,33
652,168	0,33
652,61	0,33
653,052	0,33
653,495	0,33
653,937	0,26
654,379	0,21
654,821	0,21
655,264	0,21
655,706	0,21
656,148	0,21
656,59	0,21
657,032	0,21
657,474	0,21
657,916	0,21
658,358	0,21
658,8	0,26
659,242	0,33
659,684	0,33
660,126	0,33
660,568	0,33
661,01	0,33
661,452	0,33
661,894	0,33
662,335	0,33
662,777	0,33
663,219	0,33
663,661	0,33
664,102	0,33
664,544	0,33
664,985	0,33
665,427	0,33
665,869	0,33
666,31	0,33
666,752	0,33
667,193	0,33
667,634	0,33
668,076	0,33
668,517	0,33
668,959	0,33
669,4	0,33
669,841	0,33
670,282	0,33
670,724	0,33
671,165	0,33
671,606	0,33
672,047	0,33
672,488	0,33
672,929	0,32
673,37	0,32
673,811	0,32
674,252	0,32
674,693	0,32
675,134	0,32
675,575	0,32
676,016	0,32
676,457	0,32
676,898	0,32
677,339	0,32
677,78	0,32
678,22	0,32
678,661	0,32
679,102	0,32
679,542	0,32
679,983	0,32
680,424	0,32
680,864	0,32
681,305	0,32
681,745	0,32
682,186	0,32
682,626	0,32
683,067	0,32
683,507	0,32
683,948	0,32
684,388	0,32
684,828	0,32
685,269	0,32
685,709	0,32
686,149	0,32
686,589	0,32
687,029	0,31
687,47	0,31
687,91	0,31
688,35	0,31
688,79	0,31
689,23	0,31
689,67	0,31
690,11	0,31
690,55	0,31
690,99	0,31
691,43	0,31
691,87	0,31
692,31	0,31
692,749	0,31
693,189	0,31
693,629	0,31
694,069	0,31
694,508	0,31
694,948	0,31
695,388	0,31
695,827	0,31
696,267	0,31
696,706	0,31
697,146	0,31
697,586	0,31
698,025	0,31
698,464	0,31
698,904	0,31
699,343	0,31
699,783	0,31
700,222	0,31
700,661	0,31
701,101	0,31
701,54	0,31
701,979	0,31
702,418	0,31
702,857	0,31
703,297	0,31
703,736	0,31
704,175	0,31
704,614	0,31
705,053	0,31
705,492	0,31
705,931	0,31
706,37	0,31
706,809	0,31
707,248	0,3
707,687	0,3
708,125	0,3
708,564	0,3
709,003	0,3
709,442	0,3
709,88	0,3
710,319	0,3
710,758	0,3
711,196	0,3
711,635	0,3
712,074	0,3
712,512	0,3
712,951	0,3
713,389	0,3
713,828	0,3
714,266	0,3
714,705	0,3
715,143	0,3
715,581	0,3
716,02	0,3
716,458	0,3
716,896	0,3
717,334	0,29
717,773	0,29
718,211	0,29
718,649	0,29
719,087	0,29
719,525	0,29
719,963	0,29
720,401	0,29
720,839	0,29
721,277	0,29
721,715	0,29
722,153	0,29
722,591	0,29
723,029	0,29
723,467	0,29
723,905	0,29
724,342	0,29
724,78	0,29
725,218	0,29
725,656	0,29
726,093	0,29
726,531	0,29
726,969	0,29
727,406	0,29
727,844	0,29
728,281	0,29
728,719	0,29
729,156	0,29
729,594	0,29
730,031	0,29
730,469	0,29
730,906	0,29
731,343	0,29
731,781	0,29
732,218	0,29
732,655	0,29
733,092	0,29
733,53	0,29
733,967	0,29
734,404	0,29
734,841	0,29
735,278	0,29
735,715	0,29
736,152	0,29
736,589	0,29
737,026	0,29
737,463	0,29
737,9	0,29
738,337	0,29
738,774	0,29
739,211	0,28
739,647	0,28
740,084	0,28
740,521	0,28
740,958	0,28
741,394	0,28
741,831	0,28
742,268	0,28
742,704	0,28
743,141	0,28
743,577	0,28
744,014	0,28
744,45	0,27
744,887	0,27
745,323	0,27
745,76	0,27
746,196	0,27
746,632	0,27
747,069	0,27
747,505	0,27
747,941	0,27
748,378	0,27
748,814	0,27
749,25	0,27
749,686	0,27
750,122	0,28
750,558	0,28
750,994	0,28
751,43	0,28
751,866	0,28
752,302	0,28
752,738	0,28
753,174	0,29
753,61	0,29
754,046	0,29
754,482	0,29
754,918	0,29
755,354	0,29
755,789	0,29
756,225	0,29
756,661	0,29
757,096	0,29
757,532	0,28
757,968	0,28
758,403	0,28
758,839	0,28
759,274	0,28
759,71	0,27
760,145	0,27
760,581	0,27
761,016	0,26
761,452	0,26
761,887	0,26
762,322	0,25
762,758	0,25
763,193	0,25
763,628	0,25
764,063	0,24
764,499	0,24
764,934	0,23
765,369	0,23
765,804	0,22
766,239	0,22
766,674	0,21
767,109	0,2
767,544	0,2
767,979	0,19
768,414	0,18
768,849	0,17
769,284	0,17
769,719	0,16
770,154	0,16
770,588	0,15
771,023	0,15
771,458	0,14
771,893	0,13
772,327	0,12
772,762	0,11
773,197	0,1
773,631	0,09
774,066	0,08
774,5	0,07
774,935	0,06
775,369	0,05
775,804	0,04
776,238	0,04
776,673	0,03
777,107	0,03
777,541	0,02
777,976	0,02
778,41	0,01
778,844	0
779,279	-0
779,713	-0,01
780,147	-0,01
780,581	-0,02
781,015	-0,03
781,449	-0,04
781,883	-0,04
782,317	-0,06
782,751	-0,07
783,185	-0,07
783,619	-0,07
784,053	-0,09
784,487	-0,1
784,921	-0,1
785,355	-0,11
785,789	-0,12
786,223	-0,13
786,656	-0,14
787,09	-0,15
787,524	-0,15
787,957	-0,17
788,391	-0,19
788,825	-0,2
789,258	-0,21
789,692	-0,22
790,125	-0,24
790,559	-0,26
790,992	-0,28
791,426	-0,3
791,859	-0,31
792,293	-0,34
792,726	-0,36
793,159	-0,37
793,593	-0,39
794,026	-0,41
794,459	-0,44
794,892	-0,47
795,326	-0,49
795,759	-0,53
796,192	-0,57
796,625	-0,61
797,058	-0,64
797,491	-0,68
797,924	-0,72
798,357	-0,77
798,79	-0,81
799,223	-0,85
799,656	-0,91
800,089	-0,96
800,522	-1
800,955	-1,04
801,387	-1,1
801,82	-1,15
802,253	-1,21
802,686	-1,29
803,118	-1,35
803,551	-1,4
803,984	-1,44
804,416	-1,48
804,849	-1,51
805,281	-1,64
805,714	-1,98
806,146	-2,43
806,579	-2,7
807,011	-2,86
807,444	-2,96
807,876	-3,05
808,308	-3,09
808,741	-3,12
809,173	-3,17
809,605	-3,19
810,037	-3,27
810,47	-3,19
810,902	-3
811,334	-2,85
811,766	-2,7
812,198	-2,47
812,63	-2,05
813,062	-1,81
813,494	-1,71
813,926	-1,62
814,358	-1,57
814,79	-1,48
815,222	-1,42
815,654	-1,37
816,086	-1,31
816,518	-1,26
816,949	-1,2
817,381	-1,16
817,813	-1,14
818,245	-1,1
818,676	-1,06
819,108	-1,03
819,54	-1,01
819,971	-0,98
820,403	-0,94
820,834	-0,93
821,266	-0,88
821,697	-0,86
822,129	-0,84
822,56	-0,82
822,991	-0,79
823,423	-0,76
823,854	-0,76
824,286	-0,73
824,717	-0,72
825,148	-0,7
825,579	-0,69
826,01	-0,67
826,442	-0,67
826,873	-0,66
827,304	-0,62
827,735	-0,61
828,166	-0,62
828,597	-0,61
829,028	-0,6
829,459	-0,6
829,89	-0,61
830,321	-0,56
830,752	-0,57
831,183	-0,56
831,613	-0,55
832,044	-0,55
832,475	-0,54
832,906	-0,54
833,336	-0,55
833,767	-0,56
834,198	-0,54
834,628	-0,52
835,059	-0,55
835,49	-0,57
835,92	-0,54
836,351	-0,54
836,781	-0,54
837,212	-0,56
837,642	-0,56
838,072	-0,54
838,503	-0,55
838,933	-0,53
839,364	-0,54
839,794	-0,52
840,224	-0,5
840,654	-0,55
841,085	-0,54
841,515	-0,52
841,945	-0,52
842,375	-0,47
842,805	-0,46
843,235	-0,45
843,665	-0,47
844,095	-0,45
844,525	-0,47
844,955	-0,47
845,385	-0,45
845,815	-0,44
846,245	-0,46
846,675	-0,47
847,105	-0,49
847,534	-0,49
847,964	-0,47
848,394	-0,45
848,824	-0,48
849,253	-0,47
849,683	-0,47
850,112	-0,48
850,542	-0,51
850,972	-0,52
851,401	-0,5
851,831	-0,48
852,26	-0,49
852,69	-0,52
853,119	-0,52
853,548	-0,53
853,978	-0,54
854,407	-0,52
854,836	-0,52
855,266	-0,51
855,695	-0,52
856,124	-0,53
856,553	-0,55
856,983	-0,57
857,412	-0,56
857,841	-0,57
858,27	-0,57
858,699	-0,58
859,128	-0,61
859,557	-0,62
859,986	-0,63
860,415	-0,61
860,844	-0,59
861,273	-0,59
861,702	-0,6
862,13	-0,58
862,559	-0,59
862,988	-0,57
863,417	-0,56
863,845	-0,55
864,274	-0,55
864,703	-0,55
865,131	-0,55
865,56	-0,56
865,989	-0,59
866,417	-0,55
866,846	-0,55
867,274	-0,55
867,703	-0,57
868,131	-0,58
868,559	-0,58
868,988	-0,59
869,416	-0,58
869,844	-0,59
870,273	-0,62
870,701	-0,6
871,129	-0,63
871,557	-0,65
871,986	-0,65
872,414	-0,66
872,842	-0,64
873,27	-0,62
873,698	-0,59
874,126	-0,63
874,554	-0,61
874,982	-0,6
875,41	-0,62
875,838	-0,59
876,266	-0,56
876,694	-0,57
877,122	-0,55
877,549	-0,6
877,977	-0,57
878,405	-0,6
878,833	-0,57
879,26	-0,56
879,688	-0,56
880,116	-0,55
880,543	-0,52
880,971	-0,52
881,399	-0,54
881,826	-0,56
882,254	-0,54
882,681	-0,58
883,109	-0,55
883,536	-0,55
883,963	-0,57
884,391	-0,55
884,818	-0,54
885,245	-0,57
885,673	-0,58
886,1	-0,56
886,527	-0,56
886,954	-0,53
887,381	-0,54
887,809	-0,55
888,236	-0,57
888,663	-0,58
889,09	-0,62
889,517	-0,64
889,944	-0,63
890,371	-0,62
890,798	-0,62
891,225	-0,62
891,652	-0,65
892,078	-0,62
892,505	-0,65
892,932	-0,6
893,359	-0,6
893,786	-0,6
894,212	-0,56
894,639	-0,58
895,066	-0,6
895,492	-0,54
895,919	-0,54
896,346	-0,53
896,772	-0,54
897,199	-0,5
897,625	-0,53
898,052	-0,5
898,478	-0,48
898,904	-0,5
899,331	-0,5
899,757	-0,53
900,183	-0,55
900,61	-0,52
901,036	-0,53
901,462	-0,54
901,888	-0,54
902,315	-0,53
902,741	-0,57
903,167	-0,56
903,593	-0,59
904,019	-0,57
904,445	-0,53
904,871	-0,56
905,297	-0,58
905,723	-0,57
906,149	-0,56
906,575	-0,56
907,001	-0,56
907,427	-0,53
907,852	-0,52
908,278	-0,53
908,704	-0,51
909,13	-0,51
909,555	-0,51
909,981	-0,49
910,407	-0,5
910,832	-0,5
911,258	-0,51
911,684	-0,51
912,109	-0,52
912,535	-0,54
912,96	-0,5
913,386	-0,54
913,811	-0,54
914,236	-0,55
914,662	-0,53
915,087	-0,56
915,512	-0,56
915,938	-0,58
916,363	-0,57
916,788	-0,58
917,213	-0,56
917,639	-0,6
918,064	-0,57
918,489	-0,58
918,914	-0,58
919,339	-0,59
919,764	-0,57
920,189	-0,57
920,614	-0,58
921,039	-0,59
921,464	-0,56
921,889	-0,57
922,314	-0,59
922,738	-0,62
923,163	-0,63
923,588	-0,62
924,013	-0,62
924,437	-0,62
924,862	-0,64
925,287	-0,6
925,711	-0,61
926,136	-0,63
926,561	-0,61
926,985	-0,61
927,41	-0,58
927,834	-0,55
928,259	-0,53
928,683	-0,52
929,108	-0,49
929,532	-0,49
929,956	-0,49
930,381	-0,47
930,805	-0,47
931,229	-0,46
931,653	-0,45
932,078	-0,45
932,502	-0,46
932,926	-0,48
933,35	-0,48
933,774	-0,48
934,198	-0,46
934,622	-0,44
935,046	-0,45
935,47	-0,46
935,894	-0,46
936,318	-0,45
936,742	-0,44
937,166	-0,45
937,59	-0,44
938,014	-0,46
938,437	-0,46
938,861	-0,48
939,285	-0,49
939,709	-0,49
940,132	-0,49
940,556	-0,49
940,98	-0,49
941,403	-0,47
941,827	-0,48
942,25	-0,5
942,674	-0,47
943,097	-0,47
943,521	-0,47
943,944	-0,48
944,368	-0,47
944,791	-0,46
945,214	-0,47
945,638	-0,47
946,061	-0,51
946,484	-0,52
946,907	-0,5
947,331	-0,5
947,754	-0,54
948,177	-0,51
948,6	-0,5
949,023	-0,5
949,446	-0,51
949,869	-0,49
950,292	-0,5
950,715	-0,46
951,138	-0,45
951,561	-0,43
951,984	-0,43
952,407	-0,42
952,83	-0,41
953,252	-0,37
953,675	-0,37
954,098	-0,37
954,521	-0,36
954,943	-0,35
955,366	-0,36
955,789	-0,33
956,211	-0,36
956,634	-0,36
957,056	-0,34
957,479	-0,35
957,902	-0,38
958,324	-0,38
958,746	-0,36
959,169	-0,37
959,591	-0,37
960,014	-0,37
960,436	-0,38
960,858	-0,38
961,281	-0,37
961,703	-0,38
962,125	-0,39
962,547	-0,37
962,969	-0,38
963,391	-0,38
963,814	-0,39
964,236	-0,39
964,658	-0,36
965,08	-0,38
965,502	-0,36
965,924	-0,34
966,346	-0,34
966,768	-0,33
967,189	-0,35
967,611	-0,34
968,033	-0,34
968,455	-0,32
968,877	-0,34
969,298	-0,35
969,72	-0,35
970,142	-0,34
970,563	-0,34
970,985	-0,32
971,407	-0,31
971,828	-0,3
972,25	-0,29
972,671	-0,28
973,093	-0,28
973,514	-0,26
973,936	-0,24
974,357	-0,23
974,778	-0,23
975,2	-0,24
975,621	-0,23
976,042	-0,21
976,464	-0,21
976,885	-0,2
977,306	-0,19
977,727	-0,18
978,148	-0,17
978,57	-0,16
978,991	-0,14
979,412	-0,13
979,833	-0,12
980,254	-0,12
980,675	-0,12
981,096	-0,11
981,517	-0,1
981,937	-0,09
982,358	-0,09
982,779	-0,07
983,2	-0,08
983,621	-0,08
984,042	-0,06
984,462	-0,05
984,883	-0,03
985,304	-0,03
985,724	-0,02
986,145	-0,01
986,565	0,01
986,986	0,02
987,407	0,02
987,827	0,03
988,248	0,05
988,668	0,05
989,088	0,06
989,509	0,07
989,929	0,08
990,35	0,09
990,77	0,1
991,19	0,1
991,61	0,11
992,031	0,12
992,451	0,12
992,871	0,13
993,291	0,14
993,711	0,14
994,131	0,15
994,551	0,15
994,971	0,16
995,391	0,16
995,811	0,17
996,231	0,17
996,651	0,17
997,071	0,18
997,491	0,19
997,911	0,19
998,331	0,2
998,75	0,2
999,17	0,21
999,59	0,21
1000,009	0,21
1000,429	0,21
1000,849	0,22
1001,268	0,22
1001,688	0,23
1002,107	0,23
1002,527	0,23
1002,946	0,23
1003,366	0,23
1003,785	0,24
1004,205	0,24
1004,624	0,24
1005,044	0,24
1005,463	0,24
1005,882	0,24
1006,301	0,24
1006,721	0,25
1007,14	0,25
1007,559	0,25
1007,978	0,25
1008,397	0,25
1008,816	0,25
1009,235	0,25
1009,655	0,25
1010,074	0,24
1010,492	0,24
1010,911	0,24
1011,33	0,24
1011,749	0,24
1012,168	0,24
1012,587	0,24
1013,006	0,24
1013,425	0,24
1013,843	0,24
1014,262	0,24
1014,681	0,24
1015,099	0,24
1015,518	0,24
1015,937	0,24
1016,355	0,24
1016,774	0,24
1017,192	0,24
1017,611	0,24
1018,029	0,24
1018,448	0,24
1018,866	0,24
1019,285	0,24
1019,703	0,24
1020,121	0,24
1020,54	0,24
1020,958	0,24
1021,376	0,24
1021,794	0,24
1022,213	0,24
1022,631	0,24
1023,049	0,24
1023,467	0,24
1023,885	0,24
1024,303	0,24
1024,721	0,24
1025,139	0,24
1025,557	0,24
1025,975	0,24
1026,393	0,24
1026,811	0,23
1027,229	0,23
1027,647	0,23
1028,065	0,23
1028,482	0,23
1028,9	0,23
1029,318	0,23
1029,735	0,23
1030,153	0,23
1030,571	0,23
1030,988	0,23
1031,406	0,23
1031,823	0,23
1032,241	0,23
1032,659	0,23
1033,076	0,23
1033,493	0,23
1033,911	0,23
1034,328	0,23
1034,746	0,23
1035,163	0,23
1035,58	0,23
1035,997	0,23
1036,415	0,23
1036,832	0,23
1037,249	0,23
1037,666	0,23
1038,083	0,23
1038,501	0,23
1038,918	0,23
1039,335	0,23
1039,752	0,23
1040,169	0,23
1040,586	0,23
1041,003	0,23
1041,419	0,23
1041,836	0,23
1042,253	0,23
1042,67	0,23
1043,087	0,22
1043,504	0,22
1043,92	0,22
1044,337	0,22
1044,754	0,22
1045,17	0,22
1045,587	0,22
1046,004	0,22
1046,42	0,22
1046,837	0,22
1047,253	0,22
1047,67	0,22
1048,086	0,22
1048,503	0,22
1048,919	0,22
1049,335	0,22
1049,752	0,22
1050,168	0,22
1050,584	0,22
1051,001	0,22
1051,417	0,22
1051,833	0,22
1052,249	0,22
1052,665	0,22
1053,081	0,22
1053,497	0,22
1053,914	0,22
1054,33	0,22
1054,746	0,22
1055,162	0,22
1055,578	0,22
1055,993	0,23
1056,409	0,23
1056,825	0,23
1057,241	0,23
1057,657	0,23
1058,073	0,23
1058,488	0,23
1058,904	0,23
1059,32	0,23
1059,736	0,23
1060,151	0,23
1060,567	0,23
1060,982	0,23
1061,398	0,23
1061,813	0,23
1062,229	0,23
1062,644	0,23
1063,06	0,23
1063,475	0,23
1063,891	0,22
1064,306	0,22
1064,721	0,22
1065,137	0,22
1065,552	0,22
1065,967	0,22
1066,382	0,22
1066,798	0,22
1067,213	0,22
1067,628	0,22
1068,043	0,22
1068,458	0,22
1068,873	0,23
1069,288	0,23
1069,703	0,23
1070,118	0,23
1070,533	0,23
1070,948	0,23
1071,363	0,23
1071,778	0,23
1072,193	0,23
1072,607	0,23
1073,022	0,23
1073,437	0,23
1073,852	0,23
1074,266	0,23
1074,681	0,23
1075,096	0,23
1075,51	0,23
1075,925	0,23
1076,339	0,23
1076,754	0,23
1077,168	0,23
1077,583	0,23
1077,997	0,23
1078,412	0,23
1078,826	0,23
1079,24	0,23
1079,655	0,23
1080,069	0,23
1080,483	0,23
1080,897	0,22
1081,312	0,22
1081,726	0,22
1082,14	0,22
1082,554	0,22
1082,968	0,22
1083,382	0,22
1083,796	0,22
1084,21	0,22
1084,624	0,22
1085,038	0,21
1085,452	0,21
1085,866	0,21
1086,28	0,21
1086,694	0,21
1087,108	0,21
1087,521	0,21
1087,935	0,21
1088,349	0,21
1088,763	0,21
1089,176	0,21
1089,59	0,21
1090,004	0,2
1090,417	0,2
1090,831	0,2
1091,244	0,2
1091,658	0,19
1092,071	0,19
1092,485	0,19
1092,898	0,19
1093,312	0,19
1093,725	0,19
1094,138	0,18
1094,552	0,18
1094,965	0,18
1095,378	0,18
1095,791	0,18
1096,205	0,18
1096,618	0,18
1097,031	0,18
1097,444	0,18
1097,857	0,17
1098,27	0,17
1098,683	0,17
1099,096	0,17
1099,509	0,17
1099,922	0,16
1100,335	0,16
1100,748	0,16
1101,161	0,15
1101,574	0,15
1101,986	0,15
1102,399	0,15
1102,812	0,15
1103,225	0,14
1103,637	0,14
1104,05	0,14
1104,463	0,13
1104,875	0,13
1105,288	0,13
1105,7	0,13
1106,113	0,12
1106,525	0,12
1106,938	0,11
1107,35	0,11
1107,763	0,11
1108,175	0,11
1108,588	0,1
1109	0,1
1109,412	0,09
1109,824	0,09
1110,237	0,09
1110,649	0,09
1111,061	0,09
