Data from 18C-808nm-8A_Absorbance__952__00952.txt Node

Date: Mon Jul 17 16:56:03 CEST 2023
User: Laser008
Spectrometer: MAYP115816
Trigger mode: 0
Integration Time (sec): 2,500000E-1
Scans to average: 10
Electric dark correction enabled: true
Nonlinearity correction enabled: true
Boxcar width: 5
XAxis mode: Wavelengths
Number of Pixels in Spectrum: 2068
>>>>>Begin Spectral Data<<<<<
198,914	-0,62
199,384	-0,44
199,855	-0,32
200,325	-0,26
200,796	-0,24
201,266	-0,19
201,737	-0,18
202,207	-0,18
202,677	-0,17
203,147	-0,16
203,618	-0,13
204,088	-0,13
204,558	-0,12
205,028	-0,11
205,498	-0,11
205,968	-0,12
206,439	-0,13
206,909	-0,13
207,379	-0,13
207,849	-0,14
208,319	-0,15
208,789	-0,15
209,258	-0,14
209,728	-0,16
210,198	-0,16
210,668	-0,15
211,138	-0,15
211,608	-0,15
212,077	-0,15
212,547	-0,14
213,017	-0,13
213,486	-0,13
213,956	-0,14
214,426	-0,14
214,895	-0,14
215,365	-0,15
215,834	-0,15
216,304	-0,15
216,773	-0,15
217,243	-0,17
217,712	-0,18
218,181	-0,18
218,651	-0,18
219,12	-0,17
219,589	-0,18
220,058	-0,16
220,528	-0,18
220,997	-0,18
221,466	-0,19
221,935	-0,2
222,404	-0,19
222,873	-0,18
223,342	-0,18
223,812	-0,19
224,281	-0,19
224,749	-0,2
225,218	-0,21
225,687	-0,21
226,156	-0,2
226,625	-0,18
227,094	-0,18
227,563	-0,18
228,031	-0,19
228,5	-0,19
228,969	-0,19
229,438	-0,18
229,906	-0,18
230,375	-0,16
230,844	-0,16
231,312	-0,16
231,781	-0,18
232,249	-0,16
232,718	-0,16
233,186	-0,15
233,655	-0,16
234,123	-0,16
234,591	-0,16
235,06	-0,16
235,528	-0,17
235,996	-0,16
236,465	-0,16
236,933	-0,16
237,401	-0,17
237,869	-0,16
238,337	-0,17
238,805	-0,15
239,274	-0,14
239,742	-0,14
240,21	-0,13
240,678	-0,13
241,146	-0,13
241,614	-0,12
242,081	-0,12
242,549	-0,12
243,017	-0,12
243,485	-0,12
243,953	-0,13
244,421	-0,13
244,888	-0,14
245,356	-0,14
245,824	-0,14
246,291	-0,14
246,759	-0,15
247,227	-0,15
247,694	-0,15
248,162	-0,15
248,629	-0,14
249,097	-0,14
249,564	-0,15
250,032	-0,15
250,499	-0,15
250,967	-0,16
251,434	-0,16
251,901	-0,16
252,369	-0,16
252,836	-0,16
253,303	-0,18
253,77	-0,19
254,237	-0,18
254,705	-0,18
255,172	-0,17
255,639	-0,17
256,106	-0,18
256,573	-0,17
257,04	-0,18
257,507	-0,18
257,974	-0,19
258,441	-0,16
258,908	-0,16
259,375	-0,18
259,841	-0,18
260,308	-0,19
260,775	-0,19
261,242	-0,18
261,709	-0,19
262,175	-0,2
262,642	-0,2
263,109	-0,2
263,575	-0,21
264,042	-0,19
264,508	-0,19
264,975	-0,21
265,441	-0,22
265,908	-0,23
266,374	-0,22
266,841	-0,23
267,307	-0,23
267,773	-0,21
268,24	-0,21
268,706	-0,21
269,172	-0,22
269,639	-0,23
270,105	-0,2
270,571	-0,21
271,037	-0,21
271,503	-0,22
271,969	-0,21
272,435	-0,21
272,902	-0,22
273,368	-0,24
273,834	-0,24
274,3	-0,24
274,765	-0,25
275,231	-0,24
275,697	-0,23
276,163	-0,22
276,629	-0,21
277,095	-0,22
277,56	-0,21
278,026	-0,21
278,492	-0,19
278,958	-0,19
279,423	-0,19
279,889	-0,18
280,354	-0,19
280,82	-0,19
281,286	-0,21
281,751	-0,21
282,217	-0,2
282,682	-0,2
283,147	-0,21
283,613	-0,21
284,078	-0,21
284,544	-0,23
285,009	-0,24
285,474	-0,24
285,939	-0,24
286,405	-0,23
286,87	-0,22
287,335	-0,23
287,8	-0,22
288,265	-0,21
288,73	-0,23
289,195	-0,25
289,66	-0,25
290,125	-0,24
290,59	-0,23
291,055	-0,23
291,52	-0,24
291,985	-0,24
292,45	-0,25
292,915	-0,25
293,38	-0,25
293,844	-0,23
294,309	-0,21
294,774	-0,2
295,239	-0,22
295,703	-0,22
296,168	-0,22
296,632	-0,21
297,097	-0,2
297,562	-0,18
298,026	-0,18
298,491	-0,18
298,955	-0,17
299,419	-0,17
299,884	-0,17
300,348	-0,15
300,813	-0,15
301,277	-0,15
301,741	-0,15
302,205	-0,16
302,67	-0,15
303,134	-0,15
303,598	-0,16
304,062	-0,16
304,526	-0,15
304,99	-0,17
305,454	-0,17
305,919	-0,16
306,383	-0,16
306,847	-0,16
307,31	-0,17
307,774	-0,18
308,238	-0,18
308,702	-0,17
309,166	-0,19
309,63	-0,18
310,094	-0,15
310,557	-0,15
311,021	-0,15
311,485	-0,14
311,948	-0,13
312,412	-0,12
312,876	-0,11
313,339	-0,11
313,803	-0,12
314,266	-0,11
314,73	-0,12
315,193	-0,12
315,657	-0,11
316,12	-0,12
316,584	-0,11
317,047	-0,11
317,51	-0,1
317,973	-0,1
318,437	-0,08
318,9	-0,08
319,363	-0,07
319,826	-0,07
320,29	-0,08
320,753	-0,08
321,216	-0,08
321,679	-0,09
322,142	-0,08
322,605	-0,1
323,068	-0,1
323,531	-0,1
323,994	-0,09
324,457	-0,1
324,92	-0,08
325,382	-0,08
325,845	-0,09
326,308	-0,08
326,771	-0,07
327,233	-0,07
327,696	-0,06
328,159	-0,06
328,622	-0,05
329,084	-0,05
329,547	-0,05
330,009	-0,04
330,472	-0,03
330,934	-0,03
331,397	-0,02
331,859	-0,02
332,322	-0,02
332,784	-0,02
333,246	-0,01
333,709	-0,02
334,171	-0,01
334,633	-0
335,096	-0,01
335,558	-0,01
336,02	-0
336,482	-0
336,944	0
337,406	0,01
337,868	0,02
338,331	0,02
338,793	0,03
339,255	0,03
339,717	0,03
340,178	0,04
340,64	0,05
341,102	0,05
341,564	0,06
342,026	0,07
342,488	0,07
342,949	0,08
343,411	0,09
343,873	0,11
344,335	0,13
344,796	0,15
345,258	0,18
345,719	0,2
346,181	0,22
346,643	0,25
347,104	0,26
347,566	0,28
348,027	0,29
348,488	0,3
348,95	0,31
349,411	0,32
349,873	0,33
350,334	0,34
350,795	0,34
351,256	0,35
351,718	0,35
352,179	0,36
352,64	0,36
353,101	0,36
353,562	0,36
354,023	0,36
354,484	0,36
354,945	0,36
355,406	0,36
355,867	0,36
356,328	0,36
356,789	0,36
357,25	0,37
357,711	0,37
358,172	0,37
358,633	0,37
359,093	0,37
359,554	0,37
360,015	0,37
360,476	0,37
360,936	0,37
361,397	0,37
361,858	0,37
362,318	0,37
362,779	0,37
363,239	0,37
363,7	0,37
364,16	0,37
364,621	0,37
365,081	0,37
365,541	0,37
366,002	0,37
366,462	0,37
366,922	0,37
367,383	0,37
367,843	0,37
368,303	0,37
368,763	0,37
369,223	0,37
369,684	0,37
370,144	0,37
370,604	0,37
371,064	0,37
371,524	0,37
371,984	0,37
372,444	0,37
372,904	0,37
373,363	0,37
373,823	0,37
374,283	0,37
374,743	0,37
375,203	0,37
375,663	0,37
376,122	0,37
376,582	0,37
377,042	0,37
377,501	0,37
377,961	0,37
378,42	0,37
378,88	0,37
379,34	0,37
379,799	0,37
380,259	0,37
380,718	0,37
381,177	0,37
381,637	0,37
382,096	0,37
382,555	0,36
383,015	0,36
383,474	0,36
383,933	0,36
384,393	0,36
384,852	0,36
385,311	0,36
385,77	0,36
386,229	0,36
386,688	0,36
387,147	0,36
387,606	0,36
388,065	0,36
388,524	0,36
388,983	0,36
389,442	0,36
389,901	0,36
390,36	0,36
390,819	0,36
391,277	0,36
391,736	0,36
392,195	0,36
392,654	0,36
393,112	0,36
393,571	0,36
394,03	0,36
394,488	0,36
394,947	0,36
395,405	0,36
395,864	0,36
396,322	0,36
396,781	0,36
397,239	0,36
397,698	0,36
398,156	0,36
398,614	0,36
399,073	0,36
399,531	0,36
399,989	0,36
400,447	0,36
400,905	0,36
401,364	0,36
401,822	0,36
402,28	0,36
402,738	0,36
403,196	0,36
403,654	0,36
404,112	0,36
404,57	0,36
405,028	0,36
405,486	0,35
405,944	0,35
406,402	0,35
406,859	0,35
407,317	0,35
407,775	0,35
408,233	0,35
408,691	0,35
409,148	0,35
409,606	0,35
410,064	0,35
410,521	0,35
410,979	0,35
411,436	0,35
411,894	0,35
412,351	0,35
412,809	0,35
413,266	0,35
413,724	0,35
414,181	0,35
414,638	0,35
415,096	0,35
415,553	0,35
416,01	0,35
416,467	0,35
416,925	0,35
417,382	0,35
417,839	0,35
418,296	0,35
418,753	0,35
419,21	0,35
419,667	0,35
420,124	0,35
420,581	0,35
421,038	0,35
421,495	0,35
421,952	0,35
422,409	0,35
422,866	0,35
423,322	0,35
423,779	0,35
424,236	0,35
424,693	0,35
425,149	0,35
425,606	0,35
426,063	0,35
426,519	0,35
426,976	0,35
427,433	0,35
427,889	0,35
428,346	0,35
428,802	0,35
429,258	0,35
429,715	0,35
430,171	0,35
430,628	0,35
431,084	0,35
431,54	0,35
431,997	0,35
432,453	0,35
432,909	0,35
433,365	0,34
433,821	0,34
434,277	0,34
434,734	0,34
435,19	0,34
435,646	0,34
436,102	0,34
436,558	0,34
437,014	0,34
437,47	0,34
437,925	0,34
438,381	0,34
438,837	0,34
439,293	0,34
439,749	0,34
440,205	0,34
440,66	0,34
441,116	0,34
441,572	0,34
442,027	0,34
442,483	0,34
442,939	0,34
443,394	0,34
443,85	0,34
444,305	0,34
444,761	0,34
445,216	0,34
445,672	0,34
446,127	0,34
446,582	0,34
447,038	0,34
447,493	0,34
447,948	0,34
448,403	0,34
448,859	0,34
449,314	0,34
449,769	0,34
450,224	0,34
450,679	0,34
451,134	0,34
451,589	0,34
452,044	0,34
452,499	0,34
452,954	0,34
453,409	0,34
453,864	0,34
454,319	0,34
454,774	0,34
455,229	0,34
455,684	0,34
456,138	0,34
456,593	0,34
457,048	0,34
457,503	0,34
457,957	0,34
458,412	0,34
458,866	0,34
459,321	0,34
459,776	0,34
460,23	0,34
460,685	0,34
461,139	0,35
461,593	0,35
462,048	0,35
462,502	0,35
462,957	0,35
463,411	0,35
463,865	0,35
464,319	0,35
464,774	0,35
465,228	0,35
465,682	0,35
466,136	0,35
466,59	0,35
467,044	0,35
467,499	0,35
467,953	0,35
468,407	0,35
468,861	0,35
469,315	0,35
469,768	0,35
470,222	0,35
470,676	0,35
471,13	0,35
471,584	0,35
472,038	0,35
472,491	0,35
472,945	0,35
473,399	0,35
473,852	0,35
474,306	0,35
474,76	0,35
475,213	0,35
475,667	0,35
476,12	0,36
476,574	0,36
477,027	0,36
477,481	0,36
477,934	0,36
478,388	0,36
478,841	0,36
479,294	0,36
479,748	0,36
480,201	0,36
480,654	0,36
481,107	0,36
481,561	0,37
482,014	0,37
482,467	0,37
482,92	0,37
483,373	0,37
483,826	0,37
484,279	0,37
484,732	0,37
485,185	0,37
485,638	0,37
486,091	0,37
486,544	0,37
486,997	0,37
487,449	0,38
487,902	0,38
488,355	0,38
488,808	0,38
489,26	0,38
489,713	0,38
490,166	0,38
490,618	0,38
491,071	0,39
491,523	0,39
491,976	0,39
492,429	0,39
492,881	0,39
493,333	0,39
493,786	0,4
494,238	0,4
494,691	0,4
495,143	0,4
495,595	0,4
496,048	0,4
496,5	0,41
496,952	0,41
497,404	0,41
497,856	0,41
498,309	0,41
498,761	0,41
499,213	0,42
499,665	0,42
500,117	0,42
500,569	0,42
501,021	0,42
501,473	0,43
501,925	0,43
502,377	0,43
502,828	0,43
503,28	0,43
503,732	0,44
504,184	0,44
504,636	0,44
505,087	0,44
505,539	0,44
505,991	0,45
506,442	0,45
506,894	0,45
507,345	0,45
507,797	0,45
508,249	0,46
508,7	0,46
509,151	0,46
509,603	0,46
510,054	0,46
510,506	0,47
510,957	0,47
511,408	0,47
511,86	0,47
512,311	0,47
512,762	0,48
513,213	0,48
513,665	0,48
514,116	0,48
514,567	0,48
515,018	0,48
515,469	0,49
515,92	0,49
516,371	0,49
516,822	0,49
517,273	0,49
517,724	0,49
518,175	0,5
518,626	0,5
519,076	0,5
519,527	0,5
519,978	0,5
520,429	0,5
520,88	0,5
521,33	0,5
521,781	0,51
522,232	0,51
522,682	0,51
523,133	0,51
523,583	0,51
524,034	0,51
524,484	0,51
524,935	0,51
525,385	0,51
525,836	0,52
526,286	0,52
526,736	0,52
527,187	0,52
527,637	0,52
528,087	0,51
528,538	0,51
528,988	0,51
529,438	0,51
529,888	0,51
530,338	0,51
530,788	0,51
531,238	0,51
531,688	0,51
532,139	0,51
532,589	0,51
533,038	0,51
533,488	0,51
533,938	0,51
534,388	0,51
534,838	0,51
535,288	0,51
535,738	0,51
536,187	0,51
536,637	0,51
537,087	0,5
537,537	0,5
537,986	0,5
538,436	0,5
538,885	0,5
539,335	0,5
539,785	0,49
540,234	0,49
540,684	0,49
541,133	0,49
541,582	0,49
542,032	0,48
542,481	0,48
542,931	0,48
543,38	0,48
543,829	0,47
544,278	0,47
544,728	0,47
545,177	0,47
545,626	0,47
546,075	0,47
546,524	0,46
546,973	0,46
547,422	0,46
547,871	0,46
548,32	0,46
548,769	0,46
549,218	0,46
549,667	0,46
550,116	0,46
550,565	0,46
551,014	0,45
551,463	0,45
551,911	0,45
552,36	0,45
552,809	0,45
553,258	0,45
553,706	0,44
554,155	0,44
554,603	0,44
555,052	0,44
555,501	0,44
555,949	0,44
556,398	0,44
556,846	0,43
557,294	0,43
557,743	0,43
558,191	0,43
558,64	0,43
559,088	0,42
559,536	0,42
559,985	0,42
560,433	0,42
560,881	0,42
561,329	0,42
561,777	0,41
562,225	0,41
562,674	0,41
563,122	0,41
563,57	0,41
564,018	0,41
564,466	0,41
564,914	0,4
565,362	0,4
565,809	0,4
566,257	0,4
566,705	0,4
567,153	0,39
567,601	0,39
568,048	0,39
568,496	0,39
568,944	0,39
569,392	0,39
569,839	0,39
570,287	0,38
570,734	0,38
571,182	0,38
571,63	0,38
572,077	0,38
572,525	0,38
572,972	0,38
573,419	0,37
573,867	0,37
574,314	0,37
574,761	0,37
575,209	0,37
575,656	0,37
576,103	0,37
576,551	0,37
576,998	0,36
577,445	0,36
577,892	0,36
578,339	0,36
578,786	0,36
579,233	0,36
579,68	0,36
580,127	0,36
580,574	0,36
581,021	0,36
581,468	0,35
581,915	0,35
582,362	0,35
582,809	0,35
583,255	0,35
583,702	0,35
584,149	0,35
584,596	0,35
585,042	0,35
585,489	0,34
585,936	0,34
586,382	0,34
586,829	0,34
587,275	0,34
587,722	0,34
588,168	0,34
588,615	0,34
589,061	0,34
589,508	0,34
589,954	0,34
590,4	0,34
590,847	0,34
591,293	0,34
591,739	0,33
592,185	0,33
592,632	0,33
593,078	0,33
593,524	0,33
593,97	0,33
594,416	0,33
594,862	0,33
595,308	0,33
595,754	0,33
596,2	0,33
596,646	0,33
597,092	0,33
597,538	0,33
597,984	0,33
598,43	0,33
598,876	0,33
599,321	0,33
599,767	0,32
600,213	0,32
600,659	0,32
601,104	0,32
601,55	0,32
601,995	0,32
602,441	0,32
602,887	0,32
603,332	0,32
603,778	0,32
604,223	0,32
604,668	0,32
605,114	0,32
605,559	0,32
606,005	0,32
606,45	0,32
606,895	0,32
607,341	0,32
607,786	0,32
608,231	0,32
608,676	0,31
609,121	0,31
609,566	0,31
610,012	0,3
610,457	0,3
610,902	0,3
611,347	0,3
611,792	0,3
612,237	0,3
612,682	0,3
613,127	0,3
613,571	0,3
614,016	0,3
614,461	0,3
614,906	0,3
615,351	0,3
615,795	0,3
616,24	0,3
616,685	0,3
617,129	0,3
617,574	0,3
618,019	0,3
618,463	0,3
618,908	0,3
619,352	0,3
619,797	0,3
620,241	0,3
620,686	0,3
621,13	0,3
621,574	0,3
622,019	0,3
622,463	0,3
622,907	0,3
623,352	0,3
623,796	0,3
624,24	0,3
624,684	0,3
625,128	0,3
625,572	0,3
626,016	0,3
626,461	0,3
626,905	0,3
627,349	0,3
627,793	0,3
628,236	0,3
628,68	0,3
629,124	0,3
629,568	0,3
630,012	0,3
630,456	0,3
630,9	0,3
631,343	0,3
631,787	0,3
632,231	0,3
632,674	0,3
633,118	0,3
633,562	0,3
634,005	0,3
634,449	0,3
634,892	0,3
635,336	0,3
635,779	0,3
636,223	0,3
636,666	0,3
637,109	0,3
637,553	0,3
637,996	0,3
638,439	0,3
638,883	0,3
639,326	0,29
639,769	0,29
640,212	0,29
640,655	0,29
641,099	0,29
641,542	0,29
641,985	0,29
642,428	0,29
642,871	0,29
643,314	0,29
643,757	0,29
644,2	0,29
644,643	0,29
645,085	0,29
645,528	0,29
645,971	0,29
646,414	0,29
646,857	0,29
647,299	0,29
647,742	0,29
648,185	0,29
648,627	0,29
649,07	0,29
649,513	0,29
649,955	0,29
650,398	0,29
650,84	0,29
651,283	0,29
651,725	0,29
652,168	0,29
652,61	0,29
653,052	0,29
653,495	0,29
653,937	0,23
654,379	0,18
654,821	0,19
655,264	0,19
655,706	0,19
656,148	0,19
656,59	0,19
657,032	0,19
657,474	0,19
657,916	0,19
658,358	0,18
658,8	0,23
659,242	0,29
659,684	0,29
660,126	0,29
660,568	0,29
661,01	0,29
661,452	0,29
661,894	0,29
662,335	0,29
662,777	0,29
663,219	0,29
663,661	0,28
664,102	0,28
664,544	0,28
664,985	0,28
665,427	0,28
665,869	0,28
666,31	0,28
666,752	0,28
667,193	0,28
667,634	0,28
668,076	0,28
668,517	0,28
668,959	0,28
669,4	0,28
669,841	0,28
670,282	0,28
670,724	0,28
671,165	0,28
671,606	0,28
672,047	0,28
672,488	0,28
672,929	0,28
673,37	0,28
673,811	0,28
674,252	0,28
674,693	0,28
675,134	0,28
675,575	0,28
676,016	0,28
676,457	0,28
676,898	0,28
677,339	0,28
677,78	0,28
678,22	0,28
678,661	0,28
679,102	0,28
679,542	0,28
679,983	0,28
680,424	0,28
680,864	0,28
681,305	0,28
681,745	0,28
682,186	0,28
682,626	0,28
683,067	0,28
683,507	0,28
683,948	0,28
684,388	0,28
684,828	0,28
685,269	0,28
685,709	0,28
686,149	0,28
686,589	0,28
687,029	0,28
687,47	0,27
687,91	0,27
688,35	0,27
688,79	0,27
689,23	0,27
689,67	0,27
690,11	0,27
690,55	0,27
690,99	0,27
691,43	0,27
691,87	0,27
692,31	0,27
692,749	0,27
693,189	0,27
693,629	0,27
694,069	0,27
694,508	0,27
694,948	0,27
695,388	0,27
695,827	0,27
696,267	0,27
696,706	0,27
697,146	0,27
697,586	0,27
698,025	0,27
698,464	0,27
698,904	0,27
699,343	0,27
699,783	0,27
700,222	0,27
700,661	0,27
701,101	0,27
701,54	0,27
701,979	0,27
702,418	0,27
702,857	0,27
703,297	0,27
703,736	0,27
704,175	0,27
704,614	0,27
705,053	0,27
705,492	0,27
705,931	0,27
706,37	0,27
706,809	0,27
707,248	0,26
707,687	0,26
708,125	0,26
708,564	0,26
709,003	0,26
709,442	0,26
709,88	0,26
710,319	0,26
710,758	0,26
711,196	0,26
711,635	0,26
712,074	0,26
712,512	0,26
712,951	0,26
713,389	0,26
713,828	0,26
714,266	0,26
714,705	0,26
715,143	0,26
715,581	0,26
716,02	0,26
716,458	0,26
716,896	0,26
717,334	0,26
717,773	0,26
718,211	0,25
718,649	0,25
719,087	0,25
719,525	0,26
719,963	0,26
720,401	0,26
720,839	0,26
721,277	0,26
721,715	0,26
722,153	0,26
722,591	0,26
723,029	0,26
723,467	0,26
723,905	0,26
724,342	0,26
724,78	0,26
725,218	0,26
725,656	0,26
726,093	0,26
726,531	0,26
726,969	0,26
727,406	0,26
727,844	0,26
728,281	0,26
728,719	0,26
729,156	0,25
729,594	0,25
730,031	0,25
730,469	0,25
730,906	0,25
731,343	0,25
731,781	0,25
732,218	0,25
732,655	0,25
733,092	0,25
733,53	0,25
733,967	0,25
734,404	0,25
734,841	0,25
735,278	0,25
735,715	0,25
736,152	0,25
736,589	0,25
737,026	0,25
737,463	0,25
737,9	0,25
738,337	0,25
738,774	0,24
739,211	0,24
739,647	0,24
740,084	0,24
740,521	0,24
740,958	0,24
741,394	0,24
741,831	0,24
742,268	0,24
742,704	0,24
743,141	0,24
743,577	0,24
744,014	0,24
744,45	0,24
744,887	0,23
745,323	0,23
745,76	0,23
746,196	0,23
746,632	0,23
747,069	0,23
747,505	0,23
747,941	0,23
748,378	0,23
748,814	0,23
749,25	0,23
749,686	0,23
750,122	0,24
750,558	0,24
750,994	0,24
751,43	0,24
751,866	0,24
752,302	0,24
752,738	0,24
753,174	0,24
753,61	0,24
754,046	0,24
754,482	0,24
754,918	0,24
755,354	0,25
755,789	0,25
756,225	0,25
756,661	0,24
757,096	0,24
757,532	0,24
757,968	0,24
758,403	0,24
758,839	0,24
759,274	0,24
759,71	0,24
760,145	0,23
760,581	0,23
761,016	0,23
761,452	0,22
761,887	0,22
762,322	0,22
762,758	0,21
763,193	0,21
763,628	0,21
764,063	0,2
764,499	0,2
764,934	0,19
765,369	0,19
765,804	0,18
766,239	0,18
766,674	0,17
767,109	0,17
767,544	0,17
767,979	0,16
768,414	0,15
768,849	0,14
769,284	0,14
769,719	0,13
770,154	0,13
770,588	0,12
771,023	0,12
771,458	0,11
771,893	0,1
772,327	0,09
772,762	0,08
773,197	0,08
773,631	0,07
774,066	0,06
774,5	0,06
774,935	0,04
775,369	0,04
775,804	0,03
776,238	0,02
776,673	0,01
777,107	0,01
777,541	0
777,976	-0,01
778,41	-0,01
778,844	-0,02
779,279	-0,02
779,713	-0,03
780,147	-0,04
780,581	-0,04
781,015	-0,05
781,449	-0,06
781,883	-0,07
782,317	-0,08
782,751	-0,08
783,185	-0,09
783,619	-0,09
784,053	-0,11
784,487	-0,11
784,921	-0,12
785,355	-0,13
785,789	-0,14
786,223	-0,15
786,656	-0,16
787,09	-0,17
787,524	-0,18
787,957	-0,19
788,391	-0,2
788,825	-0,22
789,258	-0,23
789,692	-0,24
790,125	-0,26
790,559	-0,27
790,992	-0,29
791,426	-0,31
791,859	-0,32
792,293	-0,35
792,726	-0,37
793,159	-0,39
793,593	-0,41
794,026	-0,43
794,459	-0,46
794,892	-0,49
795,326	-0,52
795,759	-0,56
796,192	-0,6
796,625	-0,65
797,058	-0,67
797,491	-0,72
797,924	-0,76
798,357	-0,81
798,79	-0,85
799,223	-0,9
799,656	-0,96
800,089	-1,01
800,522	-1,05
800,955	-1,09
801,387	-1,15
801,82	-1,2
802,253	-1,27
802,686	-1,35
803,118	-1,4
803,551	-1,46
803,984	-1,5
804,416	-1,54
804,849	-1,59
805,281	-1,75
805,714	-2,14
806,146	-2,52
806,579	-2,76
807,011	-2,9
807,444	-2,99
807,876	-3,06
808,308	-3,09
808,741	-3,12
809,173	-3,17
809,605	-3,19
810,037	-3,27
810,47	-3,17
810,902	-2,97
811,334	-2,81
811,766	-2,65
812,198	-2,39
812,63	-1,99
813,062	-1,81
813,494	-1,72
813,926	-1,63
814,358	-1,58
814,79	-1,5
815,222	-1,44
815,654	-1,39
816,086	-1,33
816,518	-1,27
816,949	-1,22
817,381	-1,17
817,813	-1,16
818,245	-1,11
818,676	-1,07
819,108	-1,04
819,54	-1,03
819,971	-1
820,403	-0,95
820,834	-0,94
821,266	-0,89
821,697	-0,87
822,129	-0,85
822,56	-0,83
822,991	-0,8
823,423	-0,78
823,854	-0,77
824,286	-0,74
824,717	-0,73
825,148	-0,71
825,579	-0,7
826,01	-0,69
826,442	-0,68
826,873	-0,66
827,304	-0,62
827,735	-0,61
828,166	-0,61
828,597	-0,6
829,028	-0,59
829,459	-0,6
829,89	-0,6
830,321	-0,55
830,752	-0,56
831,183	-0,55
831,613	-0,54
832,044	-0,54
832,475	-0,53
832,906	-0,54
833,336	-0,54
833,767	-0,55
834,198	-0,53
834,628	-0,52
835,059	-0,55
835,49	-0,55
835,92	-0,52
836,351	-0,53
836,781	-0,53
837,212	-0,54
837,642	-0,54
838,072	-0,53
838,503	-0,53
838,933	-0,51
839,364	-0,51
839,794	-0,49
840,224	-0,48
840,654	-0,53
841,085	-0,53
841,515	-0,51
841,945	-0,5
842,375	-0,45
842,805	-0,44
843,235	-0,42
843,665	-0,44
844,095	-0,43
844,525	-0,45
844,955	-0,46
845,385	-0,43
845,815	-0,41
846,245	-0,43
846,675	-0,44
847,105	-0,46
847,534	-0,46
847,964	-0,45
848,394	-0,43
848,824	-0,47
849,253	-0,46
849,683	-0,46
850,112	-0,47
850,542	-0,5
850,972	-0,51
851,401	-0,48
851,831	-0,47
852,26	-0,47
852,69	-0,51
853,119	-0,5
853,548	-0,49
853,978	-0,5
854,407	-0,48
854,836	-0,48
855,266	-0,47
855,695	-0,48
856,124	-0,5
856,553	-0,51
856,983	-0,52
857,412	-0,52
857,841	-0,54
858,27	-0,54
858,699	-0,54
859,128	-0,57
859,557	-0,58
859,986	-0,59
860,415	-0,57
860,844	-0,55
861,273	-0,55
861,702	-0,56
862,13	-0,54
862,559	-0,55
862,988	-0,53
863,417	-0,52
863,845	-0,51
864,274	-0,52
864,703	-0,52
865,131	-0,51
865,56	-0,51
865,989	-0,55
866,417	-0,51
866,846	-0,5
867,274	-0,5
867,703	-0,53
868,131	-0,53
868,559	-0,54
868,988	-0,56
869,416	-0,56
869,844	-0,59
870,273	-0,61
870,701	-0,59
871,129	-0,63
871,557	-0,67
871,986	-0,67
872,414	-0,68
872,842	-0,65
873,27	-0,63
873,698	-0,6
874,126	-0,64
874,554	-0,61
874,982	-0,61
875,41	-0,63
875,838	-0,57
876,266	-0,54
876,694	-0,53
877,122	-0,52
877,549	-0,57
877,977	-0,55
878,405	-0,58
878,833	-0,56
879,26	-0,53
879,688	-0,54
880,116	-0,53
880,543	-0,52
880,971	-0,52
881,399	-0,55
881,826	-0,56
882,254	-0,54
882,681	-0,57
883,109	-0,54
883,536	-0,54
883,963	-0,57
884,391	-0,55
884,818	-0,54
885,245	-0,58
885,673	-0,59
886,1	-0,56
886,527	-0,56
886,954	-0,53
887,381	-0,54
887,809	-0,55
888,236	-0,56
888,663	-0,57
889,09	-0,61
889,517	-0,62
889,944	-0,61
890,371	-0,6
890,798	-0,62
891,225	-0,61
891,652	-0,63
892,078	-0,61
892,505	-0,64
892,932	-0,59
893,359	-0,6
893,786	-0,6
894,212	-0,57
894,639	-0,59
895,066	-0,61
895,492	-0,54
895,919	-0,55
896,346	-0,55
896,772	-0,55
897,199	-0,52
897,625	-0,55
898,052	-0,51
898,478	-0,49
898,904	-0,5
899,331	-0,49
899,757	-0,51
900,183	-0,54
900,61	-0,52
901,036	-0,52
901,462	-0,51
901,888	-0,5
902,315	-0,49
902,741	-0,55
903,167	-0,54
903,593	-0,57
904,019	-0,56
904,445	-0,53
904,871	-0,55
905,297	-0,57
905,723	-0,57
906,149	-0,57
906,575	-0,57
907,001	-0,57
907,427	-0,54
907,852	-0,53
908,278	-0,54
908,704	-0,51
909,13	-0,51
909,555	-0,51
909,981	-0,5
910,407	-0,5
910,832	-0,49
911,258	-0,49
911,684	-0,49
912,109	-0,5
912,535	-0,52
912,96	-0,47
913,386	-0,51
913,811	-0,5
914,236	-0,51
914,662	-0,5
915,087	-0,53
915,512	-0,53
915,938	-0,54
916,363	-0,53
916,788	-0,54
917,213	-0,52
917,639	-0,57
918,064	-0,55
918,489	-0,55
918,914	-0,56
919,339	-0,57
919,764	-0,54
920,189	-0,54
920,614	-0,56
921,039	-0,57
921,464	-0,53
921,889	-0,56
922,314	-0,57
922,738	-0,6
923,163	-0,61
923,588	-0,61
924,013	-0,62
924,437	-0,62
924,862	-0,64
925,287	-0,6
925,711	-0,61
926,136	-0,63
926,561	-0,61
926,985	-0,61
927,41	-0,58
927,834	-0,56
928,259	-0,52
928,683	-0,5
929,108	-0,48
929,532	-0,48
929,956	-0,48
930,381	-0,47
930,805	-0,46
931,229	-0,45
931,653	-0,43
932,078	-0,43
932,502	-0,45
932,926	-0,45
933,35	-0,46
933,774	-0,44
934,198	-0,43
934,622	-0,41
935,046	-0,42
935,47	-0,43
935,894	-0,42
936,318	-0,42
936,742	-0,41
937,166	-0,41
937,59	-0,41
938,014	-0,43
938,437	-0,44
938,861	-0,46
939,285	-0,47
939,709	-0,46
940,132	-0,47
940,556	-0,48
940,98	-0,48
941,403	-0,47
941,827	-0,47
942,25	-0,48
942,674	-0,47
943,097	-0,47
943,521	-0,47
943,944	-0,48
944,368	-0,46
944,791	-0,45
945,214	-0,46
945,638	-0,47
946,061	-0,5
946,484	-0,5
946,907	-0,49
947,331	-0,49
947,754	-0,53
948,177	-0,5
948,6	-0,5
949,023	-0,51
949,446	-0,51
949,869	-0,5
950,292	-0,5
950,715	-0,47
951,138	-0,46
951,561	-0,45
951,984	-0,44
952,407	-0,42
952,83	-0,41
953,252	-0,37
953,675	-0,36
954,098	-0,37
954,521	-0,35
954,943	-0,34
955,366	-0,34
955,789	-0,32
956,211	-0,34
956,634	-0,34
957,056	-0,32
957,479	-0,34
957,902	-0,36
958,324	-0,37
958,746	-0,35
959,169	-0,36
959,591	-0,37
960,014	-0,38
960,436	-0,39
960,858	-0,39
961,281	-0,39
961,703	-0,4
962,125	-0,39
962,547	-0,37
962,969	-0,38
963,391	-0,39
963,814	-0,4
964,236	-0,38
964,658	-0,35
965,08	-0,36
965,502	-0,36
965,924	-0,32
966,346	-0,33
966,768	-0,32
967,189	-0,34
967,611	-0,33
968,033	-0,33
968,455	-0,31
968,877	-0,33
969,298	-0,33
969,72	-0,34
970,142	-0,33
970,563	-0,35
970,985	-0,33
971,407	-0,32
971,828	-0,3
972,25	-0,3
972,671	-0,28
973,093	-0,28
973,514	-0,26
973,936	-0,25
974,357	-0,23
974,778	-0,24
975,2	-0,23
975,621	-0,23
976,042	-0,21
976,464	-0,2
976,885	-0,2
977,306	-0,19
977,727	-0,19
978,148	-0,19
978,57	-0,17
978,991	-0,16
979,412	-0,14
979,833	-0,13
980,254	-0,13
980,675	-0,13
981,096	-0,12
981,517	-0,11
981,937	-0,11
982,358	-0,09
982,779	-0,08
983,2	-0,09
983,621	-0,09
984,042	-0,08
984,462	-0,07
984,883	-0,06
985,304	-0,04
985,724	-0,03
986,145	-0,03
986,565	-0,01
986,986	-0,01
987,407	0
987,827	0,02
988,248	0,03
988,668	0,03
989,088	0,04
989,509	0,05
989,929	0,05
990,35	0,06
990,77	0,07
991,19	0,07
991,61	0,08
992,031	0,08
992,451	0,09
992,871	0,09
993,291	0,1
993,711	0,11
994,131	0,11
994,551	0,11
994,971	0,12
995,391	0,12
995,811	0,13
996,231	0,13
996,651	0,13
997,071	0,14
997,491	0,14
997,911	0,14
998,331	0,15
998,75	0,15
999,17	0,16
999,59	0,16
1000,009	0,16
1000,429	0,17
1000,849	0,17
1001,268	0,17
1001,688	0,18
1002,107	0,18
1002,527	0,18
1002,946	0,18
1003,366	0,18
1003,785	0,18
1004,205	0,18
1004,624	0,19
1005,044	0,19
1005,463	0,19
1005,882	0,19
1006,301	0,19
1006,721	0,19
1007,14	0,19
1007,559	0,19
1007,978	0,19
1008,397	0,19
1008,816	0,19
1009,235	0,19
1009,655	0,19
1010,074	0,19
1010,492	0,19
1010,911	0,19
1011,33	0,18
1011,749	0,18
1012,168	0,18
1012,587	0,18
1013,006	0,18
1013,425	0,18
1013,843	0,18
1014,262	0,18
1014,681	0,18
1015,099	0,18
1015,518	0,18
1015,937	0,18
1016,355	0,18
1016,774	0,18
1017,192	0,18
1017,611	0,18
1018,029	0,18
1018,448	0,18
1018,866	0,18
1019,285	0,18
1019,703	0,18
1020,121	0,18
1020,54	0,18
1020,958	0,18
1021,376	0,18
1021,794	0,18
1022,213	0,18
1022,631	0,18
1023,049	0,18
1023,467	0,18
1023,885	0,18
1024,303	0,18
1024,721	0,18
1025,139	0,18
1025,557	0,18
1025,975	0,18
1026,393	0,18
1026,811	0,18
1027,229	0,18
1027,647	0,18
1028,065	0,18
1028,482	0,18
1028,9	0,18
1029,318	0,18
1029,735	0,18
1030,153	0,18
1030,571	0,18
1030,988	0,18
1031,406	0,18
1031,823	0,18
1032,241	0,18
1032,659	0,18
1033,076	0,18
1033,493	0,18
1033,911	0,18
1034,328	0,18
1034,746	0,18
1035,163	0,18
1035,58	0,18
1035,997	0,18
1036,415	0,17
1036,832	0,17
1037,249	0,17
1037,666	0,17
1038,083	0,17
1038,501	0,17
1038,918	0,17
1039,335	0,17
1039,752	0,17
1040,169	0,17
1040,586	0,17
1041,003	0,17
1041,419	0,17
1041,836	0,17
1042,253	0,17
1042,67	0,17
1043,087	0,17
1043,504	0,17
1043,92	0,17
1044,337	0,17
1044,754	0,17
1045,17	0,17
1045,587	0,16
1046,004	0,16
1046,42	0,16
1046,837	0,16
1047,253	0,16
1047,67	0,16
1048,086	0,16
1048,503	0,16
1048,919	0,16
1049,335	0,16
1049,752	0,16
1050,168	0,16
1050,584	0,16
1051,001	0,16
1051,417	0,16
1051,833	0,16
1052,249	0,16
1052,665	0,16
1053,081	0,16
1053,497	0,16
1053,914	0,16
1054,33	0,16
1054,746	0,16
1055,162	0,16
1055,578	0,17
1055,993	0,17
1056,409	0,17
1056,825	0,17
1057,241	0,17
1057,657	0,17
1058,073	0,17
1058,488	0,17
1058,904	0,17
1059,32	0,17
1059,736	0,17
1060,151	0,17
1060,567	0,17
1060,982	0,17
1061,398	0,17
1061,813	0,17
1062,229	0,17
1062,644	0,16
1063,06	0,16
1063,475	0,16
1063,891	0,16
1064,306	0,16
1064,721	0,16
1065,137	0,16
1065,552	0,16
1065,967	0,16
1066,382	0,16
1066,798	0,16
1067,213	0,16
1067,628	0,16
1068,043	0,16
1068,458	0,16
1068,873	0,16
1069,288	0,16
1069,703	0,17
1070,118	0,17
1070,533	0,17
1070,948	0,17
1071,363	0,17
1071,778	0,17
1072,193	0,17
1072,607	0,17
1073,022	0,17
1073,437	0,17
1073,852	0,17
1074,266	0,17
1074,681	0,17
1075,096	0,17
1075,51	0,17
1075,925	0,17
1076,339	0,17
1076,754	0,17
1077,168	0,17
1077,583	0,17
1077,997	0,17
1078,412	0,17
1078,826	0,17
1079,24	0,17
1079,655	0,17
1080,069	0,17
1080,483	0,17
1080,897	0,17
1081,312	0,17
1081,726	0,17
1082,14	0,16
1082,554	0,16
1082,968	0,16
1083,382	0,16
1083,796	0,16
1084,21	0,16
1084,624	0,16
1085,038	0,16
1085,452	0,16
1085,866	0,16
1086,28	0,16
1086,694	0,16
1087,108	0,16
1087,521	0,16
1087,935	0,15
1088,349	0,15
1088,763	0,15
1089,176	0,15
1089,59	0,15
1090,004	0,15
1090,417	0,15
1090,831	0,14
1091,244	0,14
1091,658	0,14
1092,071	0,14
1092,485	0,14
1092,898	0,14
1093,312	0,14
1093,725	0,14
1094,138	0,13
1094,552	0,13
1094,965	0,13
1095,378	0,13
1095,791	0,13
1096,205	0,13
1096,618	0,13
1097,031	0,13
1097,444	0,12
1097,857	0,12
1098,27	0,12
1098,683	0,12
1099,096	0,12
1099,509	0,12
1099,922	0,11
1100,335	0,11
1100,748	0,11
1101,161	0,1
1101,574	0,1
1101,986	0,1
1102,399	0,1
1102,812	0,1
1103,225	0,09
1103,637	0,09
1104,05	0,09
1104,463	0,09
1104,875	0,09
1105,288	0,09
1105,7	0,08
1106,113	0,08
1106,525	0,08
1106,938	0,08
1107,35	0,07
1107,763	0,07
1108,175	0,07
1108,588	0,07
1109	0,07
1109,412	0,07
1109,824	0,07
1110,237	0,07
1110,649	0,07
1111,061	0,06
