Data from 18C-808nm-8A_Absorbance__1310__01310.txt Node

Date: Mon Jul 17 17:10:58 CEST 2023
User: Laser008
Spectrometer: MAYP115816
Trigger mode: 0
Integration Time (sec): 2,500000E-1
Scans to average: 10
Electric dark correction enabled: true
Nonlinearity correction enabled: true
Boxcar width: 5
XAxis mode: Wavelengths
Number of Pixels in Spectrum: 2068
>>>>>Begin Spectral Data<<<<<
198,914	-0,69
199,384	-0,48
199,855	-0,38
200,325	-0,29
200,796	-0,27
201,266	-0,22
201,737	-0,2
202,207	-0,19
202,677	-0,18
203,147	-0,16
203,618	-0,14
204,088	-0,13
204,558	-0,12
205,028	-0,11
205,498	-0,11
205,968	-0,11
206,439	-0,12
206,909	-0,12
207,379	-0,12
207,849	-0,13
208,319	-0,13
208,789	-0,13
209,258	-0,12
209,728	-0,13
210,198	-0,13
210,668	-0,12
211,138	-0,12
211,608	-0,12
212,077	-0,12
212,547	-0,12
213,017	-0,12
213,486	-0,12
213,956	-0,13
214,426	-0,15
214,895	-0,14
215,365	-0,15
215,834	-0,16
216,304	-0,16
216,773	-0,16
217,243	-0,18
217,712	-0,19
218,181	-0,19
218,651	-0,19
219,12	-0,19
219,589	-0,19
220,058	-0,18
220,528	-0,19
220,997	-0,2
221,466	-0,21
221,935	-0,22
222,404	-0,21
222,873	-0,19
223,342	-0,19
223,812	-0,19
224,281	-0,18
224,749	-0,18
225,218	-0,2
225,687	-0,19
226,156	-0,17
226,625	-0,16
227,094	-0,16
227,563	-0,16
228,031	-0,18
228,5	-0,18
228,969	-0,19
229,438	-0,19
229,906	-0,17
230,375	-0,17
230,844	-0,18
231,312	-0,18
231,781	-0,18
232,249	-0,18
232,718	-0,18
233,186	-0,16
233,655	-0,17
234,123	-0,16
234,591	-0,17
235,06	-0,17
235,528	-0,18
235,996	-0,17
236,465	-0,17
236,933	-0,16
237,401	-0,16
237,869	-0,14
238,337	-0,14
238,805	-0,13
239,274	-0,12
239,742	-0,11
240,21	-0,11
240,678	-0,09
241,146	-0,08
241,614	-0,09
242,081	-0,08
242,549	-0,08
243,017	-0,09
243,485	-0,09
243,953	-0,09
244,421	-0,09
244,888	-0,09
245,356	-0,1
245,824	-0,1
246,291	-0,1
246,759	-0,11
247,227	-0,12
247,694	-0,12
248,162	-0,11
248,629	-0,1
249,097	-0,11
249,564	-0,12
250,032	-0,13
250,499	-0,13
250,967	-0,13
251,434	-0,14
251,901	-0,13
252,369	-0,14
252,836	-0,15
253,303	-0,16
253,77	-0,18
254,237	-0,17
254,705	-0,16
255,172	-0,16
255,639	-0,17
256,106	-0,18
256,573	-0,19
257,04	-0,18
257,507	-0,18
257,974	-0,18
258,441	-0,16
258,908	-0,17
259,375	-0,18
259,841	-0,19
260,308	-0,19
260,775	-0,19
261,242	-0,18
261,709	-0,19
262,175	-0,2
262,642	-0,2
263,109	-0,19
263,575	-0,21
264,042	-0,19
264,508	-0,18
264,975	-0,19
265,441	-0,2
265,908	-0,2
266,374	-0,19
266,841	-0,19
267,307	-0,19
267,773	-0,18
268,24	-0,19
268,706	-0,19
269,172	-0,2
269,639	-0,21
270,105	-0,2
270,571	-0,2
271,037	-0,2
271,503	-0,22
271,969	-0,21
272,435	-0,21
272,902	-0,23
273,368	-0,24
273,834	-0,23
274,3	-0,23
274,765	-0,23
275,231	-0,23
275,697	-0,22
276,163	-0,22
276,629	-0,21
277,095	-0,22
277,56	-0,22
278,026	-0,22
278,492	-0,2
278,958	-0,2
279,423	-0,21
279,889	-0,2
280,354	-0,21
280,82	-0,21
281,286	-0,22
281,751	-0,22
282,217	-0,21
282,682	-0,21
283,147	-0,2
283,613	-0,2
284,078	-0,21
284,544	-0,21
285,009	-0,22
285,474	-0,22
285,939	-0,23
286,405	-0,21
286,87	-0,2
287,335	-0,2
287,8	-0,2
288,265	-0,19
288,73	-0,21
289,195	-0,22
289,66	-0,22
290,125	-0,21
290,59	-0,21
291,055	-0,2
291,52	-0,21
291,985	-0,22
292,45	-0,23
292,915	-0,23
293,38	-0,24
293,844	-0,22
294,309	-0,21
294,774	-0,2
295,239	-0,22
295,703	-0,22
296,168	-0,22
296,632	-0,21
297,097	-0,19
297,562	-0,18
298,026	-0,18
298,491	-0,18
298,955	-0,18
299,419	-0,17
299,884	-0,18
300,348	-0,17
300,813	-0,16
301,277	-0,16
301,741	-0,16
302,205	-0,16
302,67	-0,16
303,134	-0,15
303,598	-0,15
304,062	-0,14
304,526	-0,14
304,99	-0,14
305,454	-0,13
305,919	-0,13
306,383	-0,13
306,847	-0,13
307,31	-0,14
307,774	-0,15
308,238	-0,15
308,702	-0,15
309,166	-0,17
309,63	-0,17
310,094	-0,15
310,557	-0,15
311,021	-0,14
311,485	-0,14
311,948	-0,14
312,412	-0,13
312,876	-0,11
313,339	-0,12
313,803	-0,12
314,266	-0,11
314,73	-0,11
315,193	-0,11
315,657	-0,11
316,12	-0,1
316,584	-0,09
317,047	-0,09
317,51	-0,09
317,973	-0,09
318,437	-0,08
318,9	-0,07
319,363	-0,06
319,826	-0,05
320,29	-0,05
320,753	-0,05
321,216	-0,05
321,679	-0,05
322,142	-0,04
322,605	-0,05
323,068	-0,05
323,531	-0,06
323,994	-0,05
324,457	-0,05
324,92	-0,05
325,382	-0,04
325,845	-0,04
326,308	-0,04
326,771	-0,04
327,233	-0,03
327,696	-0,03
328,159	-0,02
328,622	-0,01
329,084	-0,01
329,547	-0,01
330,009	-0,01
330,472	-0
330,934	-0
331,397	0
331,859	0,01
332,322	0,01
332,784	0,02
333,246	0,02
333,709	0,02
334,171	0,03
334,633	0,03
335,096	0,03
335,558	0,03
336,02	0,03
336,482	0,03
336,944	0,05
337,406	0,04
337,868	0,05
338,331	0,05
338,793	0,06
339,255	0,06
339,717	0,07
340,178	0,08
340,64	0,09
341,102	0,09
341,564	0,1
342,026	0,11
342,488	0,12
342,949	0,13
343,411	0,15
343,873	0,17
344,335	0,19
344,796	0,22
345,258	0,25
345,719	0,28
346,181	0,31
346,643	0,34
347,104	0,36
347,566	0,39
348,027	0,41
348,488	0,42
348,95	0,44
349,411	0,45
349,873	0,47
350,334	0,48
350,795	0,49
351,256	0,5
351,718	0,5
352,179	0,51
352,64	0,51
353,101	0,51
353,562	0,51
354,023	0,52
354,484	0,52
354,945	0,52
355,406	0,52
355,867	0,52
356,328	0,52
356,789	0,52
357,25	0,52
357,711	0,53
358,172	0,53
358,633	0,53
359,093	0,53
359,554	0,53
360,015	0,53
360,476	0,53
360,936	0,53
361,397	0,53
361,858	0,53
362,318	0,53
362,779	0,54
363,239	0,54
363,7	0,54
364,16	0,54
364,621	0,54
365,081	0,54
365,541	0,54
366,002	0,54
366,462	0,53
366,922	0,53
367,383	0,53
367,843	0,53
368,303	0,53
368,763	0,53
369,223	0,53
369,684	0,53
370,144	0,53
370,604	0,53
371,064	0,53
371,524	0,53
371,984	0,53
372,444	0,53
372,904	0,53
373,363	0,53
373,823	0,53
374,283	0,53
374,743	0,53
375,203	0,53
375,663	0,53
376,122	0,53
376,582	0,53
377,042	0,53
377,501	0,53
377,961	0,53
378,42	0,53
378,88	0,53
379,34	0,53
379,799	0,53
380,259	0,53
380,718	0,53
381,177	0,53
381,637	0,53
382,096	0,53
382,555	0,53
383,015	0,53
383,474	0,53
383,933	0,53
384,393	0,52
384,852	0,52
385,311	0,52
385,77	0,52
386,229	0,52
386,688	0,52
387,147	0,52
387,606	0,52
388,065	0,52
388,524	0,52
388,983	0,52
389,442	0,52
389,901	0,52
390,36	0,52
390,819	0,52
391,277	0,52
391,736	0,52
392,195	0,52
392,654	0,52
393,112	0,52
393,571	0,52
394,03	0,52
394,488	0,52
394,947	0,52
395,405	0,52
395,864	0,52
396,322	0,52
396,781	0,52
397,239	0,52
397,698	0,52
398,156	0,52
398,614	0,52
399,073	0,52
399,531	0,52
399,989	0,52
400,447	0,52
400,905	0,52
401,364	0,52
401,822	0,52
402,28	0,51
402,738	0,51
403,196	0,51
403,654	0,51
404,112	0,51
404,57	0,51
405,028	0,51
405,486	0,51
405,944	0,51
406,402	0,51
406,859	0,51
407,317	0,51
407,775	0,51
408,233	0,51
408,691	0,51
409,148	0,51
409,606	0,51
410,064	0,51
410,521	0,51
410,979	0,51
411,436	0,51
411,894	0,51
412,351	0,51
412,809	0,51
413,266	0,51
413,724	0,51
414,181	0,51
414,638	0,51
415,096	0,51
415,553	0,51
416,01	0,51
416,467	0,51
416,925	0,51
417,382	0,51
417,839	0,51
418,296	0,51
418,753	0,51
419,21	0,51
419,667	0,51
420,124	0,51
420,581	0,51
421,038	0,51
421,495	0,51
421,952	0,51
422,409	0,51
422,866	0,51
423,322	0,51
423,779	0,51
424,236	0,51
424,693	0,51
425,149	0,51
425,606	0,51
426,063	0,51
426,519	0,51
426,976	0,51
427,433	0,51
427,889	0,51
428,346	0,51
428,802	0,51
429,258	0,51
429,715	0,5
430,171	0,5
430,628	0,5
431,084	0,5
431,54	0,5
431,997	0,5
432,453	0,5
432,909	0,5
433,365	0,5
433,821	0,5
434,277	0,5
434,734	0,5
435,19	0,5
435,646	0,5
436,102	0,5
436,558	0,5
437,014	0,5
437,47	0,5
437,925	0,5
438,381	0,5
438,837	0,5
439,293	0,5
439,749	0,5
440,205	0,5
440,66	0,5
441,116	0,5
441,572	0,5
442,027	0,5
442,483	0,5
442,939	0,5
443,394	0,5
443,85	0,5
444,305	0,5
444,761	0,5
445,216	0,5
445,672	0,5
446,127	0,5
446,582	0,5
447,038	0,5
447,493	0,5
447,948	0,5
448,403	0,5
448,859	0,5
449,314	0,5
449,769	0,5
450,224	0,5
450,679	0,5
451,134	0,5
451,589	0,5
452,044	0,5
452,499	0,5
452,954	0,5
453,409	0,5
453,864	0,5
454,319	0,5
454,774	0,5
455,229	0,5
455,684	0,5
456,138	0,5
456,593	0,5
457,048	0,5
457,503	0,5
457,957	0,5
458,412	0,5
458,866	0,5
459,321	0,51
459,776	0,51
460,23	0,51
460,685	0,51
461,139	0,51
461,593	0,51
462,048	0,51
462,502	0,51
462,957	0,51
463,411	0,51
463,865	0,51
464,319	0,51
464,774	0,51
465,228	0,51
465,682	0,51
466,136	0,51
466,59	0,51
467,044	0,51
467,499	0,52
467,953	0,52
468,407	0,52
468,861	0,52
469,315	0,52
469,768	0,52
470,222	0,52
470,676	0,52
471,13	0,52
471,584	0,52
472,038	0,52
472,491	0,52
472,945	0,52
473,399	0,52
473,852	0,52
474,306	0,52
474,76	0,52
475,213	0,52
475,667	0,52
476,12	0,53
476,574	0,53
477,027	0,53
477,481	0,53
477,934	0,53
478,388	0,53
478,841	0,53
479,294	0,53
479,748	0,53
480,201	0,54
480,654	0,54
481,107	0,54
481,561	0,54
482,014	0,54
482,467	0,54
482,92	0,54
483,373	0,54
483,826	0,54
484,279	0,55
484,732	0,55
485,185	0,55
485,638	0,55
486,091	0,55
486,544	0,55
486,997	0,55
487,449	0,55
487,902	0,56
488,355	0,56
488,808	0,56
489,26	0,56
489,713	0,56
490,166	0,57
490,618	0,57
491,071	0,57
491,523	0,57
491,976	0,57
492,429	0,58
492,881	0,58
493,333	0,58
493,786	0,58
494,238	0,58
494,691	0,59
495,143	0,59
495,595	0,59
496,048	0,59
496,5	0,6
496,952	0,6
497,404	0,6
497,856	0,6
498,309	0,61
498,761	0,61
499,213	0,61
499,665	0,61
500,117	0,62
500,569	0,62
501,021	0,62
501,473	0,63
501,925	0,63
502,377	0,63
502,828	0,63
503,28	0,64
503,732	0,64
504,184	0,64
504,636	0,64
505,087	0,65
505,539	0,65
505,991	0,65
506,442	0,66
506,894	0,66
507,345	0,66
507,797	0,66
508,249	0,67
508,7	0,67
509,151	0,67
509,603	0,68
510,054	0,68
510,506	0,68
510,957	0,69
511,408	0,69
511,86	0,69
512,311	0,69
512,762	0,7
513,213	0,7
513,665	0,7
514,116	0,7
514,567	0,7
515,018	0,71
515,469	0,71
515,92	0,71
516,371	0,71
516,822	0,72
517,273	0,72
517,724	0,72
518,175	0,72
518,626	0,73
519,076	0,73
519,527	0,73
519,978	0,73
520,429	0,73
520,88	0,73
521,33	0,73
521,781	0,74
522,232	0,74
522,682	0,74
523,133	0,74
523,583	0,74
524,034	0,74
524,484	0,74
524,935	0,74
525,385	0,74
525,836	0,75
526,286	0,75
526,736	0,75
527,187	0,75
527,637	0,75
528,087	0,75
528,538	0,75
528,988	0,74
529,438	0,74
529,888	0,74
530,338	0,74
530,788	0,74
531,238	0,74
531,688	0,74
532,139	0,74
532,589	0,74
533,038	0,74
533,488	0,74
533,938	0,74
534,388	0,74
534,838	0,73
535,288	0,73
535,738	0,73
536,187	0,73
536,637	0,73
537,087	0,72
537,537	0,72
537,986	0,72
538,436	0,71
538,885	0,71
539,335	0,71
539,785	0,71
540,234	0,7
540,684	0,7
541,133	0,7
541,582	0,69
542,032	0,69
542,481	0,69
542,931	0,68
543,38	0,68
543,829	0,68
544,278	0,67
544,728	0,67
545,177	0,67
545,626	0,67
546,075	0,66
546,524	0,66
546,973	0,66
547,422	0,65
547,871	0,65
548,32	0,65
548,769	0,65
549,218	0,65
549,667	0,65
550,116	0,65
550,565	0,64
551,014	0,64
551,463	0,64
551,911	0,64
552,36	0,63
552,809	0,63
553,258	0,63
553,706	0,62
554,155	0,62
554,603	0,62
555,052	0,62
555,501	0,61
555,949	0,61
556,398	0,61
556,846	0,6
557,294	0,6
557,743	0,6
558,191	0,6
558,64	0,59
559,088	0,59
559,536	0,59
559,985	0,58
560,433	0,58
560,881	0,58
561,329	0,57
561,777	0,57
562,225	0,57
562,674	0,57
563,122	0,56
563,57	0,56
564,018	0,56
564,466	0,56
564,914	0,55
565,362	0,55
565,809	0,55
566,257	0,55
566,705	0,54
567,153	0,54
567,601	0,54
568,048	0,54
568,496	0,53
568,944	0,53
569,392	0,53
569,839	0,53
570,287	0,52
570,734	0,52
571,182	0,52
571,63	0,52
572,077	0,51
572,525	0,51
572,972	0,51
573,419	0,51
573,867	0,5
574,314	0,5
574,761	0,5
575,209	0,5
575,656	0,5
576,103	0,49
576,551	0,49
576,998	0,49
577,445	0,49
577,892	0,49
578,339	0,49
578,786	0,48
579,233	0,48
579,68	0,48
580,127	0,48
580,574	0,48
581,021	0,48
581,468	0,47
581,915	0,47
582,362	0,47
582,809	0,47
583,255	0,47
583,702	0,47
584,149	0,46
584,596	0,46
585,042	0,46
585,489	0,46
585,936	0,46
586,382	0,46
586,829	0,46
587,275	0,45
587,722	0,45
588,168	0,45
588,615	0,45
589,061	0,45
589,508	0,45
589,954	0,45
590,4	0,45
590,847	0,44
591,293	0,44
591,739	0,44
592,185	0,44
592,632	0,44
593,078	0,44
593,524	0,44
593,97	0,44
594,416	0,44
594,862	0,44
595,308	0,44
595,754	0,43
596,2	0,43
596,646	0,43
597,092	0,43
597,538	0,43
597,984	0,43
598,43	0,43
598,876	0,43
599,321	0,43
599,767	0,42
600,213	0,42
600,659	0,42
601,104	0,42
601,55	0,42
601,995	0,42
602,441	0,42
602,887	0,42
603,332	0,42
603,778	0,42
604,223	0,42
604,668	0,42
605,114	0,42
605,559	0,41
606,005	0,41
606,45	0,41
606,895	0,41
607,341	0,41
607,786	0,41
608,231	0,41
608,676	0,41
609,121	0,4
609,566	0,4
610,012	0,4
610,457	0,39
610,902	0,39
611,347	0,39
611,792	0,39
612,237	0,39
612,682	0,38
613,127	0,38
613,571	0,38
614,016	0,39
614,461	0,39
614,906	0,39
615,351	0,39
615,795	0,39
616,24	0,39
616,685	0,39
617,129	0,39
617,574	0,39
618,019	0,39
618,463	0,39
618,908	0,39
619,352	0,39
619,797	0,39
620,241	0,39
620,686	0,39
621,13	0,39
621,574	0,39
622,019	0,39
622,463	0,39
622,907	0,39
623,352	0,39
623,796	0,39
624,24	0,39
624,684	0,39
625,128	0,39
625,572	0,39
626,016	0,39
626,461	0,39
626,905	0,39
627,349	0,39
627,793	0,39
628,236	0,38
628,68	0,38
629,124	0,38
629,568	0,38
630,012	0,38
630,456	0,38
630,9	0,38
631,343	0,38
631,787	0,38
632,231	0,38
632,674	0,38
633,118	0,38
633,562	0,38
634,005	0,38
634,449	0,38
634,892	0,38
635,336	0,38
635,779	0,38
636,223	0,38
636,666	0,38
637,109	0,38
637,553	0,38
637,996	0,38
638,439	0,38
638,883	0,38
639,326	0,38
639,769	0,38
640,212	0,38
640,655	0,37
641,099	0,37
641,542	0,37
641,985	0,37
642,428	0,37
642,871	0,37
643,314	0,37
643,757	0,37
644,2	0,37
644,643	0,37
645,085	0,37
645,528	0,37
645,971	0,37
646,414	0,37
646,857	0,37
647,299	0,37
647,742	0,37
648,185	0,37
648,627	0,37
649,07	0,37
649,513	0,37
649,955	0,37
650,398	0,37
650,84	0,37
651,283	0,37
651,725	0,37
652,168	0,37
652,61	0,37
653,052	0,37
653,495	0,36
653,937	0,29
654,379	0,23
654,821	0,24
655,264	0,24
655,706	0,24
656,148	0,24
656,59	0,24
657,032	0,24
657,474	0,24
657,916	0,24
658,358	0,23
658,8	0,29
659,242	0,36
659,684	0,37
660,126	0,37
660,568	0,37
661,01	0,36
661,452	0,36
661,894	0,36
662,335	0,36
662,777	0,36
663,219	0,36
663,661	0,36
664,102	0,36
664,544	0,36
664,985	0,36
665,427	0,36
665,869	0,36
666,31	0,36
666,752	0,36
667,193	0,36
667,634	0,36
668,076	0,36
668,517	0,36
668,959	0,36
669,4	0,36
669,841	0,36
670,282	0,36
670,724	0,36
671,165	0,36
671,606	0,36
672,047	0,36
672,488	0,36
672,929	0,36
673,37	0,36
673,811	0,36
674,252	0,36
674,693	0,36
675,134	0,36
675,575	0,36
676,016	0,36
676,457	0,36
676,898	0,36
677,339	0,35
677,78	0,35
678,22	0,35
678,661	0,35
679,102	0,35
679,542	0,35
679,983	0,36
680,424	0,36
680,864	0,36
681,305	0,35
681,745	0,35
682,186	0,35
682,626	0,36
683,067	0,35
683,507	0,35
683,948	0,35
684,388	0,35
684,828	0,35
685,269	0,35
685,709	0,35
686,149	0,35
686,589	0,35
687,029	0,35
687,47	0,35
687,91	0,35
688,35	0,35
688,79	0,35
689,23	0,35
689,67	0,34
690,11	0,34
690,55	0,35
690,99	0,34
691,43	0,34
691,87	0,34
692,31	0,34
692,749	0,34
693,189	0,34
693,629	0,34
694,069	0,34
694,508	0,34
694,948	0,34
695,388	0,34
695,827	0,34
696,267	0,34
696,706	0,34
697,146	0,34
697,586	0,35
698,025	0,35
698,464	0,35
698,904	0,35
699,343	0,35
699,783	0,35
700,222	0,35
700,661	0,35
701,101	0,35
701,54	0,35
701,979	0,35
702,418	0,35
702,857	0,35
703,297	0,35
703,736	0,35
704,175	0,34
704,614	0,34
705,053	0,34
705,492	0,34
705,931	0,34
706,37	0,34
706,809	0,34
707,248	0,34
707,687	0,34
708,125	0,34
708,564	0,34
709,003	0,34
709,442	0,34
709,88	0,34
710,319	0,34
710,758	0,34
711,196	0,34
711,635	0,33
712,074	0,33
712,512	0,33
712,951	0,33
713,389	0,33
713,828	0,33
714,266	0,33
714,705	0,33
715,143	0,33
715,581	0,33
716,02	0,33
716,458	0,33
716,896	0,33
717,334	0,33
717,773	0,33
718,211	0,33
718,649	0,33
719,087	0,33
719,525	0,33
719,963	0,33
720,401	0,33
720,839	0,33
721,277	0,33
721,715	0,33
722,153	0,33
722,591	0,33
723,029	0,33
723,467	0,33
723,905	0,33
724,342	0,33
724,78	0,33
725,218	0,33
725,656	0,33
726,093	0,33
726,531	0,33
726,969	0,33
727,406	0,33
727,844	0,33
728,281	0,33
728,719	0,33
729,156	0,33
729,594	0,33
730,031	0,33
730,469	0,33
730,906	0,33
731,343	0,33
731,781	0,32
732,218	0,32
732,655	0,32
733,092	0,32
733,53	0,32
733,967	0,32
734,404	0,32
734,841	0,32
735,278	0,32
735,715	0,32
736,152	0,32
736,589	0,32
737,026	0,32
737,463	0,32
737,9	0,32
738,337	0,32
738,774	0,32
739,211	0,32
739,647	0,32
740,084	0,32
740,521	0,32
740,958	0,32
741,394	0,32
741,831	0,31
742,268	0,31
742,704	0,31
743,141	0,31
743,577	0,31
744,014	0,31
744,45	0,31
744,887	0,31
745,323	0,31
745,76	0,3
746,196	0,3
746,632	0,3
747,069	0,3
747,505	0,3
747,941	0,3
748,378	0,3
748,814	0,3
749,25	0,31
749,686	0,31
750,122	0,31
750,558	0,31
750,994	0,31
751,43	0,31
751,866	0,31
752,302	0,32
752,738	0,32
753,174	0,32
753,61	0,32
754,046	0,32
754,482	0,32
754,918	0,32
755,354	0,32
755,789	0,32
756,225	0,32
756,661	0,32
757,096	0,32
757,532	0,31
757,968	0,31
758,403	0,31
758,839	0,31
759,274	0,31
759,71	0,3
760,145	0,3
760,581	0,3
761,016	0,29
761,452	0,29
761,887	0,28
762,322	0,28
762,758	0,28
763,193	0,27
763,628	0,27
764,063	0,26
764,499	0,26
764,934	0,25
765,369	0,25
765,804	0,24
766,239	0,24
766,674	0,23
767,109	0,22
767,544	0,22
767,979	0,21
768,414	0,2
768,849	0,2
769,284	0,19
769,719	0,18
770,154	0,18
770,588	0,17
771,023	0,16
771,458	0,15
771,893	0,14
772,327	0,13
772,762	0,12
773,197	0,12
773,631	0,11
774,066	0,1
774,5	0,1
774,935	0,08
775,369	0,08
775,804	0,07
776,238	0,06
776,673	0,05
777,107	0,04
777,541	0,04
777,976	0,02
778,41	0,01
778,844	0,01
779,279	0
779,713	-0
780,147	-0,01
780,581	-0,01
781,015	-0,02
781,449	-0,03
781,883	-0,03
782,317	-0,05
782,751	-0,06
783,185	-0,06
783,619	-0,07
784,053	-0,09
784,487	-0,09
784,921	-0,1
785,355	-0,11
785,789	-0,12
786,223	-0,13
786,656	-0,14
787,09	-0,15
787,524	-0,16
787,957	-0,17
788,391	-0,19
788,825	-0,2
789,258	-0,21
789,692	-0,22
790,125	-0,24
790,559	-0,25
790,992	-0,27
791,426	-0,3
791,859	-0,31
792,293	-0,34
792,726	-0,35
793,159	-0,37
793,593	-0,39
794,026	-0,41
794,459	-0,44
794,892	-0,46
795,326	-0,49
795,759	-0,52
796,192	-0,57
796,625	-0,61
797,058	-0,64
797,491	-0,68
797,924	-0,72
798,357	-0,77
798,79	-0,81
799,223	-0,86
799,656	-0,91
800,089	-0,96
800,522	-1
800,955	-1,05
801,387	-1,1
801,82	-1,16
802,253	-1,22
802,686	-1,3
803,118	-1,35
803,551	-1,41
803,984	-1,45
804,416	-1,49
804,849	-1,52
805,281	-1,65
805,714	-2
806,146	-2,44
806,579	-2,7
807,011	-2,87
807,444	-2,96
807,876	-3,06
808,308	-3,1
808,741	-3,13
809,173	-3,18
809,605	-3,2
810,037	-3,27
810,47	-3,19
810,902	-3
811,334	-2,86
811,766	-2,71
812,198	-2,5
812,63	-2,07
813,062	-1,83
813,494	-1,72
813,926	-1,63
814,358	-1,57
814,79	-1,49
815,222	-1,43
815,654	-1,38
816,086	-1,32
816,518	-1,26
816,949	-1,21
817,381	-1,16
817,813	-1,15
818,245	-1,11
818,676	-1,06
819,108	-1,03
819,54	-1,01
819,971	-0,99
820,403	-0,94
820,834	-0,92
821,266	-0,88
821,697	-0,85
822,129	-0,83
822,56	-0,8
822,991	-0,78
823,423	-0,76
823,854	-0,75
824,286	-0,72
824,717	-0,71
825,148	-0,7
825,579	-0,69
826,01	-0,67
826,442	-0,67
826,873	-0,65
827,304	-0,61
827,735	-0,6
828,166	-0,6
828,597	-0,61
829,028	-0,6
829,459	-0,61
829,89	-0,61
830,321	-0,57
830,752	-0,57
831,183	-0,55
831,613	-0,55
832,044	-0,55
832,475	-0,54
832,906	-0,55
833,336	-0,55
833,767	-0,56
834,198	-0,54
834,628	-0,53
835,059	-0,56
835,49	-0,56
835,92	-0,54
836,351	-0,54
836,781	-0,54
837,212	-0,55
837,642	-0,55
838,072	-0,53
838,503	-0,53
838,933	-0,51
839,364	-0,52
839,794	-0,5
840,224	-0,48
840,654	-0,53
841,085	-0,54
841,515	-0,51
841,945	-0,51
842,375	-0,46
842,805	-0,45
843,235	-0,44
843,665	-0,46
844,095	-0,44
844,525	-0,46
844,955	-0,47
845,385	-0,44
845,815	-0,43
846,245	-0,45
846,675	-0,46
847,105	-0,48
847,534	-0,49
847,964	-0,47
848,394	-0,46
848,824	-0,49
849,253	-0,48
849,683	-0,48
850,112	-0,5
850,542	-0,53
850,972	-0,54
851,401	-0,51
851,831	-0,5
852,26	-0,51
852,69	-0,55
853,119	-0,54
853,548	-0,54
853,978	-0,55
854,407	-0,53
854,836	-0,53
855,266	-0,51
855,695	-0,51
856,124	-0,53
856,553	-0,54
856,983	-0,56
857,412	-0,54
857,841	-0,56
858,27	-0,56
858,699	-0,57
859,128	-0,6
859,557	-0,61
859,986	-0,64
860,415	-0,61
860,844	-0,59
861,273	-0,58
861,702	-0,59
862,13	-0,57
862,559	-0,58
862,988	-0,55
863,417	-0,55
863,845	-0,53
864,274	-0,54
864,703	-0,53
865,131	-0,54
865,56	-0,55
865,989	-0,58
866,417	-0,55
866,846	-0,55
867,274	-0,54
867,703	-0,56
868,131	-0,57
868,559	-0,57
868,988	-0,59
869,416	-0,58
869,844	-0,59
870,273	-0,62
870,701	-0,6
871,129	-0,63
871,557	-0,66
871,986	-0,67
872,414	-0,68
872,842	-0,65
873,27	-0,64
873,698	-0,6
874,126	-0,64
874,554	-0,63
874,982	-0,64
875,41	-0,66
875,838	-0,61
876,266	-0,59
876,694	-0,58
877,122	-0,56
877,549	-0,61
877,977	-0,59
878,405	-0,61
878,833	-0,57
879,26	-0,56
879,688	-0,56
880,116	-0,53
880,543	-0,52
880,971	-0,52
881,399	-0,55
881,826	-0,56
882,254	-0,54
882,681	-0,57
883,109	-0,52
883,536	-0,54
883,963	-0,55
884,391	-0,54
884,818	-0,52
885,245	-0,56
885,673	-0,56
886,1	-0,54
886,527	-0,55
886,954	-0,52
887,381	-0,53
887,809	-0,55
888,236	-0,56
888,663	-0,57
889,09	-0,61
889,517	-0,63
889,944	-0,63
890,371	-0,62
890,798	-0,63
891,225	-0,63
891,652	-0,66
892,078	-0,63
892,505	-0,66
892,932	-0,62
893,359	-0,62
893,786	-0,62
894,212	-0,58
894,639	-0,59
895,066	-0,62
895,492	-0,55
895,919	-0,57
896,346	-0,57
896,772	-0,58
897,199	-0,56
897,625	-0,58
898,052	-0,55
898,478	-0,54
898,904	-0,55
899,331	-0,55
899,757	-0,57
900,183	-0,59
900,61	-0,56
901,036	-0,57
901,462	-0,57
901,888	-0,55
902,315	-0,53
902,741	-0,58
903,167	-0,57
903,593	-0,59
904,019	-0,58
904,445	-0,54
904,871	-0,57
905,297	-0,59
905,723	-0,58
906,149	-0,57
906,575	-0,59
907,001	-0,6
907,427	-0,56
907,852	-0,55
908,278	-0,56
908,704	-0,54
909,13	-0,54
909,555	-0,53
909,981	-0,52
910,407	-0,51
910,832	-0,5
911,258	-0,5
911,684	-0,5
912,109	-0,51
912,535	-0,52
912,96	-0,48
913,386	-0,51
913,811	-0,52
914,236	-0,53
914,662	-0,51
915,087	-0,55
915,512	-0,56
915,938	-0,57
916,363	-0,56
916,788	-0,57
917,213	-0,55
917,639	-0,59
918,064	-0,57
918,489	-0,58
918,914	-0,59
919,339	-0,59
919,764	-0,56
920,189	-0,56
920,614	-0,6
921,039	-0,59
921,464	-0,56
921,889	-0,6
922,314	-0,6
922,738	-0,64
923,163	-0,64
923,588	-0,64
924,013	-0,64
924,437	-0,63
924,862	-0,65
925,287	-0,6
925,711	-0,62
926,136	-0,63
926,561	-0,6
926,985	-0,6
927,41	-0,56
927,834	-0,54
928,259	-0,5
928,683	-0,48
929,108	-0,45
929,532	-0,47
929,956	-0,46
930,381	-0,45
930,805	-0,45
931,229	-0,45
931,653	-0,43
932,078	-0,43
932,502	-0,44
932,926	-0,46
933,35	-0,46
933,774	-0,46
934,198	-0,44
934,622	-0,42
935,046	-0,43
935,47	-0,44
935,894	-0,43
936,318	-0,43
936,742	-0,44
937,166	-0,44
937,59	-0,43
938,014	-0,46
938,437	-0,47
938,861	-0,49
939,285	-0,51
939,709	-0,5
940,132	-0,5
940,556	-0,51
940,98	-0,51
941,403	-0,49
941,827	-0,5
942,25	-0,51
942,674	-0,48
943,097	-0,48
943,521	-0,47
943,944	-0,48
944,368	-0,48
944,791	-0,46
945,214	-0,49
945,638	-0,49
946,061	-0,52
946,484	-0,53
946,907	-0,51
947,331	-0,51
947,754	-0,55
948,177	-0,53
948,6	-0,53
949,023	-0,53
949,446	-0,53
949,869	-0,5
950,292	-0,5
950,715	-0,47
951,138	-0,46
951,561	-0,43
951,984	-0,43
952,407	-0,42
952,83	-0,4
953,252	-0,36
953,675	-0,36
954,098	-0,37
954,521	-0,35
954,943	-0,35
955,366	-0,35
955,789	-0,33
956,211	-0,35
956,634	-0,36
957,056	-0,33
957,479	-0,34
957,902	-0,36
958,324	-0,37
958,746	-0,35
959,169	-0,36
959,591	-0,36
960,014	-0,37
960,436	-0,36
960,858	-0,36
961,281	-0,37
961,703	-0,39
962,125	-0,38
962,547	-0,37
962,969	-0,37
963,391	-0,38
963,814	-0,39
964,236	-0,38
964,658	-0,36
965,08	-0,37
965,502	-0,36
965,924	-0,34
966,346	-0,33
966,768	-0,33
967,189	-0,34
967,611	-0,34
968,033	-0,33
968,455	-0,31
968,877	-0,32
969,298	-0,33
969,72	-0,34
970,142	-0,33
970,563	-0,33
970,985	-0,32
971,407	-0,32
971,828	-0,3
972,25	-0,29
972,671	-0,28
973,093	-0,28
973,514	-0,26
973,936	-0,24
974,357	-0,23
974,778	-0,23
975,2	-0,22
975,621	-0,22
976,042	-0,2
976,464	-0,19
976,885	-0,18
977,306	-0,17
977,727	-0,16
978,148	-0,16
978,57	-0,15
978,991	-0,14
979,412	-0,12
979,833	-0,11
980,254	-0,1
980,675	-0,11
981,096	-0,11
981,517	-0,09
981,937	-0,09
982,358	-0,08
982,779	-0,06
983,2	-0,06
983,621	-0,05
984,042	-0,03
984,462	-0,03
984,883	-0,02
985,304	-0
985,724	0,01
986,145	0,01
986,565	0,03
986,986	0,04
987,407	0,04
987,827	0,05
988,248	0,06
988,668	0,07
989,088	0,08
989,509	0,09
989,929	0,1
990,35	0,11
990,77	0,12
991,19	0,13
991,61	0,14
992,031	0,14
992,451	0,15
992,871	0,16
993,291	0,16
993,711	0,17
994,131	0,17
994,551	0,18
994,971	0,19
995,391	0,19
995,811	0,2
996,231	0,2
996,651	0,2
997,071	0,21
997,491	0,22
997,911	0,22
998,331	0,23
998,75	0,23
999,17	0,24
999,59	0,24
1000,009	0,24
1000,429	0,25
1000,849	0,25
1001,268	0,26
1001,688	0,26
1002,107	0,26
1002,527	0,27
1002,946	0,27
1003,366	0,27
1003,785	0,27
1004,205	0,27
1004,624	0,27
1005,044	0,27
1005,463	0,28
1005,882	0,28
1006,301	0,28
1006,721	0,28
1007,14	0,28
1007,559	0,28
1007,978	0,28
1008,397	0,28
1008,816	0,28
1009,235	0,28
1009,655	0,28
1010,074	0,28
1010,492	0,28
1010,911	0,28
1011,33	0,27
1011,749	0,27
1012,168	0,27
1012,587	0,27
1013,006	0,27
1013,425	0,27
1013,843	0,27
1014,262	0,27
1014,681	0,27
1015,099	0,27
1015,518	0,27
1015,937	0,27
1016,355	0,27
1016,774	0,27
1017,192	0,27
1017,611	0,27
1018,029	0,27
1018,448	0,27
1018,866	0,27
1019,285	0,27
1019,703	0,27
1020,121	0,27
1020,54	0,27
1020,958	0,27
1021,376	0,27
1021,794	0,27
1022,213	0,27
1022,631	0,27
1023,049	0,27
1023,467	0,27
1023,885	0,27
1024,303	0,27
1024,721	0,27
1025,139	0,27
1025,557	0,27
1025,975	0,27
1026,393	0,27
1026,811	0,27
1027,229	0,27
1027,647	0,27
1028,065	0,26
1028,482	0,26
1028,9	0,26
1029,318	0,26
1029,735	0,26
1030,153	0,26
1030,571	0,26
1030,988	0,26
1031,406	0,26
1031,823	0,26
1032,241	0,26
1032,659	0,26
1033,076	0,26
1033,493	0,26
1033,911	0,26
1034,328	0,26
1034,746	0,26
1035,163	0,26
1035,58	0,26
1035,997	0,26
1036,415	0,26
1036,832	0,26
1037,249	0,26
1037,666	0,26
1038,083	0,26
1038,501	0,26
1038,918	0,26
1039,335	0,26
1039,752	0,26
1040,169	0,26
1040,586	0,26
1041,003	0,26
1041,419	0,26
1041,836	0,26
1042,253	0,26
1042,67	0,26
1043,087	0,26
1043,504	0,26
1043,92	0,26
1044,337	0,25
1044,754	0,25
1045,17	0,25
1045,587	0,25
1046,004	0,25
1046,42	0,25
1046,837	0,25
1047,253	0,25
1047,67	0,25
1048,086	0,25
1048,503	0,25
1048,919	0,25
1049,335	0,25
1049,752	0,25
1050,168	0,25
1050,584	0,25
1051,001	0,25
1051,417	0,25
1051,833	0,25
1052,249	0,25
1052,665	0,25
1053,081	0,25
1053,497	0,25
1053,914	0,26
1054,33	0,26
1054,746	0,26
1055,162	0,26
1055,578	0,26
1055,993	0,26
1056,409	0,26
1056,825	0,26
1057,241	0,26
1057,657	0,26
1058,073	0,26
1058,488	0,26
1058,904	0,26
1059,32	0,26
1059,736	0,26
1060,151	0,26
1060,567	0,26
1060,982	0,26
1061,398	0,26
1061,813	0,26
1062,229	0,26
1062,644	0,26
1063,06	0,26
1063,475	0,26
1063,891	0,26
1064,306	0,26
1064,721	0,26
1065,137	0,26
1065,552	0,26
1065,967	0,26
1066,382	0,26
1066,798	0,26
1067,213	0,26
1067,628	0,26
1068,043	0,26
1068,458	0,26
1068,873	0,26
1069,288	0,26
1069,703	0,26
1070,118	0,26
1070,533	0,26
1070,948	0,26
1071,363	0,26
1071,778	0,26
1072,193	0,26
1072,607	0,26
1073,022	0,26
1073,437	0,26
1073,852	0,26
1074,266	0,27
1074,681	0,27
1075,096	0,27
1075,51	0,26
1075,925	0,26
1076,339	0,26
1076,754	0,26
1077,168	0,26
1077,583	0,26
1077,997	0,26
1078,412	0,26
1078,826	0,26
1079,24	0,26
1079,655	0,26
1080,069	0,26
1080,483	0,26
1080,897	0,25
1081,312	0,25
1081,726	0,25
1082,14	0,25
1082,554	0,25
1082,968	0,25
1083,382	0,25
1083,796	0,25
1084,21	0,25
1084,624	0,25
1085,038	0,25
1085,452	0,25
1085,866	0,25
1086,28	0,25
1086,694	0,24
1087,108	0,24
1087,521	0,24
1087,935	0,24
1088,349	0,24
1088,763	0,24
1089,176	0,23
1089,59	0,23
1090,004	0,23
1090,417	0,23
1090,831	0,23
1091,244	0,23
1091,658	0,22
1092,071	0,22
1092,485	0,22
1092,898	0,22
1093,312	0,22
1093,725	0,22
1094,138	0,21
1094,552	0,21
1094,965	0,21
1095,378	0,21
1095,791	0,21
1096,205	0,21
1096,618	0,21
1097,031	0,21
1097,444	0,21
1097,857	0,2
1098,27	0,2
1098,683	0,2
1099,096	0,2
1099,509	0,2
1099,922	0,19
1100,335	0,19
1100,748	0,19
1101,161	0,18
1101,574	0,18
1101,986	0,18
1102,399	0,17
1102,812	0,17
1103,225	0,17
1103,637	0,16
1104,05	0,16
1104,463	0,16
1104,875	0,15
1105,288	0,15
1105,7	0,15
1106,113	0,14
1106,525	0,14
1106,938	0,14
1107,35	0,13
1107,763	0,13
1108,175	0,13
1108,588	0,13
1109	0,12
1109,412	0,12
1109,824	0,12
1110,237	0,12
1110,649	0,12
1111,061	0,1
