Data from 18C-808nm-8A_Absorbance__68__00068.txt Node

Date: Mon Jul 17 16:19:13 CEST 2023
User: Laser008
Spectrometer: MAYP115816
Trigger mode: 0
Integration Time (sec): 2,500000E-1
Scans to average: 10
Electric dark correction enabled: true
Nonlinearity correction enabled: true
Boxcar width: 5
XAxis mode: Wavelengths
Number of Pixels in Spectrum: 2068
>>>>>Begin Spectral Data<<<<<
198,914	-0,28
199,384	-0,14
199,855	-0,07
200,325	-0,02
200,796	-0,01
201,266	0,01
201,737	0,01
202,207	0,01
202,677	0,02
203,147	0,03
203,618	0,04
204,088	0,05
204,558	0,04
205,028	0,04
205,498	0,03
205,968	0,03
206,439	0,02
206,909	0,02
207,379	0,03
207,849	0,03
208,319	0,02
208,789	0,02
209,258	0,02
209,728	0,03
210,198	0,04
210,668	0,04
211,138	0,05
211,608	0,05
212,077	0,06
212,547	0,07
213,017	0,06
213,486	0,05
213,956	0,05
214,426	0,05
214,895	0,04
215,365	0,03
215,834	0,03
216,304	0,03
216,773	0,02
217,243	-0
217,712	-0,02
218,181	-0,01
218,651	-0,01
219,12	-0,01
219,589	0,01
220,058	0,03
220,528	0,03
220,997	0,03
221,466	0,03
221,935	0,03
222,404	0,05
222,873	0,06
223,342	0,07
223,812	0,06
224,281	0,07
224,749	0,05
225,218	0,04
225,687	0,04
226,156	0,04
226,625	0,05
227,094	0,06
227,563	0,05
228,031	0,05
228,5	0,04
228,969	0,03
229,438	0,04
229,906	0,05
230,375	0,06
230,844	0,05
231,312	0,04
231,781	0,03
232,249	0,03
232,718	0,02
233,186	0,02
233,655	0,01
234,123	0,01
234,591	0,01
235,06	0,01
235,528	0,01
235,996	0,02
236,465	0,03
236,933	0,03
237,401	0,02
237,869	0,03
238,337	0,03
238,805	0,04
239,274	0,04
239,742	0,04
240,21	0,04
240,678	0,04
241,146	0,04
241,614	0,03
242,081	0,04
242,549	0,04
243,017	0,03
243,485	0,03
243,953	0,03
244,421	0,04
244,888	0,05
245,356	0,05
245,824	0,06
246,291	0,06
246,759	0,05
247,227	0,04
247,694	0,06
248,162	0,07
248,629	0,08
249,097	0,08
249,564	0,07
250,032	0,06
250,499	0,06
250,967	0,04
251,434	0,04
251,901	0,04
252,369	0,04
252,836	0,02
253,303	0
253,77	0,01
254,237	0,01
254,705	0,01
255,172	0,02
255,639	0,03
256,106	0,04
256,573	0,03
257,04	0,04
257,507	0,04
257,974	0,04
258,441	0,06
258,908	0,06
259,375	0,05
259,841	0,06
260,308	0,05
260,775	0,05
261,242	0,04
261,709	0,04
262,175	0,02
262,642	0,03
263,109	0,04
263,575	0,03
264,042	0,03
264,508	0,04
264,975	0,03
265,441	0,02
265,908	0,02
266,374	0,04
266,841	0,02
267,307	0,03
267,773	0,03
268,24	0,03
268,706	0,03
269,172	0,01
269,639	0
270,105	0,01
270,571	0,02
271,037	0,02
271,503	0
271,969	0,02
272,435	0,02
272,902	0,01
273,368	-0,01
273,834	0,01
274,3	0,03
274,765	0,02
275,231	0,02
275,697	0,02
276,163	0,02
276,629	0,04
277,095	0,04
277,56	0,05
278,026	0,04
278,492	0,06
278,958	0,05
279,423	0,03
279,889	0,05
280,354	0,04
280,82	0,06
281,286	0,06
281,751	0,05
282,217	0,05
282,682	0,04
283,147	0,04
283,613	0,04
284,078	0,03
284,544	0,03
285,009	0,02
285,474	0,01
285,939	-0,01
286,405	-0,01
286,87	-0
287,335	0
287,8	0,01
288,265	0,01
288,73	0,01
289,195	0,01
289,66	0,01
290,125	0,02
290,59	0,03
291,055	0,05
291,52	0,05
291,985	0,04
292,45	0,01
292,915	0,01
293,38	0,01
293,844	0,01
294,309	0,01
294,774	0,02
295,239	0,01
295,703	-0
296,168	0,01
296,632	0,01
297,097	0,02
297,562	0,04
298,026	0,05
298,491	0,04
298,955	0,05
299,419	0,05
299,884	0,06
300,348	0,07
300,813	0,08
301,277	0,07
301,741	0,06
302,205	0,06
302,67	0,07
303,134	0,07
303,598	0,07
304,062	0,08
304,526	0,07
304,99	0,06
305,454	0,05
305,919	0,05
306,383	0,05
306,847	0,04
307,31	0,04
307,774	0,04
308,238	0,04
308,702	0,04
309,166	0,03
309,63	0,03
310,094	0,06
310,557	0,07
311,021	0,07
311,485	0,06
311,948	0,07
312,412	0,07
312,876	0,06
313,339	0,06
313,803	0,06
314,266	0,06
314,73	0,05
315,193	0,05
315,657	0,06
316,12	0,06
316,584	0,07
317,047	0,06
317,51	0,07
317,973	0,07
318,437	0,07
318,9	0,07
319,363	0,09
319,826	0,09
320,29	0,08
320,753	0,07
321,216	0,07
321,679	0,07
322,142	0,08
322,605	0,07
323,068	0,07
323,531	0,06
323,994	0,06
324,457	0,06
324,92	0,06
325,382	0,07
325,845	0,08
326,308	0,07
326,771	0,07
327,233	0,08
327,696	0,09
328,159	0,09
328,622	0,1
329,084	0,1
329,547	0,1
330,009	0,09
330,472	0,1
330,934	0,1
331,397	0,1
331,859	0,11
332,322	0,1
332,784	0,09
333,246	0,09
333,709	0,09
334,171	0,1
334,633	0,1
335,096	0,1
335,558	0,1
336,02	0,1
336,482	0,1
336,944	0,1
337,406	0,11
337,868	0,11
338,331	0,11
338,793	0,11
339,255	0,11
339,717	0,11
340,178	0,11
340,64	0,11
341,102	0,11
341,564	0,11
342,026	0,1
342,488	0,1
342,949	0,11
343,411	0,12
343,873	0,13
344,335	0,13
344,796	0,14
345,258	0,15
345,719	0,15
346,181	0,15
346,643	0,16
347,104	0,16
347,566	0,16
348,027	0,17
348,488	0,17
348,95	0,17
349,411	0,17
349,873	0,17
350,334	0,17
350,795	0,17
351,256	0,18
351,718	0,18
352,179	0,18
352,64	0,18
353,101	0,18
353,562	0,18
354,023	0,18
354,484	0,18
354,945	0,18
355,406	0,18
355,867	0,18
356,328	0,18
356,789	0,18
357,25	0,18
357,711	0,18
358,172	0,18
358,633	0,18
359,093	0,18
359,554	0,18
360,015	0,18
360,476	0,18
360,936	0,18
361,397	0,18
361,858	0,18
362,318	0,18
362,779	0,18
363,239	0,18
363,7	0,18
364,16	0,18
364,621	0,18
365,081	0,18
365,541	0,18
366,002	0,18
366,462	0,18
366,922	0,18
367,383	0,18
367,843	0,18
368,303	0,18
368,763	0,18
369,223	0,18
369,684	0,18
370,144	0,18
370,604	0,18
371,064	0,18
371,524	0,18
371,984	0,18
372,444	0,18
372,904	0,18
373,363	0,18
373,823	0,18
374,283	0,18
374,743	0,18
375,203	0,18
375,663	0,18
376,122	0,18
376,582	0,18
377,042	0,18
377,501	0,18
377,961	0,18
378,42	0,18
378,88	0,18
379,34	0,18
379,799	0,18
380,259	0,18
380,718	0,18
381,177	0,18
381,637	0,18
382,096	0,18
382,555	0,18
383,015	0,18
383,474	0,18
383,933	0,18
384,393	0,18
384,852	0,18
385,311	0,18
385,77	0,18
386,229	0,18
386,688	0,18
387,147	0,18
387,606	0,18
388,065	0,18
388,524	0,18
388,983	0,18
389,442	0,18
389,901	0,18
390,36	0,18
390,819	0,18
391,277	0,18
391,736	0,18
392,195	0,18
392,654	0,18
393,112	0,18
393,571	0,18
394,03	0,18
394,488	0,18
394,947	0,18
395,405	0,18
395,864	0,18
396,322	0,18
396,781	0,18
397,239	0,18
397,698	0,18
398,156	0,18
398,614	0,18
399,073	0,18
399,531	0,18
399,989	0,18
400,447	0,18
400,905	0,18
401,364	0,18
401,822	0,18
402,28	0,18
402,738	0,17
403,196	0,17
403,654	0,17
404,112	0,17
404,57	0,17
405,028	0,17
405,486	0,17
405,944	0,17
406,402	0,17
406,859	0,17
407,317	0,17
407,775	0,17
408,233	0,17
408,691	0,17
409,148	0,17
409,606	0,17
410,064	0,17
410,521	0,17
410,979	0,17
411,436	0,17
411,894	0,17
412,351	0,17
412,809	0,17
413,266	0,17
413,724	0,17
414,181	0,17
414,638	0,17
415,096	0,17
415,553	0,17
416,01	0,17
416,467	0,17
416,925	0,17
417,382	0,17
417,839	0,17
418,296	0,17
418,753	0,17
419,21	0,17
419,667	0,17
420,124	0,17
420,581	0,17
421,038	0,17
421,495	0,17
421,952	0,17
422,409	0,17
422,866	0,17
423,322	0,17
423,779	0,17
424,236	0,17
424,693	0,17
425,149	0,17
425,606	0,17
426,063	0,17
426,519	0,17
426,976	0,17
427,433	0,17
427,889	0,17
428,346	0,17
428,802	0,17
429,258	0,17
429,715	0,17
430,171	0,17
430,628	0,17
431,084	0,17
431,54	0,17
431,997	0,17
432,453	0,17
432,909	0,17
433,365	0,17
433,821	0,17
434,277	0,17
434,734	0,17
435,19	0,17
435,646	0,17
436,102	0,17
436,558	0,17
437,014	0,17
437,47	0,17
437,925	0,17
438,381	0,17
438,837	0,17
439,293	0,17
439,749	0,17
440,205	0,17
440,66	0,17
441,116	0,17
441,572	0,17
442,027	0,17
442,483	0,17
442,939	0,17
443,394	0,17
443,85	0,17
444,305	0,17
444,761	0,17
445,216	0,17
445,672	0,17
446,127	0,17
446,582	0,17
447,038	0,17
447,493	0,17
447,948	0,17
448,403	0,17
448,859	0,17
449,314	0,17
449,769	0,17
450,224	0,17
450,679	0,17
451,134	0,17
451,589	0,17
452,044	0,17
452,499	0,17
452,954	0,17
453,409	0,17
453,864	0,17
454,319	0,17
454,774	0,17
455,229	0,17
455,684	0,17
456,138	0,17
456,593	0,16
457,048	0,16
457,503	0,16
457,957	0,16
458,412	0,16
458,866	0,16
459,321	0,16
459,776	0,16
460,23	0,16
460,685	0,16
461,139	0,16
461,593	0,16
462,048	0,16
462,502	0,16
462,957	0,17
463,411	0,17
463,865	0,17
464,319	0,17
464,774	0,17
465,228	0,17
465,682	0,17
466,136	0,17
466,59	0,17
467,044	0,17
467,499	0,17
467,953	0,17
468,407	0,17
468,861	0,17
469,315	0,17
469,768	0,17
470,222	0,17
470,676	0,17
471,13	0,17
471,584	0,17
472,038	0,17
472,491	0,17
472,945	0,17
473,399	0,17
473,852	0,17
474,306	0,17
474,76	0,17
475,213	0,17
475,667	0,17
476,12	0,17
476,574	0,17
477,027	0,17
477,481	0,17
477,934	0,17
478,388	0,17
478,841	0,17
479,294	0,17
479,748	0,17
480,201	0,17
480,654	0,17
481,107	0,17
481,561	0,17
482,014	0,17
482,467	0,17
482,92	0,17
483,373	0,17
483,826	0,17
484,279	0,17
484,732	0,17
485,185	0,17
485,638	0,17
486,091	0,17
486,544	0,17
486,997	0,17
487,449	0,17
487,902	0,17
488,355	0,17
488,808	0,17
489,26	0,17
489,713	0,17
490,166	0,17
490,618	0,17
491,071	0,17
491,523	0,17
491,976	0,17
492,429	0,17
492,881	0,17
493,333	0,17
493,786	0,17
494,238	0,17
494,691	0,17
495,143	0,18
495,595	0,18
496,048	0,18
496,5	0,18
496,952	0,18
497,404	0,18
497,856	0,18
498,309	0,18
498,761	0,18
499,213	0,18
499,665	0,18
500,117	0,18
500,569	0,18
501,021	0,18
501,473	0,18
501,925	0,19
502,377	0,19
502,828	0,19
503,28	0,19
503,732	0,19
504,184	0,19
504,636	0,19
505,087	0,19
505,539	0,19
505,991	0,19
506,442	0,19
506,894	0,19
507,345	0,19
507,797	0,19
508,249	0,19
508,7	0,2
509,151	0,2
509,603	0,2
510,054	0,2
510,506	0,2
510,957	0,2
511,408	0,2
511,86	0,2
512,311	0,2
512,762	0,2
513,213	0,2
513,665	0,2
514,116	0,2
514,567	0,2
515,018	0,21
515,469	0,21
515,92	0,21
516,371	0,21
516,822	0,21
517,273	0,21
517,724	0,21
518,175	0,21
518,626	0,21
519,076	0,21
519,527	0,21
519,978	0,22
520,429	0,22
520,88	0,22
521,33	0,22
521,781	0,22
522,232	0,22
522,682	0,22
523,133	0,22
523,583	0,22
524,034	0,22
524,484	0,22
524,935	0,22
525,385	0,22
525,836	0,22
526,286	0,22
526,736	0,23
527,187	0,23
527,637	0,23
528,087	0,23
528,538	0,23
528,988	0,23
529,438	0,23
529,888	0,23
530,338	0,23
530,788	0,23
531,238	0,23
531,688	0,23
532,139	0,23
532,589	0,23
533,038	0,23
533,488	0,23
533,938	0,23
534,388	0,24
534,838	0,24
535,288	0,24
535,738	0,24
536,187	0,24
536,637	0,24
537,087	0,24
537,537	0,24
537,986	0,24
538,436	0,24
538,885	0,24
539,335	0,23
539,785	0,23
540,234	0,23
540,684	0,23
541,133	0,23
541,582	0,23
542,032	0,23
542,481	0,23
542,931	0,23
543,38	0,23
543,829	0,23
544,278	0,23
544,728	0,23
545,177	0,24
545,626	0,24
546,075	0,24
546,524	0,24
546,973	0,24
547,422	0,24
547,871	0,24
548,32	0,24
548,769	0,24
549,218	0,24
549,667	0,24
550,116	0,25
550,565	0,25
551,014	0,25
551,463	0,25
551,911	0,25
552,36	0,25
552,809	0,25
553,258	0,25
553,706	0,25
554,155	0,25
554,603	0,25
555,052	0,25
555,501	0,25
555,949	0,25
556,398	0,25
556,846	0,25
557,294	0,25
557,743	0,25
558,191	0,25
558,64	0,25
559,088	0,25
559,536	0,25
559,985	0,25
560,433	0,25
560,881	0,25
561,329	0,25
561,777	0,25
562,225	0,25
562,674	0,25
563,122	0,25
563,57	0,25
564,018	0,25
564,466	0,25
564,914	0,25
565,362	0,25
565,809	0,25
566,257	0,25
566,705	0,25
567,153	0,25
567,601	0,25
568,048	0,26
568,496	0,26
568,944	0,26
569,392	0,26
569,839	0,26
570,287	0,26
570,734	0,26
571,182	0,26
571,63	0,26
572,077	0,26
572,525	0,26
572,972	0,26
573,419	0,26
573,867	0,26
574,314	0,26
574,761	0,26
575,209	0,26
575,656	0,26
576,103	0,26
576,551	0,26
576,998	0,26
577,445	0,26
577,892	0,26
578,339	0,26
578,786	0,26
579,233	0,26
579,68	0,26
580,127	0,26
580,574	0,26
581,021	0,26
581,468	0,26
581,915	0,26
582,362	0,26
582,809	0,26
583,255	0,26
583,702	0,26
584,149	0,26
584,596	0,26
585,042	0,26
585,489	0,26
585,936	0,26
586,382	0,26
586,829	0,26
587,275	0,26
587,722	0,26
588,168	0,26
588,615	0,25
589,061	0,25
589,508	0,25
589,954	0,25
590,4	0,25
590,847	0,25
591,293	0,25
591,739	0,25
592,185	0,25
592,632	0,26
593,078	0,26
593,524	0,26
593,97	0,26
594,416	0,26
594,862	0,26
595,308	0,26
595,754	0,26
596,2	0,26
596,646	0,26
597,092	0,26
597,538	0,26
597,984	0,26
598,43	0,26
598,876	0,26
599,321	0,26
599,767	0,26
600,213	0,26
600,659	0,26
601,104	0,26
601,55	0,26
601,995	0,26
602,441	0,26
602,887	0,26
603,332	0,26
603,778	0,26
604,223	0,26
604,668	0,26
605,114	0,25
605,559	0,25
606,005	0,25
606,45	0,25
606,895	0,25
607,341	0,25
607,786	0,25
608,231	0,25
608,676	0,25
609,121	0,25
609,566	0,25
610,012	0,25
610,457	0,24
610,902	0,24
611,347	0,24
611,792	0,24
612,237	0,24
612,682	0,24
613,127	0,24
613,571	0,24
614,016	0,24
614,461	0,25
614,906	0,25
615,351	0,25
615,795	0,25
616,24	0,25
616,685	0,25
617,129	0,25
617,574	0,25
618,019	0,25
618,463	0,25
618,908	0,25
619,352	0,25
619,797	0,25
620,241	0,25
620,686	0,25
621,13	0,25
621,574	0,25
622,019	0,25
622,463	0,25
622,907	0,25
623,352	0,25
623,796	0,25
624,24	0,25
624,684	0,25
625,128	0,25
625,572	0,25
626,016	0,25
626,461	0,25
626,905	0,25
627,349	0,25
627,793	0,25
628,236	0,25
628,68	0,25
629,124	0,25
629,568	0,25
630,012	0,25
630,456	0,25
630,9	0,25
631,343	0,25
631,787	0,25
632,231	0,25
632,674	0,25
633,118	0,25
633,562	0,25
634,005	0,25
634,449	0,25
634,892	0,25
635,336	0,25
635,779	0,25
636,223	0,25
636,666	0,25
637,109	0,25
637,553	0,25
637,996	0,25
638,439	0,25
638,883	0,25
639,326	0,25
639,769	0,25
640,212	0,25
640,655	0,25
641,099	0,25
641,542	0,25
641,985	0,25
642,428	0,25
642,871	0,25
643,314	0,25
643,757	0,25
644,2	0,25
644,643	0,25
645,085	0,25
645,528	0,25
645,971	0,25
646,414	0,25
646,857	0,24
647,299	0,24
647,742	0,24
648,185	0,24
648,627	0,24
649,07	0,24
649,513	0,24
649,955	0,24
650,398	0,24
650,84	0,24
651,283	0,24
651,725	0,24
652,168	0,24
652,61	0,24
653,052	0,24
653,495	0,24
653,937	0,19
654,379	0,16
654,821	0,16
655,264	0,16
655,706	0,16
656,148	0,16
656,59	0,16
657,032	0,16
657,474	0,16
657,916	0,16
658,358	0,16
658,8	0,19
659,242	0,24
659,684	0,24
660,126	0,24
660,568	0,24
661,01	0,24
661,452	0,24
661,894	0,24
662,335	0,24
662,777	0,24
663,219	0,24
663,661	0,24
664,102	0,24
664,544	0,24
664,985	0,24
665,427	0,24
665,869	0,24
666,31	0,24
666,752	0,24
667,193	0,24
667,634	0,24
668,076	0,24
668,517	0,24
668,959	0,24
669,4	0,24
669,841	0,24
670,282	0,24
670,724	0,24
671,165	0,24
671,606	0,24
672,047	0,24
672,488	0,24
672,929	0,24
673,37	0,24
673,811	0,24
674,252	0,24
674,693	0,24
675,134	0,24
675,575	0,24
676,016	0,24
676,457	0,24
676,898	0,24
677,339	0,24
677,78	0,24
678,22	0,24
678,661	0,24
679,102	0,24
679,542	0,24
679,983	0,24
680,424	0,24
680,864	0,24
681,305	0,24
681,745	0,24
682,186	0,24
682,626	0,24
683,067	0,24
683,507	0,24
683,948	0,24
684,388	0,24
684,828	0,24
685,269	0,24
685,709	0,24
686,149	0,24
686,589	0,24
687,029	0,24
687,47	0,24
687,91	0,24
688,35	0,23
688,79	0,23
689,23	0,23
689,67	0,23
690,11	0,23
690,55	0,23
690,99	0,23
691,43	0,23
691,87	0,23
692,31	0,23
692,749	0,23
693,189	0,23
693,629	0,23
694,069	0,23
694,508	0,23
694,948	0,23
695,388	0,23
695,827	0,23
696,267	0,23
696,706	0,23
697,146	0,23
697,586	0,23
698,025	0,23
698,464	0,23
698,904	0,23
699,343	0,23
699,783	0,23
700,222	0,23
700,661	0,23
701,101	0,23
701,54	0,23
701,979	0,23
702,418	0,23
702,857	0,23
703,297	0,23
703,736	0,23
704,175	0,23
704,614	0,23
705,053	0,23
705,492	0,23
705,931	0,23
706,37	0,23
706,809	0,23
707,248	0,22
707,687	0,22
708,125	0,22
708,564	0,22
709,003	0,22
709,442	0,22
709,88	0,22
710,319	0,23
710,758	0,23
711,196	0,23
711,635	0,23
712,074	0,23
712,512	0,23
712,951	0,22
713,389	0,22
713,828	0,22
714,266	0,22
714,705	0,22
715,143	0,22
715,581	0,22
716,02	0,22
716,458	0,22
716,896	0,22
717,334	0,22
717,773	0,22
718,211	0,22
718,649	0,22
719,087	0,22
719,525	0,22
719,963	0,22
720,401	0,22
720,839	0,22
721,277	0,22
721,715	0,22
722,153	0,22
722,591	0,22
723,029	0,22
723,467	0,22
723,905	0,22
724,342	0,22
724,78	0,22
725,218	0,22
725,656	0,22
726,093	0,22
726,531	0,22
726,969	0,22
727,406	0,22
727,844	0,22
728,281	0,22
728,719	0,22
729,156	0,21
729,594	0,21
730,031	0,21
730,469	0,21
730,906	0,21
731,343	0,21
731,781	0,21
732,218	0,21
732,655	0,21
733,092	0,21
733,53	0,21
733,967	0,21
734,404	0,21
734,841	0,21
735,278	0,21
735,715	0,21
736,152	0,21
736,589	0,21
737,026	0,21
737,463	0,21
737,9	0,21
738,337	0,2
738,774	0,2
739,211	0,2
739,647	0,2
740,084	0,2
740,521	0,2
740,958	0,2
741,394	0,2
741,831	0,2
742,268	0,2
742,704	0,2
743,141	0,2
743,577	0,2
744,014	0,2
744,45	0,2
744,887	0,2
745,323	0,2
745,76	0,2
746,196	0,19
746,632	0,19
747,069	0,19
747,505	0,19
747,941	0,19
748,378	0,19
748,814	0,19
749,25	0,19
749,686	0,19
750,122	0,2
750,558	0,2
750,994	0,2
751,43	0,2
751,866	0,2
752,302	0,2
752,738	0,2
753,174	0,2
753,61	0,2
754,046	0,21
754,482	0,21
754,918	0,21
755,354	0,21
755,789	0,21
756,225	0,21
756,661	0,21
757,096	0,21
757,532	0,21
757,968	0,21
758,403	0,2
758,839	0,2
759,274	0,2
759,71	0,2
760,145	0,2
760,581	0,2
761,016	0,19
761,452	0,19
761,887	0,19
762,322	0,19
762,758	0,19
763,193	0,19
763,628	0,18
764,063	0,18
764,499	0,18
764,934	0,18
765,369	0,17
765,804	0,17
766,239	0,17
766,674	0,17
767,109	0,17
767,544	0,16
767,979	0,16
768,414	0,16
768,849	0,15
769,284	0,15
769,719	0,14
770,154	0,14
770,588	0,14
771,023	0,13
771,458	0,13
771,893	0,12
772,327	0,12
772,762	0,11
773,197	0,11
773,631	0,11
774,066	0,1
774,5	0,1
774,935	0,1
775,369	0,1
775,804	0,09
776,238	0,09
776,673	0,09
777,107	0,08
777,541	0,07
777,976	0,07
778,41	0,06
778,844	0,06
779,279	0,05
779,713	0,05
780,147	0,04
780,581	0,03
781,015	0,02
781,449	0,02
781,883	0,02
782,317	0,01
782,751	0
783,185	-0,01
783,619	-0,01
784,053	-0,02
784,487	-0,03
784,921	-0,04
785,355	-0,04
785,789	-0,05
786,223	-0,06
786,656	-0,08
787,09	-0,09
787,524	-0,1
787,957	-0,11
788,391	-0,13
788,825	-0,15
789,258	-0,17
789,692	-0,19
790,125	-0,22
790,559	-0,24
790,992	-0,27
791,426	-0,29
791,859	-0,31
792,293	-0,35
792,726	-0,37
793,159	-0,4
793,593	-0,43
794,026	-0,46
794,459	-0,5
794,892	-0,53
795,326	-0,57
795,759	-0,62
796,192	-0,67
796,625	-0,73
797,058	-0,77
797,491	-0,83
797,924	-0,87
798,357	-0,94
798,79	-0,99
799,223	-1,04
799,656	-1,11
800,089	-1,16
800,522	-1,21
800,955	-1,26
801,387	-1,32
801,82	-1,38
802,253	-1,46
802,686	-1,54
803,118	-1,61
803,551	-1,68
803,984	-1,81
804,416	-2,07
804,849	-2,41
805,281	-2,58
805,714	-2,73
806,146	-2,9
806,579	-3,04
807,011	-3,09
807,444	-3,09
807,876	-3,1
808,308	-3,12
808,741	-3,14
809,173	-3,17
809,605	-3,11
810,037	-3,09
810,47	-2,91
810,902	-2,61
811,334	-2,23
811,766	-1,94
812,198	-1,81
812,63	-1,72
813,062	-1,65
813,494	-1,58
813,926	-1,5
814,358	-1,46
814,79	-1,38
815,222	-1,33
815,654	-1,28
816,086	-1,22
816,518	-1,16
816,949	-1,11
817,381	-1,06
817,813	-1,04
818,245	-1
818,676	-0,95
819,108	-0,92
819,54	-0,9
819,971	-0,87
820,403	-0,81
820,834	-0,8
821,266	-0,75
821,697	-0,72
822,129	-0,7
822,56	-0,67
822,991	-0,64
823,423	-0,61
823,854	-0,6
824,286	-0,57
824,717	-0,56
825,148	-0,53
825,579	-0,52
826,01	-0,5
826,442	-0,49
826,873	-0,47
827,304	-0,42
827,735	-0,41
828,166	-0,41
828,597	-0,4
829,028	-0,38
829,459	-0,37
829,89	-0,37
830,321	-0,33
830,752	-0,32
831,183	-0,3
831,613	-0,28
832,044	-0,28
832,475	-0,27
832,906	-0,26
833,336	-0,26
833,767	-0,26
834,198	-0,25
834,628	-0,21
835,059	-0,23
835,49	-0,24
835,92	-0,22
836,351	-0,23
836,781	-0,24
837,212	-0,25
837,642	-0,24
838,072	-0,23
838,503	-0,24
838,933	-0,23
839,364	-0,24
839,794	-0,21
840,224	-0,2
840,654	-0,24
841,085	-0,25
841,515	-0,22
841,945	-0,22
842,375	-0,2
842,805	-0,18
843,235	-0,17
843,665	-0,18
844,095	-0,16
844,525	-0,2
844,955	-0,21
845,385	-0,18
845,815	-0,16
846,245	-0,17
846,675	-0,18
847,105	-0,17
847,534	-0,18
847,964	-0,16
848,394	-0,15
848,824	-0,19
849,253	-0,16
849,683	-0,16
850,112	-0,16
850,542	-0,2
850,972	-0,21
851,401	-0,18
851,831	-0,17
852,26	-0,18
852,69	-0,22
853,119	-0,2
853,548	-0,18
853,978	-0,2
854,407	-0,19
854,836	-0,19
855,266	-0,15
855,695	-0,15
856,124	-0,19
856,553	-0,19
856,983	-0,22
857,412	-0,21
857,841	-0,22
858,27	-0,21
858,699	-0,21
859,128	-0,26
859,557	-0,25
859,986	-0,27
860,415	-0,26
860,844	-0,22
861,273	-0,24
861,702	-0,25
862,13	-0,22
862,559	-0,25
862,988	-0,24
863,417	-0,21
863,845	-0,2
864,274	-0,21
864,703	-0,2
865,131	-0,2
865,56	-0,23
865,989	-0,23
866,417	-0,19
866,846	-0,19
867,274	-0,17
867,703	-0,18
868,131	-0,18
868,559	-0,18
868,988	-0,18
869,416	-0,19
869,844	-0,19
870,273	-0,19
870,701	-0,16
871,129	-0,19
871,557	-0,22
871,986	-0,23
872,414	-0,24
872,842	-0,24
873,27	-0,23
873,698	-0,19
874,126	-0,23
874,554	-0,22
874,982	-0,22
875,41	-0,25
875,838	-0,21
876,266	-0,18
876,694	-0,17
877,122	-0,14
877,549	-0,17
877,977	-0,14
878,405	-0,16
878,833	-0,13
879,26	-0,12
879,688	-0,13
880,116	-0,11
880,543	-0,11
880,971	-0,1
881,399	-0,13
881,826	-0,14
882,254	-0,14
882,681	-0,18
883,109	-0,15
883,536	-0,17
883,963	-0,17
884,391	-0,15
884,818	-0,13
885,245	-0,15
885,673	-0,17
886,1	-0,15
886,527	-0,17
886,954	-0,11
887,381	-0,13
887,809	-0,14
888,236	-0,14
888,663	-0,16
889,09	-0,18
889,517	-0,22
889,944	-0,22
890,371	-0,24
890,798	-0,26
891,225	-0,24
891,652	-0,3
892,078	-0,26
892,505	-0,3
892,932	-0,24
893,359	-0,25
893,786	-0,25
894,212	-0,21
894,639	-0,22
895,066	-0,22
895,492	-0,16
895,919	-0,17
896,346	-0,16
896,772	-0,16
897,199	-0,11
897,625	-0,15
898,052	-0,1
898,478	-0,08
898,904	-0,1
899,331	-0,1
899,757	-0,11
900,183	-0,13
900,61	-0,08
901,036	-0,1
901,462	-0,09
901,888	-0,1
902,315	-0,1
902,741	-0,16
903,167	-0,17
903,593	-0,2
904,019	-0,19
904,445	-0,17
904,871	-0,17
905,297	-0,22
905,723	-0,19
906,149	-0,19
906,575	-0,2
907,001	-0,2
907,427	-0,15
907,852	-0,14
908,278	-0,12
908,704	-0,1
909,13	-0,07
909,555	-0,07
909,981	-0,05
910,407	-0,07
910,832	-0,09
911,258	-0,09
911,684	-0,1
912,109	-0,13
912,535	-0,14
912,96	-0,11
913,386	-0,14
913,811	-0,16
914,236	-0,19
914,662	-0,17
915,087	-0,19
915,512	-0,17
915,938	-0,19
916,363	-0,16
916,788	-0,15
917,213	-0,15
917,639	-0,19
918,064	-0,18
918,489	-0,2
918,914	-0,18
919,339	-0,18
919,764	-0,15
920,189	-0,17
920,614	-0,2
921,039	-0,22
921,464	-0,19
921,889	-0,21
922,314	-0,21
922,738	-0,24
923,163	-0,22
923,588	-0,23
924,013	-0,25
924,437	-0,25
924,862	-0,25
925,287	-0,21
925,711	-0,19
926,136	-0,19
926,561	-0,17
926,985	-0,18
927,41	-0,14
927,834	-0,14
928,259	-0,11
928,683	-0,1
929,108	-0,1
929,532	-0,12
929,956	-0,12
930,381	-0,14
930,805	-0,16
931,229	-0,17
931,653	-0,15
932,078	-0,15
932,502	-0,17
932,926	-0,18
933,35	-0,18
933,774	-0,17
934,198	-0,14
934,622	-0,14
935,046	-0,13
935,47	-0,12
935,894	-0,1
936,318	-0,12
936,742	-0,1
937,166	-0,1
937,59	-0,1
938,014	-0,1
938,437	-0,12
938,861	-0,13
939,285	-0,13
939,709	-0,12
940,132	-0,12
940,556	-0,14
940,98	-0,14
941,403	-0,12
941,827	-0,14
942,25	-0,15
942,674	-0,15
943,097	-0,12
943,521	-0,11
943,944	-0,11
944,368	-0,11
944,791	-0,09
945,214	-0,11
945,638	-0,1
946,061	-0,13
946,484	-0,12
946,907	-0,11
947,331	-0,11
947,754	-0,16
948,177	-0,14
948,6	-0,15
949,023	-0,13
949,446	-0,14
949,869	-0,11
950,292	-0,1
950,715	-0,06
951,138	-0,05
951,561	-0,04
951,984	-0,06
952,407	-0,04
952,83	-0,03
953,252	0,03
953,675	0,02
954,098	0,02
954,521	0,03
954,943	0,02
955,366	-0,01
955,789	0,01
956,211	-0,01
956,634	0,01
957,056	0,03
957,479	0
957,902	-0,03
958,324	-0,05
958,746	-0,05
959,169	-0,07
959,591	-0,06
960,014	-0,07
960,436	-0,07
960,858	-0,07
961,281	-0,07
961,703	-0,09
962,125	-0,08
962,547	-0,07
962,969	-0,08
963,391	-0,08
963,814	-0,08
964,236	-0,08
964,658	-0,05
965,08	-0,04
965,502	-0,04
965,924	-0,03
966,346	-0,03
966,768	-0,03
967,189	-0,05
967,611	-0,04
968,033	-0,03
968,455	-0,02
968,877	-0,04
969,298	-0,07
969,72	-0,09
970,142	-0,08
970,563	-0,09
970,985	-0,09
971,407	-0,07
971,828	-0,05
972,25	-0,04
972,671	-0,04
973,093	-0,04
973,514	-0,04
973,936	-0,03
974,357	-0,02
974,778	-0,01
975,2	-0
975,621	0
976,042	0
976,464	-0,01
976,885	-0
977,306	-0
977,727	0
978,148	0,02
978,57	0,02
978,991	0,04
979,412	0,04
979,833	0,04
980,254	0,05
980,675	0,04
981,096	0,06
981,517	0,07
981,937	0,08
982,358	0,08
982,779	0,08
983,2	0,08
983,621	0,07
984,042	0,08
984,462	0,08
984,883	0,08
985,304	0,08
985,724	0,08
986,145	0,08
986,565	0,08
986,986	0,08
987,407	0,08
987,827	0,09
988,248	0,1
988,668	0,09
989,088	0,09
989,509	0,1
989,929	0,1
990,35	0,1
990,77	0,1
991,19	0,1
991,61	0,11
992,031	0,11
992,451	0,11
992,871	0,11
993,291	0,11
993,711	0,12
994,131	0,12
994,551	0,12
994,971	0,12
995,391	0,12
995,811	0,12
996,231	0,12
996,651	0,12
997,071	0,12
997,491	0,12
997,911	0,12
998,331	0,12
998,75	0,12
999,17	0,12
999,59	0,13
1000,009	0,13
1000,429	0,13
1000,849	0,13
1001,268	0,13
1001,688	0,13
1002,107	0,13
1002,527	0,13
1002,946	0,13
1003,366	0,13
1003,785	0,13
1004,205	0,13
1004,624	0,13
1005,044	0,13
1005,463	0,13
1005,882	0,13
1006,301	0,13
1006,721	0,13
1007,14	0,13
1007,559	0,13
1007,978	0,13
1008,397	0,13
1008,816	0,13
1009,235	0,13
1009,655	0,13
1010,074	0,13
1010,492	0,13
1010,911	0,13
1011,33	0,13
1011,749	0,13
1012,168	0,13
1012,587	0,12
1013,006	0,12
1013,425	0,12
1013,843	0,12
1014,262	0,12
1014,681	0,12
1015,099	0,12
1015,518	0,12
1015,937	0,12
1016,355	0,12
1016,774	0,12
1017,192	0,12
1017,611	0,12
1018,029	0,12
1018,448	0,12
1018,866	0,12
1019,285	0,12
1019,703	0,12
1020,121	0,12
1020,54	0,13
1020,958	0,13
1021,376	0,13
1021,794	0,13
1022,213	0,13
1022,631	0,13
1023,049	0,13
1023,467	0,13
1023,885	0,13
1024,303	0,13
1024,721	0,12
1025,139	0,12
1025,557	0,12
1025,975	0,12
1026,393	0,12
1026,811	0,12
1027,229	0,12
1027,647	0,12
1028,065	0,12
1028,482	0,12
1028,9	0,12
1029,318	0,12
1029,735	0,12
1030,153	0,12
1030,571	0,12
1030,988	0,12
1031,406	0,12
1031,823	0,12
1032,241	0,12
1032,659	0,12
1033,076	0,12
1033,493	0,12
1033,911	0,12
1034,328	0,12
1034,746	0,12
1035,163	0,12
1035,58	0,12
1035,997	0,12
1036,415	0,12
1036,832	0,12
1037,249	0,12
1037,666	0,12
1038,083	0,12
1038,501	0,12
1038,918	0,12
1039,335	0,12
1039,752	0,12
1040,169	0,12
1040,586	0,12
1041,003	0,12
1041,419	0,12
1041,836	0,12
1042,253	0,12
1042,67	0,12
1043,087	0,12
1043,504	0,12
1043,92	0,12
1044,337	0,12
1044,754	0,12
1045,17	0,12
1045,587	0,12
1046,004	0,12
1046,42	0,12
1046,837	0,12
1047,253	0,12
1047,67	0,12
1048,086	0,12
1048,503	0,12
1048,919	0,12
1049,335	0,12
1049,752	0,12
1050,168	0,12
1050,584	0,12
1051,001	0,12
1051,417	0,12
1051,833	0,12
1052,249	0,12
1052,665	0,12
1053,081	0,12
1053,497	0,12
1053,914	0,12
1054,33	0,12
1054,746	0,12
1055,162	0,12
1055,578	0,12
1055,993	0,12
1056,409	0,12
1056,825	0,12
1057,241	0,12
1057,657	0,12
1058,073	0,12
1058,488	0,12
1058,904	0,12
1059,32	0,12
1059,736	0,12
1060,151	0,12
1060,567	0,12
1060,982	0,11
1061,398	0,11
1061,813	0,11
1062,229	0,11
1062,644	0,11
1063,06	0,11
1063,475	0,11
1063,891	0,11
1064,306	0,11
1064,721	0,11
1065,137	0,11
1065,552	0,11
1065,967	0,11
1066,382	0,11
1066,798	0,11
1067,213	0,11
1067,628	0,11
1068,043	0,11
1068,458	0,11
1068,873	0,11
1069,288	0,11
1069,703	0,11
1070,118	0,11
1070,533	0,11
1070,948	0,11
1071,363	0,12
1071,778	0,12
1072,193	0,12
1072,607	0,12
1073,022	0,12
1073,437	0,12
1073,852	0,12
1074,266	0,12
1074,681	0,12
1075,096	0,12
1075,51	0,12
1075,925	0,12
1076,339	0,11
1076,754	0,11
1077,168	0,11
1077,583	0,11
1077,997	0,11
1078,412	0,11
1078,826	0,11
1079,24	0,11
1079,655	0,11
1080,069	0,11
1080,483	0,11
1080,897	0,11
1081,312	0,11
1081,726	0,11
1082,14	0,11
1082,554	0,11
1082,968	0,11
1083,382	0,11
1083,796	0,11
1084,21	0,11
1084,624	0,11
1085,038	0,11
1085,452	0,11
1085,866	0,11
1086,28	0,11
1086,694	0,11
1087,108	0,11
1087,521	0,11
1087,935	0,11
1088,349	0,11
1088,763	0,11
1089,176	0,1
1089,59	0,1
1090,004	0,1
1090,417	0,1
1090,831	0,1
1091,244	0,1
1091,658	0,1
1092,071	0,1
1092,485	0,1
1092,898	0,1
1093,312	0,1
1093,725	0,1
1094,138	0,1
1094,552	0,1
1094,965	0,1
1095,378	0,1
1095,791	0,1
1096,205	0,1
1096,618	0,1
1097,031	0,1
1097,444	0,1
1097,857	0,1
1098,27	0,1
1098,683	0,1
1099,096	0,1
1099,509	0,1
1099,922	0,09
1100,335	0,09
1100,748	0,09
1101,161	0,09
1101,574	0,09
1101,986	0,09
1102,399	0,09
1102,812	0,09
1103,225	0,09
1103,637	0,09
1104,05	0,09
1104,463	0,09
1104,875	0,09
1105,288	0,09
1105,7	0,08
1106,113	0,09
1106,525	0,09
1106,938	0,09
1107,35	0,08
1107,763	0,08
1108,175	0,08
1108,588	0,07
1109	0,07
1109,412	0,07
1109,824	0,07
1110,237	0,08
1110,649	0,07
1111,061	0,06
