Data from reversibility-20sec_Absorbance__4738__000000000004738.txt Node

Date: Wed Dec 06 14:32:27 CET 2023
User: Marek
Spectrometer: MAYP115816
Trigger mode: 0
Integration Time (sec): 2.000000E-1
Scans to average: 10
Electric dark correction enabled: true
Nonlinearity correction enabled: true
Boxcar width: 5
XAxis mode: Wavelengths
Number of Pixels in Spectrum: 2068
>>>>>Begin Spectral Data<<<<<
199	-0.184
199	-0.154
200	-0.088
200	-0.032
201	-0.002
201	0.017
202	0.032
202	0.042
203	0.051
203	0.056
204	0.07
204	0.086
205	0.101
205	0.109
205	0.108
206	0.108
206	0.109
207	0.108
207	0.108
208	0.106
208	0.106
209	0.109
209	0.106
210	0.105
210	0.106
211	0.107
211	0.11
212	0.109
212	0.112
213	0.115
213	0.117
213	0.115
214	0.118
214	0.12
215	0.121
215	0.12
216	0.12
216	0.117
217	0.118
217	0.119
218	0.118
218	0.123
219	0.127
219	0.126
220	0.129
220	0.129
221	0.13
221	0.134
221	0.14
222	0.145
222	0.151
223	0.155
223	0.157
224	0.16
224	0.169
225	0.175
225	0.187
226	0.194
226	0.205
227	0.214
227	0.225
228	0.239
228	0.252
229	0.266
229	0.29
229	0.313
230	0.34
230	0.367
231	0.4
231	0.437
232	0.475
232	0.518
233	0.559
233	0.609
234	0.661
234	0.716
235	0.767
235	0.818
236	0.869
236	0.922
236	0.973
237	1.025
237	1.075
238	1.122
238	1.169
239	1.217
239	1.255
240	1.293
240	1.33
241	1.366
241	1.399
242	1.431
242	1.464
243	1.494
243	1.518
243	1.545
244	1.566
244	1.589
245	1.609
245	1.631
246	1.651
246	1.668
247	1.681
247	1.695
248	1.709
248	1.724
249	1.734
249	1.742
250	1.75
250	1.758
250	1.761
251	1.762
251	1.765
252	1.771
252	1.769
253	1.769
253	1.767
254	1.764
254	1.764
255	1.762
255	1.761
256	1.759
256	1.759
257	1.757
257	1.755
258	1.754
258	1.755
258	1.754
259	1.755
259	1.755
260	1.757
260	1.759
261	1.759
261	1.763
262	1.766
262	1.766
263	1.77
263	1.77
264	1.771
264	1.772
265	1.774
265	1.773
265	1.775
266	1.776
266	1.775
267	1.774
267	1.776
268	1.777
268	1.779
269	1.781
269	1.782
270	1.781
270	1.78
271	1.776
271	1.776
272	1.774
272	1.771
272	1.767
273	1.759
273	1.752
274	1.744
274	1.738
275	1.73
275	1.723
276	1.716
276	1.709
277	1.7
277	1.691
278	1.679
278	1.667
278	1.652
279	1.635
279	1.612
280	1.585
280	1.55
281	1.511
281	1.468
282	1.423
282	1.378
283	1.334
283	1.292
284	1.251
284	1.212
285	1.176
285	1.143
285	1.114
286	1.089
286	1.067
287	1.048
287	1.032
288	1.018
288	1.007
289	0.997
289	0.989
290	0.982
290	0.975
291	0.97
291	0.965
292	0.961
292	0.957
292	0.953
293	0.95
293	0.947
294	0.943
294	0.941
295	0.938
295	0.935
296	0.932
296	0.93
297	0.927
297	0.925
298	0.923
298	0.921
298	0.918
299	0.915
299	0.913
300	0.91
300	0.908
301	0.906
301	0.903
302	0.901
302	0.899
303	0.897
303	0.895
304	0.893
304	0.891
305	0.889
305	0.887
305	0.884
306	0.883
306	0.88
307	0.878
307	0.876
308	0.873
308	0.871
309	0.868
309	0.865
310	0.863
310	0.86
311	0.857
311	0.854
311	0.851
312	0.848
312	0.845
313	0.841
313	0.838
314	0.835
314	0.831
315	0.827
315	0.823
316	0.819
316	0.814
317	0.81
317	0.805
318	0.801
318	0.796
318	0.791
319	0.786
319	0.78
320	0.775
320	0.769
321	0.763
321	0.757
322	0.752
322	0.746
323	0.74
323	0.733
324	0.727
324	0.721
324	0.714
325	0.708
325	0.701
326	0.694
326	0.688
327	0.681
327	0.674
328	0.667
328	0.66
329	0.653
329	0.646
330	0.639
330	0.632
330	0.625
331	0.618
331	0.611
332	0.604
332	0.598
333	0.591
333	0.584
334	0.577
334	0.571
335	0.564
335	0.558
336	0.551
336	0.545
336	0.538
337	0.532
337	0.526
338	0.52
338	0.514
339	0.508
339	0.502
340	0.497
340	0.491
341	0.486
341	0.48
342	0.475
342	0.47
342	0.464
343	0.459
343	0.454
344	0.45
344	0.445
345	0.44
345	0.436
346	0.431
346	0.427
347	0.423
347	0.419
348	0.415
348	0.411
348	0.407
349	0.403
349	0.4
350	0.396
350	0.393
351	0.389
351	0.386
352	0.383
352	0.38
353	0.377
353	0.374
354	0.371
354	0.369
354	0.366
355	0.363
355	0.36
356	0.357
356	0.355
357	0.351
357	0.349
358	0.346
358	0.344
359	0.342
359	0.34
360	0.338
360	0.336
360	0.334
361	0.333
361	0.331
362	0.33
362	0.328
363	0.326
363	0.324
364	0.322
364	0.32
365	0.319
365	0.317
366	0.315
366	0.313
366	0.312
367	0.31
367	0.309
368	0.307
368	0.306
369	0.304
369	0.303
370	0.302
370	0.301
371	0.299
371	0.298
372	0.297
372	0.296
372	0.295
373	0.294
373	0.293
374	0.292
374	0.291
375	0.29
375	0.29
376	0.289
376	0.288
377	0.287
377	0.286
378	0.286
378	0.285
378	0.284
379	0.283
379	0.283
380	0.282
380	0.281
381	0.28
381	0.28
382	0.279
382	0.279
383	0.278
383	0.277
383	0.277
384	0.276
384	0.276
385	0.275
385	0.275
386	0.274
386	0.274
387	0.274
387	0.273
388	0.273
388	0.273
389	0.272
389	0.272
389	0.272
390	0.272
390	0.271
391	0.271
391	0.271
392	0.27
392	0.27
393	0.27
393	0.269
394	0.269
394	0.269
394	0.268
395	0.268
395	0.267
396	0.267
396	0.267
397	0.266
397	0.266
398	0.266
398	0.265
399	0.265
399	0.265
400	0.265
400	0.265
400	0.264
401	0.264
401	0.264
402	0.264
402	0.264
403	0.264
403	0.264
404	0.263
404	0.263
405	0.263
405	0.263
405	0.262
406	0.262
406	0.262
407	0.261
407	0.261
408	0.261
408	0.26
409	0.26
409	0.26
410	0.259
410	0.259
411	0.259
411	0.259
411	0.259
412	0.259
412	0.258
413	0.258
413	0.258
414	0.258
414	0.258
415	0.257
415	0.257
416	0.257
416	0.256
416	0.256
417	0.256
417	0.255
418	0.255
418	0.255
419	0.254
419	0.254
420	0.253
420	0.253
421	0.252
421	0.252
421	0.252
422	0.252
422	0.251
423	0.251
423	0.251
424	0.25
424	0.25
425	0.25
425	0.25
426	0.249
426	0.249
427	0.249
427	0.248
427	0.248
428	0.248
428	0.247
429	0.247
429	0.246
430	0.246
430	0.246
431	0.246
431	0.246
432	0.245
432	0.245
432	0.245
433	0.244
433	0.244
434	0.244
434	0.244
435	0.244
435	0.244
436	0.244
436	0.243
437	0.243
437	0.243
437	0.243
438	0.243
438	0.243
439	0.243
439	0.242
440	0.242
440	0.242
441	0.242
441	0.241
442	0.241
442	0.241
442	0.241
443	0.24
443	0.24
444	0.24
444	0.239
445	0.239
445	0.239
446	0.239
446	0.238
447	0.238
447	0.238
447	0.238
448	0.238
448	0.237
449	0.237
449	0.237
450	0.237
450	0.237
451	0.237
451	0.236
452	0.236
452	0.236
452	0.236
453	0.236
453	0.236
454	0.236
454	0.236
455	0.235
455	0.235
456	0.235
456	0.234
457	0.234
457	0.234
458	0.233
458	0.233
458	0.233
459	0.232
459	0.232
460	0.232
460	0.232
461	0.232
461	0.232
462	0.231
462	0.231
463	0.231
463	0.231
463	0.231
464	0.231
464	0.23
465	0.23
465	0.23
466	0.229
466	0.229
467	0.229
467	0.229
467	0.228
468	0.228
468	0.228
469	0.228
469	0.228
470	0.228
470	0.228
471	0.228
471	0.228
472	0.228
472	0.228
472	0.227
473	0.228
473	0.227
474	0.227
474	0.227
475	0.227
475	0.227
476	0.227
476	0.227
477	0.227
477	0.227
477	0.227
478	0.227
478	0.227
479	0.227
479	0.227
480	0.227
480	0.227
481	0.227
481	0.227
482	0.227
482	0.227
482	0.227
483	0.227
483	0.227
484	0.227
484	0.227
485	0.226
485	0.226
486	0.226
486	0.226
487	0.227
487	0.227
487	0.227
488	0.227
488	0.227
489	0.228
489	0.229
490	0.229
490	0.229
491	0.23
491	0.23
492	0.23
492	0.231
492	0.231
493	0.231
493	0.231
494	0.232
494	0.232
495	0.232
495	0.232
496	0.233
496	0.233
496	0.234
497	0.234
497	0.234
498	0.234
498	0.235
499	0.235
499	0.236
500	0.236
500	0.237
501	0.237
501	0.238
501	0.238
502	0.238
502	0.238
503	0.238
503	0.239
504	0.239
504	0.239
505	0.24
505	0.24
506	0.24
506	0.24
506	0.241
507	0.241
507	0.242
508	0.242
508	0.242
509	0.243
509	0.243
510	0.244
510	0.244
511	0.245
511	0.245
511	0.246
512	0.246
512	0.247
513	0.247
513	0.247
514	0.247
514	0.248
515	0.248
515	0.248
515	0.248
516	0.249
516	0.249
517	0.25
517	0.25
518	0.25
518	0.25
519	0.251
519	0.251
520	0.251
520	0.251
520	0.251
521	0.252
521	0.252
522	0.252
522	0.252
523	0.253
523	0.253
524	0.254
524	0.254
524	0.255
525	0.255
525	0.255
526	0.255
526	0.255
527	0.256
527	0.256
528	0.256
528	0.256
529	0.256
529	0.256
529	0.256
530	0.256
530	0.256
531	0.256
531	0.256
532	0.256
532	0.256
533	0.256
533	0.256
533	0.256
534	0.256
534	0.256
535	0.256
535	0.257
536	0.257
536	0.257
537	0.257
537	0.257
538	0.257
538	0.257
538	0.256
539	0.256
539	0.256
540	0.256
540	0.256
541	0.255
541	0.255
542	0.255
542	0.255
542	0.255
543	0.255
543	0.255
544	0.255
544	0.254
545	0.254
545	0.254
546	0.254
546	0.254
547	0.253
547	0.253
547	0.252
548	0.252
548	0.252
549	0.252
549	0.252
550	0.252
550	0.251
551	0.251
551	0.25
551	0.25
552	0.25
552	0.249
553	0.249
553	0.248
554	0.248
554	0.248
555	0.247
555	0.247
556	0.246
556	0.246
556	0.246
557	0.246
557	0.246
558	0.247
558	0.247
559	0.247
559	0.247
560	0.246
560	0.246
560	0.246
561	0.246
561	0.246
562	0.246
562	0.245
563	0.244
563	0.243
564	0.243
564	0.243
564	0.242
565	0.242
565	0.242
566	0.242
566	0.241
567	0.241
567	0.241
568	0.241
568	0.241
568	0.241
569	0.241
569	0.24
570	0.24
570	0.239
571	0.239
571	0.238
572	0.238
572	0.237
573	0.237
573	0.237
573	0.236
574	0.235
574	0.235
575	0.235
575	0.235
576	0.235
576	0.234
577	0.234
577	0.234
577	0.233
578	0.233
578	0.233
579	0.233
579	0.233
580	0.233
580	0.232
581	0.231
581	0.231
581	0.231
582	0.231
582	0.232
583	0.232
583	0.232
584	0.231
584	0.231
585	0.231
585	0.231
585	0.231
586	0.23
586	0.23
587	0.229
587	0.228
588	0.227
588	0.226
589	0.226
589	0.226
590	0.226
590	0.225
590	0.226
591	0.226
591	0.225
592	0.225
592	0.224
593	0.224
593	0.224
594	0.224
594	0.223
594	0.223
595	0.223
595	0.222
596	0.222
596	0.222
597	0.223
597	0.223
598	0.222
598	0.222
598	0.222
599	0.222
599	0.221
600	0.221
600	0.22
601	0.22
601	0.22
602	0.219
602	0.219
602	0.219
603	0.218
603	0.219
604	0.219
604	0.219
605	0.219
605	0.219
606	0.219
606	0.218
606	0.218
607	0.218
607	0.218
608	0.217
608	0.217
609	0.216
609	0.216
610	0.216
610	0.215
610	0.215
611	0.215
611	0.215
612	0.216
612	0.216
613	0.216
613	0.216
614	0.216
614	0.216
614	0.216
615	0.216
615	0.215
616	0.215
616	0.215
617	0.214
617	0.214
618	0.213
618	0.213
618	0.213
619	0.213
619	0.213
620	0.213
620	0.213
621	0.213
621	0.213
622	0.212
622	0.212
622	0.212
623	0.212
623	0.212
624	0.211
624	0.211
625	0.211
625	0.211
626	0.21
626	0.21
626	0.21
627	0.209
627	0.209
628	0.208
628	0.208
629	0.208
629	0.207
630	0.207
630	0.206
630	0.207
631	0.207
631	0.207
632	0.206
632	0.206
633	0.207
633	0.207
634	0.207
634	0.207
634	0.207
635	0.207
635	0.207
636	0.207
636	0.207
637	0.207
637	0.207
638	0.207
638	0.206
638	0.206
639	0.206
639	0.206
640	0.206
640	0.206
641	0.205
641	0.205
642	0.205
642	0.205
642	0.205
643	0.205
643	0.205
644	0.205
644	0.206
645	0.206
645	0.206
646	0.206
646	0.207
646	0.207
647	0.207
647	0.207
648	0.207
648	0.206
649	0.206
649	0.206
650	0.206
650	0.206
650	0.205
651	0.205
651	0.204
652	0.204
652	0.204
653	0.204
653	0.206
653	0.213
654	0.166
654	0.132
655	0.133
655	0.134
656	0.134
656	0.135
657	0.135
657	0.136
657	0.136
658	0.134
658	0.123
659	0.156
659	0.201
660	0.205
660	0.205
661	0.205
661	0.205
661	0.204
662	0.204
662	0.204
663	0.204
663	0.204
664	0.204
664	0.204
665	0.204
665	0.204
665	0.204
666	0.205
666	0.205
667	0.205
667	0.205
668	0.205
668	0.205
669	0.205
669	0.206
669	0.206
670	0.206
670	0.206
671	0.206
671	0.206
672	0.206
672	0.206
672	0.205
673	0.205
673	0.204
674	0.204
674	0.203
675	0.202
675	0.202
676	0.202
676	0.202
676	0.202
677	0.202
677	0.202
678	0.202
678	0.202
679	0.202
679	0.202
680	0.202
680	0.202
680	0.202
681	0.202
681	0.203
682	0.203
682	0.203
683	0.204
683	0.204
684	0.205
684	0.204
684	0.204
685	0.205
685	0.205
686	0.205
686	0.205
687	0.205
687	0.205
687	0.205
688	0.204
688	0.204
689	0.204
689	0.205
690	0.204
690	0.204
691	0.204
691	0.204
691	0.204
692	0.204
692	0.204
693	0.204
693	0.204
694	0.204
694	0.204
695	0.205
695	0.206
695	0.206
696	0.206
696	0.206
697	0.206
697	0.206
698	0.206
698	0.205
698	0.206
699	0.207
699	0.207
700	0.206
700	0.207
701	0.208
701	0.208
702	0.208
702	0.208
702	0.208
703	0.208
703	0.207
704	0.207
704	0.206
705	0.206
705	0.206
705	0.205
706	0.205
706	0.206
707	0.206
707	0.206
708	0.207
708	0.208
709	0.208
709	0.208
709	0.208
710	0.209
710	0.209
711	0.21
711	0.21
712	0.21
712	0.211
713	0.211
713	0.211
713	0.212
714	0.212
714	0.212
715	0.212
715	0.212
716	0.211
716	0.211
716	0.21
717	0.21
717	0.209
718	0.209
718	0.208
719	0.208
719	0.208
720	0.209
720	0.209
720	0.21
721	0.21
721	0.211
722	0.212
722	0.212
723	0.212
723	0.213
723	0.213
724	0.213
724	0.212
725	0.211
725	0.211
726	0.21
726	0.21
727	0.21
727	0.209
727	0.209
728	0.209
728	0.209
729	0.21
729	0.21
730	0.21
730	0.211
730	0.212
731	0.212
731	0.212
732	0.213
732	0.213
733	0.213
733	0.213
734	0.213
734	0.214
734	0.214
735	0.214
735	0.214
736	0.214
736	0.214
737	0.215
737	0.215
737	0.215
738	0.215
738	0.214
739	0.214
739	0.214
740	0.214
740	0.213
741	0.213
741	0.213
741	0.212
742	0.212
742	0.212
743	0.212
743	0.212
744	0.212
744	0.213
744	0.213
745	0.213
745	0.213
746	0.214
746	0.214
747	0.215
747	0.215
748	0.215
748	0.216
748	0.215
749	0.215
749	0.215
750	0.215
750	0.215
751	0.214
751	0.214
751	0.214
752	0.214
752	0.213
753	0.213
753	0.213
754	0.213
754	0.212
754	0.213
755	0.213
755	0.213
756	0.212
756	0.212
757	0.211
757	0.211
758	0.211
758	0.211
758	0.211
759	0.212
759	0.211
760	0.212
760	0.212
761	0.212
761	0.214
761	0.215
762	0.215
762	0.216
763	0.217
763	0.217
764	0.217
764	0.217
764	0.217
765	0.216
765	0.216
766	0.215
766	0.215
767	0.214
767	0.214
768	0.213
768	0.213
768	0.214
769	0.214
769	0.215
770	0.216
770	0.217
771	0.217
771	0.218
771	0.218
772	0.219
772	0.219
773	0.219
773	0.22
774	0.22
774	0.22
775	0.22
775	0.22
775	0.22
776	0.22
776	0.22
777	0.221
777	0.221
778	0.221
778	0.22
778	0.22
779	0.22
779	0.22
780	0.219
780	0.218
781	0.218
781	0.218
781	0.218
782	0.218
782	0.218
783	0.218
783	0.219
784	0.219
784	0.22
784	0.221
785	0.221
785	0.222
786	0.222
786	0.223
787	0.223
787	0.223
788	0.222
788	0.222
788	0.221
789	0.22
789	0.22
790	0.219
790	0.218
791	0.218
791	0.217
791	0.217
792	0.218
792	0.218
793	0.218
793	0.219
794	0.219
794	0.219
794	0.219
795	0.22
795	0.221
796	0.221
796	0.221
797	0.221
797	0.221
797	0.221
798	0.221
798	0.221
799	0.22
799	0.22
800	0.22
800	0.219
801	0.219
801	0.219
801	0.219
802	0.219
802	0.219
803	0.219
803	0.22
804	0.221
804	0.222
804	0.222
805	0.223
805	0.223
806	0.223
806	0.223
807	0.223
807	0.223
807	0.223
808	0.223
808	0.223
809	0.223
809	0.224
810	0.224
810	0.224
810	0.225
811	0.225
811	0.226
812	0.227
812	0.227
813	0.228
813	0.228
813	0.229
814	0.229
814	0.23
815	0.23
815	0.231
816	0.231
816	0.23
817	0.23
817	0.23
817	0.229
818	0.229
818	0.229
819	0.229
819	0.228
820	0.228
820	0.228
820	0.228
821	0.228
821	0.228
822	0.228
822	0.228
823	0.228
823	0.228
823	0.228
824	0.228
824	0.228
825	0.229
825	0.229
826	0.229
826	0.229
826	0.229
827	0.229
827	0.229
828	0.23
828	0.23
829	0.23
829	0.23
829	0.23
830	0.23
830	0.23
831	0.232
831	0.232
832	0.232
832	0.233
832	0.233
833	0.233
833	0.233
834	0.233
834	0.232
835	0.232
835	0.232
835	0.232
836	0.232
836	0.232
837	0.232
837	0.231
838	0.231
838	0.231
839	0.23
839	0.23
839	0.229
840	0.228
840	0.227
841	0.225
841	0.224
842	0.224
842	0.223
842	0.222
843	0.222
843	0.221
844	0.221
844	0.22
845	0.22
845	0.22
845	0.219
846	0.219
846	0.219
847	0.219
847	0.219
848	0.22
848	0.22
848	0.221
849	0.222
849	0.223
850	0.224
850	0.225
851	0.225
851	0.226
851	0.227
852	0.226
852	0.226
853	0.226
853	0.225
854	0.224
854	0.224
854	0.224
855	0.225
855	0.225
856	0.225
856	0.225
857	0.225
857	0.226
857	0.226
858	0.226
858	0.226
859	0.226
859	0.225
860	0.225
860	0.224
860	0.224
861	0.223
861	0.223
862	0.223
862	0.222
863	0.222
863	0.223
863	0.223
864	0.224
864	0.224
865	0.225
865	0.225
866	0.225
866	0.225
866	0.225
867	0.225
867	0.226
868	0.226
868	0.226
869	0.226
869	0.227
869	0.227
870	0.227
870	0.227
871	0.228
871	0.229
872	0.229
872	0.229
872	0.229
873	0.229
873	0.228
874	0.227
874	0.226
875	0.226
875	0.225
875	0.225
876	0.224
876	0.224
877	0.223
877	0.223
878	0.223
878	0.224
878	0.224
879	0.224
879	0.224
880	0.224
880	0.223
881	0.223
881	0.223
881	0.222
882	0.222
882	0.222
883	0.221
883	0.221
884	0.221
884	0.221
884	0.221
885	0.221
885	0.221
886	0.22
886	0.22
887	0.22
887	0.22
887	0.219
888	0.219
888	0.218
889	0.218
889	0.218
890	0.218
890	0.219
890	0.219
891	0.219
891	0.22
892	0.221
892	0.221
893	0.222
893	0.223
893	0.223
894	0.224
894	0.224
895	0.225
895	0.225
895	0.225
896	0.225
896	0.225
897	0.224
897	0.224
898	0.223
898	0.223
898	0.222
899	0.221
899	0.221
900	0.22
900	0.219
901	0.218
901	0.218
901	0.217
902	0.217
902	0.216
903	0.216
903	0.215
904	0.215
904	0.215
904	0.215
905	0.214
905	0.214
906	0.214
906	0.213
907	0.213
907	0.213
907	0.213
908	0.213
908	0.212
909	0.212
909	0.211
910	0.211
910	0.211
910	0.211
911	0.21
911	0.21
912	0.21
912	0.209
913	0.209
913	0.209
913	0.209
914	0.208
914	0.208
915	0.208
915	0.207
916	0.207
916	0.207
916	0.206
917	0.206
917	0.206
918	0.205
918	0.205
918	0.205
919	0.205
919	0.205
920	0.205
920	0.204
921	0.204
921	0.204
921	0.203
922	0.203
922	0.203
923	0.202
923	0.202
924	0.202
924	0.202
924	0.201
925	0.201
925	0.201
926	0.201
926	0.201
927	0.2
927	0.2
927	0.2
928	0.199
928	0.198
929	0.198
929	0.197
930	0.196
930	0.196
930	0.195
931	0.194
931	0.194
932	0.193
932	0.192
933	0.192
933	0.191
933	0.191
934	0.19
934	0.19
935	0.189
935	0.189
935	0.188
936	0.188
936	0.188
937	0.188
937	0.188
938	0.189
938	0.189
938	0.189
939	0.189
939	0.189
940	0.189
940	0.19
941	0.19
941	0.191
941	0.191
942	0.191
942	0.191
943	0.191
943	0.191
944	0.19
944	0.19
944	0.19
945	0.19
945	0.189
946	0.189
946	0.189
946	0.189
947	0.189
947	0.189
948	0.19
948	0.189
949	0.189
949	0.189
949	0.188
950	0.187
950	0.187
951	0.186
951	0.185
952	0.184
952	0.183
952	0.182
953	0.181
953	0.181
954	0.181
954	0.18
955	0.18
955	0.18
955	0.18
956	0.181
956	0.181
957	0.182
957	0.182
957	0.182
958	0.182
958	0.182
959	0.182
959	0.182
960	0.182
960	0.182
960	0.182
961	0.181
961	0.181
962	0.181
962	0.18
963	0.18
963	0.18
963	0.18
964	0.18
964	0.179
965	0.179
965	0.179
966	0.179
966	0.178
966	0.178
967	0.178
967	0.178
968	0.177
968	0.177
968	0.177
969	0.176
969	0.176
970	0.175
970	0.175
971	0.174
971	0.174
971	0.173
972	0.173
972	0.172
973	0.172
973	0.171
974	0.171
974	0.171
974	0.171
975	0.171
975	0.17
976	0.17
976	0.17
976	0.17
977	0.17
977	0.169
978	0.169
978	0.168
979	0.168
979	0.167
979	0.167
980	0.166
980	0.166
981	0.165
981	0.165
982	0.164
982	0.164
982	0.164
983	0.163
983	0.163
984	0.162
984	0.162
984	0.161
985	0.161
985	0.161
986	0.16
986	0.16
987	0.159
987	0.159
987	0.159
988	0.158
988	0.158
989	0.158
989	0.158
990	0.157
990	0.157
990	0.156
991	0.155
991	0.155
992	0.154
992	0.153
992	0.152
993	0.151
993	0.15
994	0.149
994	0.148
995	0.147
995	0.147
995	0.146
996	0.146
996	0.146
997	0.146
997	0.146
997	0.146
998	0.146
998	0.147
999	0.147
999	0.148
1000	0.148
1000	0.149
1000	0.149
1001	0.149
1001	0.149
1002	0.149
1002	0.149
1003	0.148
1003	0.148
1003	0.147
1004	0.146
1004	0.145
1005	0.145
1005	0.144
1005	0.143
1006	0.142
1006	0.142
1007	0.141
1007	0.141
1008	0.141
1008	0.141
1008	0.141
1009	0.142
1009	0.142
1010	0.142
1010	0.143
1010	0.143
1011	0.143
1011	0.143
1012	0.143
1012	0.143
1013	0.143
1013	0.143
1013	0.142
1014	0.142
1014	0.142
1015	0.142
1015	0.143
1016	0.143
1016	0.142
1016	0.142
1017	0.142
1017	0.142
1018	0.142
1018	0.142
1018	0.141
1019	0.141
1019	0.141
1020	0.14
1020	0.139
1021	0.139
1021	0.139
1021	0.138
1022	0.138
1022	0.138
1023	0.138
1023	0.137
1023	0.137
1024	0.137
1024	0.137
1025	0.137
1025	0.136
1026	0.136
1026	0.136
1026	0.135
1027	0.135
1027	0.134
1028	0.134
1028	0.133
1028	0.133
1029	0.132
1029	0.132
1030	0.132
1030	0.133
1031	0.133
1031	0.133
1031	0.134
1032	0.134
1032	0.135
1033	0.135
1033	0.135
1033	0.135
1034	0.135
1034	0.135
1035	0.135
1035	0.134
1036	0.134
1036	0.134
1036	0.133
1037	0.133
1037	0.132
1038	0.132
1038	0.131
1039	0.131
1039	0.131
1039	0.131
1040	0.13
1040	0.13
1041	0.13
1041	0.13
1041	0.13
1042	0.13
1042	0.13
1043	0.13
1043	0.13
1044	0.13
1044	0.13
1044	0.13
1045	0.13
1045	0.129
1046	0.129
1046	0.129
1046	0.129
1047	0.129
1047	0.129
1048	0.129
1048	0.129
1049	0.129
1049	0.129
1049	0.128
1050	0.127
1050	0.126
1051	0.126
1051	0.125
1051	0.124
1052	0.123
1052	0.122
1053	0.121
1053	0.12
1053	0.118
1054	0.117
1054	0.116
1055	0.116
1055	0.115
1056	0.114
1056	0.113
1056	0.112
1057	0.112
1057	0.111
1058	0.11
1058	0.109
1058	0.109
1059	0.108
1059	0.108
1060	0.107
1060	0.106
1061	0.106
1061	0.106
1061	0.105
1062	0.105
1062	0.105
1063	0.105
1063	0.105
1063	0.105
1064	0.104
1064	0.105
1065	0.105
1065	0.104
1066	0.104
1066	0.104
1066	0.103
1067	0.103
1067	0.103
1068	0.102
1068	0.102
1068	0.101
1069	0.101
1069	0.1
1070	0.099
1070	0.099
1071	0.098
1071	0.098
1071	0.097
1072	0.096
1072	0.096
1073	0.095
1073	0.095
1073	0.095
1074	0.095
1074	0.094
1075	0.094
1075	0.094
1076	0.094
1076	0.094
1076	0.094
1077	0.093
1077	0.093
1078	0.092
1078	0.092
1078	0.092
1079	0.092
1079	0.092
1080	0.091
1080	0.091
1080	0.091
1081	0.091
1081	0.091
1082	0.092
1082	0.093
1083	0.092
1083	0.092
1083	0.092
1084	0.092
1084	0.093
1085	0.092
1085	0.092
1085	0.092
1086	0.092
1086	0.091
1087	0.091
1087	0.091
1088	0.09
1088	0.09
1088	0.09
1089	0.09
1089	0.089
1090	0.089
1090	0.088
1090	0.087
1091	0.087
1091	0.087
1092	0.087
1092	0.087
1092	0.087
1093	0.087
1093	0.088
1094	0.088
1094	0.088
1095	0.088
1095	0.088
1095	0.088
1096	0.086
1096	0.086
1097	0.086
1097	0.085
1097	0.083
1098	0.083
1098	0.081
1099	0.08
1099	0.079
1100	0.077
1100	0.076
1100	0.075
1101	0.074
1101	0.072
1102	0.071
1102	0.07
1102	0.067
1103	0.067
1103	0.066
1104	0.064
1104	0.064
1104	0.063
1105	0.062
1105	0.06
1106	0.059
1106	0.058
1107	0.057
1107	0.056
1107	0.055
1108	0.055
1108	0.054
1109	0.053
1109	0.051
1109	0.051
1110	0.052
1110	0.048
1111	0.047
1111	0.044
