Data from reversibility-20sec_Absorbance__3154__000000000003154.txt Node

Date: Wed Dec 06 05:44:25 CET 2023
User: Marek
Spectrometer: MAYP115816
Trigger mode: 0
Integration Time (sec): 2.000000E-1
Scans to average: 10
Electric dark correction enabled: true
Nonlinearity correction enabled: true
Boxcar width: 5
XAxis mode: Wavelengths
Number of Pixels in Spectrum: 2068
>>>>>Begin Spectral Data<<<<<
199	-0.132
199	-0.094
200	-0.028
200	0.034
201	0.067
201	0.087
202	0.102
202	0.113
203	0.124
203	0.128
204	0.146
204	0.161
205	0.172
205	0.179
205	0.176
206	0.176
206	0.173
207	0.174
207	0.173
208	0.172
208	0.171
209	0.173
209	0.171
210	0.174
210	0.178
211	0.178
211	0.18
212	0.18
212	0.182
213	0.184
213	0.186
213	0.187
214	0.188
214	0.19
215	0.188
215	0.185
216	0.186
216	0.182
217	0.186
217	0.187
218	0.184
218	0.188
219	0.193
219	0.194
220	0.196
220	0.196
221	0.2
221	0.202
221	0.209
222	0.214
222	0.219
223	0.227
223	0.229
224	0.232
224	0.24
225	0.246
225	0.259
226	0.269
226	0.278
227	0.288
227	0.301
228	0.314
228	0.331
229	0.348
229	0.372
229	0.396
230	0.422
230	0.45
231	0.48
231	0.524
232	0.562
232	0.602
233	0.646
233	0.696
234	0.746
234	0.799
235	0.854
235	0.908
236	0.961
236	1.015
236	1.068
237	1.12
237	1.17
238	1.222
238	1.269
239	1.319
239	1.361
240	1.401
240	1.44
241	1.478
241	1.513
242	1.546
242	1.583
243	1.615
243	1.639
243	1.666
244	1.689
244	1.712
245	1.734
245	1.76
246	1.779
246	1.799
247	1.81
247	1.825
248	1.84
248	1.859
249	1.87
249	1.877
250	1.886
250	1.892
250	1.894
251	1.896
251	1.899
252	1.905
252	1.903
253	1.904
253	1.897
254	1.895
254	1.895
255	1.892
255	1.891
256	1.89
256	1.891
257	1.889
257	1.888
258	1.89
258	1.889
258	1.891
259	1.891
259	1.892
260	1.895
260	1.897
261	1.897
261	1.901
262	1.907
262	1.912
263	1.916
263	1.919
264	1.922
264	1.927
265	1.929
265	1.933
265	1.935
266	1.938
266	1.939
267	1.936
267	1.937
268	1.939
268	1.942
269	1.945
269	1.945
270	1.947
270	1.945
271	1.942
271	1.941
272	1.936
272	1.934
272	1.927
273	1.916
273	1.903
274	1.892
274	1.881
275	1.871
275	1.863
276	1.855
276	1.845
277	1.836
277	1.826
278	1.814
278	1.802
278	1.786
279	1.765
279	1.737
280	1.702
280	1.661
281	1.614
281	1.562
282	1.51
282	1.458
283	1.409
283	1.361
284	1.317
284	1.275
285	1.236
285	1.2
285	1.17
286	1.142
286	1.12
287	1.1
287	1.083
288	1.069
288	1.057
289	1.047
289	1.038
290	1.031
290	1.025
291	1.019
291	1.014
292	1.01
292	1.006
292	1.002
293	0.999
293	0.996
294	0.992
294	0.99
295	0.987
295	0.984
296	0.982
296	0.979
297	0.976
297	0.974
298	0.971
298	0.969
298	0.966
299	0.964
299	0.962
300	0.959
300	0.957
301	0.954
301	0.952
302	0.95
302	0.948
303	0.945
303	0.943
304	0.941
304	0.939
305	0.937
305	0.935
305	0.932
306	0.931
306	0.928
307	0.926
307	0.924
308	0.922
308	0.92
309	0.917
309	0.914
310	0.911
310	0.909
311	0.906
311	0.903
311	0.9
312	0.897
312	0.893
313	0.89
313	0.887
314	0.883
314	0.879
315	0.875
315	0.871
316	0.867
316	0.862
317	0.858
317	0.853
318	0.848
318	0.843
318	0.838
319	0.833
319	0.827
320	0.822
320	0.816
321	0.81
321	0.804
322	0.798
322	0.792
323	0.785
323	0.779
324	0.773
324	0.766
324	0.759
325	0.752
325	0.746
326	0.739
326	0.732
327	0.725
327	0.718
328	0.712
328	0.705
329	0.698
329	0.691
330	0.683
330	0.676
330	0.669
331	0.662
331	0.655
332	0.649
332	0.641
333	0.634
333	0.628
334	0.621
334	0.614
335	0.607
335	0.6
336	0.594
336	0.587
336	0.581
337	0.574
337	0.568
338	0.562
338	0.555
339	0.549
339	0.543
340	0.538
340	0.532
341	0.526
341	0.521
342	0.515
342	0.51
342	0.505
343	0.5
343	0.495
344	0.49
344	0.485
345	0.48
345	0.476
346	0.471
346	0.467
347	0.462
347	0.458
348	0.454
348	0.45
348	0.446
349	0.443
349	0.439
350	0.435
350	0.432
351	0.429
351	0.425
352	0.422
352	0.419
353	0.416
353	0.413
354	0.41
354	0.407
354	0.404
355	0.402
355	0.399
356	0.396
356	0.393
357	0.39
357	0.387
358	0.385
358	0.382
359	0.38
359	0.378
360	0.376
360	0.374
360	0.372
361	0.37
361	0.369
362	0.367
362	0.366
363	0.364
363	0.362
364	0.36
364	0.358
365	0.357
365	0.355
366	0.353
366	0.351
366	0.35
367	0.348
367	0.347
368	0.345
368	0.343
369	0.342
369	0.34
370	0.339
370	0.338
371	0.336
371	0.335
372	0.334
372	0.332
372	0.331
373	0.33
373	0.329
374	0.329
374	0.328
375	0.327
375	0.326
376	0.325
376	0.324
377	0.323
377	0.322
378	0.321
378	0.321
378	0.32
379	0.319
379	0.318
380	0.317
380	0.316
381	0.316
381	0.315
382	0.314
382	0.314
383	0.313
383	0.313
383	0.312
384	0.312
384	0.311
385	0.311
385	0.31
386	0.31
386	0.309
387	0.309
387	0.309
388	0.308
388	0.308
389	0.308
389	0.307
389	0.307
390	0.306
390	0.306
391	0.305
391	0.305
392	0.305
392	0.304
393	0.304
393	0.304
394	0.303
394	0.303
394	0.303
395	0.302
395	0.302
396	0.302
396	0.301
397	0.301
397	0.301
398	0.3
398	0.3
399	0.3
399	0.299
400	0.299
400	0.299
400	0.298
401	0.298
401	0.298
402	0.297
402	0.297
403	0.297
403	0.296
404	0.296
404	0.295
405	0.295
405	0.295
405	0.295
406	0.295
406	0.294
407	0.294
407	0.294
408	0.294
408	0.293
409	0.293
409	0.293
410	0.293
410	0.292
411	0.292
411	0.292
411	0.291
412	0.291
412	0.291
413	0.29
413	0.29
414	0.29
414	0.29
415	0.289
415	0.289
416	0.289
416	0.288
416	0.288
417	0.287
417	0.287
418	0.287
418	0.287
419	0.287
419	0.286
420	0.286
420	0.285
421	0.285
421	0.285
421	0.284
422	0.284
422	0.284
423	0.284
423	0.283
424	0.283
424	0.282
425	0.282
425	0.282
426	0.282
426	0.281
427	0.281
427	0.281
427	0.28
428	0.28
428	0.279
429	0.279
429	0.279
430	0.278
430	0.278
431	0.278
431	0.278
432	0.278
432	0.277
432	0.277
433	0.277
433	0.277
434	0.276
434	0.276
435	0.276
435	0.276
436	0.276
436	0.276
437	0.275
437	0.275
437	0.275
438	0.275
438	0.274
439	0.274
439	0.274
440	0.273
440	0.273
441	0.273
441	0.272
442	0.272
442	0.272
442	0.272
443	0.272
443	0.272
444	0.271
444	0.271
445	0.271
445	0.271
446	0.271
446	0.271
447	0.27
447	0.27
447	0.27
448	0.27
448	0.269
449	0.269
449	0.269
450	0.269
450	0.269
451	0.268
451	0.268
452	0.268
452	0.268
452	0.268
453	0.267
453	0.267
454	0.267
454	0.267
455	0.266
455	0.266
456	0.266
456	0.266
457	0.266
457	0.265
458	0.265
458	0.265
458	0.265
459	0.264
459	0.264
460	0.264
460	0.264
461	0.264
461	0.264
462	0.263
462	0.263
463	0.263
463	0.262
463	0.262
464	0.262
464	0.261
465	0.261
465	0.26
466	0.26
466	0.26
467	0.26
467	0.26
467	0.26
468	0.26
468	0.26
469	0.26
469	0.26
470	0.26
470	0.26
471	0.26
471	0.26
472	0.26
472	0.26
472	0.26
473	0.26
473	0.26
474	0.259
474	0.259
475	0.259
475	0.259
476	0.259
476	0.259
477	0.259
477	0.259
477	0.259
478	0.259
478	0.259
479	0.259
479	0.259
480	0.259
480	0.259
481	0.259
481	0.259
482	0.259
482	0.259
482	0.259
483	0.26
483	0.26
484	0.26
484	0.26
485	0.26
485	0.259
486	0.259
486	0.26
487	0.26
487	0.26
487	0.26
488	0.26
488	0.26
489	0.26
489	0.261
490	0.261
490	0.262
491	0.262
491	0.263
492	0.263
492	0.263
492	0.264
493	0.264
493	0.265
494	0.265
494	0.266
495	0.266
495	0.267
496	0.267
496	0.268
496	0.268
497	0.268
497	0.268
498	0.269
498	0.269
499	0.269
499	0.27
500	0.27
500	0.271
501	0.271
501	0.272
501	0.272
502	0.272
502	0.273
503	0.273
503	0.273
504	0.274
504	0.274
505	0.275
505	0.275
506	0.275
506	0.276
506	0.276
507	0.276
507	0.277
508	0.277
508	0.278
509	0.278
509	0.278
510	0.279
510	0.279
511	0.28
511	0.281
511	0.281
512	0.282
512	0.282
513	0.283
513	0.283
514	0.284
514	0.284
515	0.285
515	0.285
515	0.285
516	0.286
516	0.286
517	0.286
517	0.287
518	0.287
518	0.287
519	0.288
519	0.288
520	0.288
520	0.289
520	0.289
521	0.289
521	0.289
522	0.29
522	0.29
523	0.291
523	0.291
524	0.291
524	0.292
524	0.292
525	0.292
525	0.292
526	0.292
526	0.292
527	0.292
527	0.292
528	0.292
528	0.293
529	0.293
529	0.293
529	0.293
530	0.293
530	0.293
531	0.293
531	0.293
532	0.294
532	0.293
533	0.293
533	0.293
533	0.293
534	0.292
534	0.292
535	0.292
535	0.291
536	0.291
536	0.291
537	0.29
537	0.29
538	0.291
538	0.29
538	0.29
539	0.29
539	0.29
540	0.29
540	0.29
541	0.29
541	0.29
542	0.29
542	0.29
542	0.289
543	0.289
543	0.289
544	0.288
544	0.288
545	0.288
545	0.288
546	0.288
546	0.288
547	0.287
547	0.287
547	0.286
548	0.286
548	0.286
549	0.286
549	0.286
550	0.285
550	0.285
551	0.284
551	0.284
551	0.283
552	0.283
552	0.283
553	0.283
553	0.283
554	0.282
554	0.282
555	0.281
555	0.281
556	0.28
556	0.28
556	0.28
557	0.28
557	0.28
558	0.279
558	0.279
559	0.279
559	0.279
560	0.279
560	0.279
560	0.279
561	0.279
561	0.278
562	0.278
562	0.277
563	0.276
563	0.276
564	0.275
564	0.275
564	0.275
565	0.274
565	0.274
566	0.273
566	0.273
567	0.273
567	0.273
568	0.273
568	0.272
568	0.272
569	0.271
569	0.271
570	0.27
570	0.27
571	0.269
571	0.269
572	0.268
572	0.268
573	0.268
573	0.268
573	0.267
574	0.267
574	0.267
575	0.267
575	0.267
576	0.267
576	0.267
577	0.266
577	0.266
577	0.265
578	0.265
578	0.264
579	0.264
579	0.264
580	0.263
580	0.263
581	0.262
581	0.262
581	0.262
582	0.262
582	0.262
583	0.262
583	0.261
584	0.261
584	0.26
585	0.259
585	0.259
585	0.259
586	0.259
586	0.258
587	0.258
587	0.257
588	0.257
588	0.256
589	0.256
589	0.256
590	0.256
590	0.255
590	0.255
591	0.255
591	0.254
592	0.254
592	0.253
593	0.253
593	0.252
594	0.252
594	0.251
594	0.25
595	0.25
595	0.25
596	0.249
596	0.249
597	0.25
597	0.251
598	0.251
598	0.251
598	0.251
599	0.251
599	0.251
600	0.25
600	0.25
601	0.249
601	0.249
602	0.249
602	0.248
602	0.248
603	0.247
603	0.247
604	0.247
604	0.247
605	0.247
605	0.247
606	0.247
606	0.246
606	0.246
607	0.245
607	0.245
608	0.244
608	0.243
609	0.243
609	0.243
610	0.242
610	0.241
610	0.241
611	0.241
611	0.241
612	0.241
612	0.242
613	0.242
613	0.242
614	0.242
614	0.242
614	0.242
615	0.242
615	0.242
616	0.242
616	0.242
617	0.242
617	0.242
618	0.242
618	0.242
618	0.242
619	0.241
619	0.241
620	0.241
620	0.241
621	0.241
621	0.24
622	0.24
622	0.24
622	0.239
623	0.239
623	0.239
624	0.238
624	0.238
625	0.237
625	0.237
626	0.237
626	0.237
626	0.237
627	0.237
627	0.237
628	0.237
628	0.237
629	0.236
629	0.236
630	0.236
630	0.236
630	0.236
631	0.236
631	0.236
632	0.236
632	0.236
633	0.236
633	0.236
634	0.236
634	0.236
634	0.236
635	0.236
635	0.235
636	0.235
636	0.235
637	0.235
637	0.235
638	0.234
638	0.234
638	0.233
639	0.232
639	0.232
640	0.232
640	0.232
641	0.232
641	0.231
642	0.231
642	0.231
642	0.232
643	0.232
643	0.232
644	0.233
644	0.233
645	0.233
645	0.233
646	0.233
646	0.233
646	0.234
647	0.234
647	0.234
648	0.233
648	0.233
649	0.233
649	0.232
650	0.232
650	0.232
650	0.232
651	0.231
651	0.231
652	0.231
652	0.231
653	0.232
653	0.233
653	0.239
654	0.185
654	0.147
655	0.15
655	0.15
656	0.151
656	0.151
657	0.152
657	0.152
657	0.152
658	0.151
658	0.14
659	0.177
659	0.23
660	0.234
660	0.233
661	0.233
661	0.232
661	0.232
662	0.231
662	0.231
663	0.231
663	0.23
664	0.23
664	0.23
665	0.23
665	0.23
665	0.23
666	0.23
666	0.23
667	0.23
667	0.231
668	0.231
668	0.231
669	0.231
669	0.231
669	0.232
670	0.233
670	0.232
671	0.232
671	0.232
672	0.232
672	0.231
672	0.231
673	0.23
673	0.23
674	0.23
674	0.23
675	0.23
675	0.23
676	0.23
676	0.23
676	0.23
677	0.231
677	0.231
678	0.231
678	0.231
679	0.231
679	0.231
680	0.231
680	0.23
680	0.23
681	0.23
681	0.23
682	0.231
682	0.231
683	0.231
683	0.232
684	0.232
684	0.232
684	0.232
685	0.232
685	0.232
686	0.233
686	0.233
687	0.233
687	0.233
687	0.233
688	0.233
688	0.233
689	0.234
689	0.235
690	0.235
690	0.235
691	0.235
691	0.235
691	0.235
692	0.235
692	0.235
693	0.235
693	0.236
694	0.235
694	0.235
695	0.236
695	0.237
695	0.237
696	0.237
696	0.238
697	0.238
697	0.238
698	0.238
698	0.238
698	0.238
699	0.238
699	0.237
700	0.236
700	0.236
701	0.236
701	0.236
702	0.235
702	0.235
702	0.235
703	0.235
703	0.234
704	0.234
704	0.234
705	0.235
705	0.235
705	0.235
706	0.235
706	0.235
707	0.235
707	0.235
708	0.236
708	0.236
709	0.236
709	0.236
709	0.236
710	0.236
710	0.236
711	0.236
711	0.236
712	0.236
712	0.236
713	0.237
713	0.237
713	0.237
714	0.237
714	0.237
715	0.237
715	0.237
716	0.237
716	0.237
716	0.237
717	0.236
717	0.236
718	0.235
718	0.235
719	0.235
719	0.235
720	0.236
720	0.236
720	0.236
721	0.237
721	0.238
722	0.239
722	0.239
723	0.24
723	0.24
723	0.24
724	0.24
724	0.24
725	0.239
725	0.238
726	0.238
726	0.238
727	0.237
727	0.237
727	0.237
728	0.237
728	0.237
729	0.238
729	0.238
730	0.239
730	0.24
730	0.24
731	0.241
731	0.242
732	0.242
732	0.243
733	0.243
733	0.243
734	0.243
734	0.244
734	0.244
735	0.244
735	0.243
736	0.243
736	0.243
737	0.242
737	0.242
737	0.242
738	0.241
738	0.24
739	0.24
739	0.24
740	0.239
740	0.239
741	0.24
741	0.24
741	0.24
742	0.24
742	0.24
743	0.241
743	0.242
744	0.242
744	0.243
744	0.243
745	0.243
745	0.243
746	0.243
746	0.243
747	0.243
747	0.244
748	0.244
748	0.244
748	0.244
749	0.244
749	0.244
750	0.244
750	0.244
751	0.245
751	0.245
751	0.244
752	0.244
752	0.243
753	0.243
753	0.242
754	0.242
754	0.241
754	0.241
755	0.24
755	0.24
756	0.24
756	0.239
757	0.238
757	0.239
758	0.239
758	0.239
758	0.24
759	0.24
759	0.24
760	0.24
760	0.24
761	0.24
761	0.241
761	0.241
762	0.241
762	0.242
763	0.242
763	0.242
764	0.242
764	0.242
764	0.242
765	0.242
765	0.242
766	0.242
766	0.242
767	0.242
767	0.241
768	0.241
768	0.241
768	0.24
769	0.24
769	0.24
770	0.24
770	0.241
771	0.241
771	0.241
771	0.241
772	0.242
772	0.242
773	0.243
773	0.243
774	0.244
774	0.244
775	0.245
775	0.245
775	0.245
776	0.246
776	0.246
777	0.246
777	0.246
778	0.246
778	0.246
778	0.245
779	0.245
779	0.244
780	0.243
780	0.243
781	0.243
781	0.243
781	0.242
782	0.242
782	0.242
783	0.243
783	0.243
784	0.243
784	0.243
784	0.244
785	0.244
785	0.244
786	0.244
786	0.244
787	0.244
787	0.244
788	0.244
788	0.244
788	0.243
789	0.243
789	0.243
790	0.243
790	0.243
791	0.243
791	0.243
791	0.243
792	0.244
792	0.244
793	0.245
793	0.245
794	0.245
794	0.245
794	0.245
795	0.245
795	0.246
796	0.246
796	0.246
797	0.246
797	0.246
797	0.246
798	0.246
798	0.246
799	0.246
799	0.246
800	0.246
800	0.246
801	0.245
801	0.245
801	0.245
802	0.245
802	0.245
803	0.245
803	0.245
804	0.246
804	0.246
804	0.247
805	0.247
805	0.247
806	0.247
806	0.248
807	0.248
807	0.248
807	0.248
808	0.248
808	0.248
809	0.248
809	0.248
810	0.248
810	0.248
810	0.248
811	0.248
811	0.249
812	0.249
812	0.25
813	0.25
813	0.251
813	0.251
814	0.252
814	0.252
815	0.253
815	0.253
816	0.253
816	0.252
817	0.251
817	0.251
817	0.25
818	0.25
818	0.249
819	0.249
819	0.248
820	0.247
820	0.247
820	0.247
821	0.247
821	0.247
822	0.248
822	0.248
823	0.249
823	0.249
823	0.25
824	0.251
824	0.253
825	0.254
825	0.255
826	0.256
826	0.256
826	0.257
827	0.257
827	0.257
828	0.258
828	0.257
829	0.257
829	0.257
829	0.257
830	0.257
830	0.257
831	0.258
831	0.258
832	0.258
832	0.258
832	0.258
833	0.258
833	0.258
834	0.258
834	0.258
835	0.258
835	0.257
835	0.257
836	0.257
836	0.257
837	0.257
837	0.257
838	0.256
838	0.256
839	0.255
839	0.254
839	0.253
840	0.253
840	0.252
841	0.251
841	0.251
842	0.25
842	0.25
842	0.25
843	0.25
843	0.251
844	0.251
844	0.251
845	0.251
845	0.252
845	0.252
846	0.252
846	0.252
847	0.253
847	0.253
848	0.253
848	0.253
848	0.253
849	0.253
849	0.253
850	0.253
850	0.253
851	0.252
851	0.252
851	0.252
852	0.251
852	0.251
853	0.251
853	0.251
854	0.251
854	0.251
854	0.252
855	0.253
855	0.254
856	0.254
856	0.255
857	0.255
857	0.256
857	0.256
858	0.256
858	0.256
859	0.255
859	0.254
860	0.253
860	0.252
860	0.251
861	0.25
861	0.249
862	0.248
862	0.247
863	0.246
863	0.246
863	0.246
864	0.246
864	0.246
865	0.246
865	0.246
866	0.247
866	0.247
866	0.247
867	0.248
867	0.248
868	0.248
868	0.248
869	0.248
869	0.247
869	0.246
870	0.246
870	0.245
871	0.245
871	0.245
872	0.245
872	0.244
872	0.244
873	0.244
873	0.244
874	0.244
874	0.244
875	0.244
875	0.245
875	0.245
876	0.245
876	0.245
877	0.245
877	0.245
878	0.245
878	0.246
878	0.247
879	0.247
879	0.248
880	0.248
880	0.248
881	0.249
881	0.249
881	0.249
882	0.249
882	0.249
883	0.248
883	0.248
884	0.247
884	0.247
884	0.247
885	0.246
885	0.246
886	0.246
886	0.245
887	0.245
887	0.244
887	0.244
888	0.243
888	0.243
889	0.242
889	0.242
890	0.242
890	0.242
890	0.241
891	0.241
891	0.24
892	0.24
892	0.24
893	0.24
893	0.239
893	0.239
894	0.238
894	0.238
895	0.237
895	0.237
895	0.236
896	0.236
896	0.236
897	0.235
897	0.235
898	0.234
898	0.234
898	0.233
899	0.233
899	0.233
900	0.233
900	0.233
901	0.233
901	0.233
901	0.233
902	0.233
902	0.233
903	0.233
903	0.232
904	0.232
904	0.232
904	0.232
905	0.232
905	0.232
906	0.232
906	0.232
907	0.233
907	0.233
907	0.234
908	0.234
908	0.234
909	0.235
909	0.235
910	0.235
910	0.235
910	0.234
911	0.233
911	0.233
912	0.232
912	0.232
913	0.231
913	0.23
913	0.23
914	0.229
914	0.229
915	0.228
915	0.228
916	0.228
916	0.227
916	0.227
917	0.226
917	0.226
918	0.225
918	0.224
918	0.223
919	0.223
919	0.222
920	0.221
920	0.22
921	0.22
921	0.219
921	0.218
922	0.218
922	0.218
923	0.218
923	0.218
924	0.218
924	0.219
924	0.219
925	0.22
925	0.22
926	0.22
926	0.22
927	0.22
927	0.22
927	0.22
928	0.22
928	0.219
929	0.219
929	0.219
930	0.219
930	0.219
930	0.218
931	0.218
931	0.219
932	0.219
932	0.219
933	0.219
933	0.219
933	0.219
934	0.219
934	0.218
935	0.218
935	0.218
935	0.218
936	0.217
936	0.217
937	0.216
937	0.216
938	0.215
938	0.215
938	0.214
939	0.213
939	0.212
940	0.212
940	0.211
941	0.21
941	0.21
941	0.21
942	0.209
942	0.208
943	0.208
943	0.208
944	0.207
944	0.207
944	0.207
945	0.206
945	0.206
946	0.205
946	0.205
946	0.205
947	0.205
947	0.205
948	0.205
948	0.205
949	0.205
949	0.205
949	0.205
950	0.205
950	0.204
951	0.204
951	0.203
952	0.202
952	0.201
952	0.2
953	0.198
953	0.197
954	0.196
954	0.195
955	0.194
955	0.193
955	0.193
956	0.192
956	0.192
957	0.192
957	0.192
957	0.192
958	0.193
958	0.193
959	0.193
959	0.193
960	0.193
960	0.193
960	0.192
961	0.192
961	0.191
962	0.191
962	0.191
963	0.19
963	0.19
963	0.19
964	0.19
964	0.19
965	0.19
965	0.191
966	0.191
966	0.192
966	0.192
967	0.192
967	0.192
968	0.192
968	0.192
968	0.192
969	0.191
969	0.191
970	0.19
970	0.19
971	0.189
971	0.189
971	0.188
972	0.188
972	0.188
973	0.187
973	0.187
974	0.187
974	0.187
974	0.187
975	0.187
975	0.187
976	0.187
976	0.187
976	0.187
977	0.187
977	0.186
978	0.186
978	0.185
979	0.185
979	0.184
979	0.184
980	0.183
980	0.182
981	0.182
981	0.181
982	0.18
982	0.18
982	0.179
983	0.179
983	0.178
984	0.178
984	0.177
984	0.177
985	0.177
985	0.176
986	0.176
986	0.175
987	0.175
987	0.175
987	0.174
988	0.174
988	0.173
989	0.173
989	0.172
990	0.171
990	0.171
990	0.17
991	0.17
991	0.169
992	0.169
992	0.168
992	0.167
993	0.166
993	0.165
994	0.165
994	0.164
995	0.164
995	0.163
995	0.163
996	0.163
996	0.162
997	0.162
997	0.162
997	0.163
998	0.163
998	0.163
999	0.163
999	0.164
1000	0.164
1000	0.164
1000	0.164
1001	0.165
1001	0.165
1002	0.165
1002	0.164
1003	0.164
1003	0.164
1003	0.163
1004	0.162
1004	0.161
1005	0.161
1005	0.16
1005	0.159
1006	0.159
1006	0.158
1007	0.158
1007	0.157
1008	0.157
1008	0.157
1008	0.157
1009	0.157
1009	0.157
1010	0.157
1010	0.157
1010	0.157
1011	0.157
1011	0.158
1012	0.158
1012	0.158
1013	0.158
1013	0.157
1013	0.157
1014	0.156
1014	0.156
1015	0.156
1015	0.155
1016	0.155
1016	0.154
1016	0.153
1017	0.153
1017	0.152
1018	0.152
1018	0.151
1018	0.151
1019	0.15
1019	0.15
1020	0.15
1020	0.15
1021	0.15
1021	0.15
1021	0.15
1022	0.15
1022	0.15
1023	0.15
1023	0.15
1023	0.151
1024	0.151
1024	0.151
1025	0.151
1025	0.15
1026	0.15
1026	0.149
1026	0.149
1027	0.149
1027	0.148
1028	0.148
1028	0.147
1028	0.147
1029	0.147
1029	0.147
1030	0.147
1030	0.147
1031	0.147
1031	0.147
1031	0.147
1032	0.147
1032	0.147
1033	0.147
1033	0.147
1033	0.147
1034	0.147
1034	0.147
1035	0.146
1035	0.146
1036	0.146
1036	0.145
1036	0.145
1037	0.145
1037	0.144
1038	0.144
1038	0.144
1039	0.144
1039	0.144
1039	0.144
1040	0.144
1040	0.144
1041	0.144
1041	0.143
1041	0.143
1042	0.144
1042	0.144
1043	0.144
1043	0.144
1044	0.143
1044	0.143
1044	0.143
1045	0.143
1045	0.143
1046	0.144
1046	0.144
1046	0.144
1047	0.144
1047	0.145
1048	0.145
1048	0.146
1049	0.146
1049	0.147
1049	0.147
1050	0.147
1050	0.147
1051	0.147
1051	0.147
1051	0.146
1052	0.146
1052	0.146
1053	0.145
1053	0.144
1053	0.143
1054	0.142
1054	0.141
1055	0.141
1055	0.14
1056	0.139
1056	0.139
1056	0.138
1057	0.137
1057	0.136
1058	0.136
1058	0.134
1058	0.134
1059	0.133
1059	0.133
1060	0.132
1060	0.131
1061	0.13
1061	0.129
1061	0.129
1062	0.128
1062	0.128
1063	0.128
1063	0.127
1063	0.127
1064	0.126
1064	0.126
1065	0.125
1065	0.125
1066	0.125
1066	0.125
1066	0.124
1067	0.124
1067	0.124
1068	0.123
1068	0.123
1068	0.123
1069	0.123
1069	0.122
1070	0.121
1070	0.121
1071	0.12
1071	0.12
1071	0.119
1072	0.118
1072	0.117
1073	0.116
1073	0.116
1073	0.116
1074	0.116
1074	0.116
1075	0.115
1075	0.115
1076	0.116
1076	0.117
1076	0.117
1077	0.117
1077	0.118
1078	0.118
1078	0.118
1078	0.118
1079	0.117
1079	0.117
1080	0.117
1080	0.116
1080	0.116
1081	0.116
1081	0.116
1082	0.116
1082	0.116
1083	0.116
1083	0.115
1083	0.116
1084	0.115
1084	0.115
1085	0.115
1085	0.115
1085	0.115
1086	0.114
1086	0.113
1087	0.113
1087	0.112
1088	0.112
1088	0.111
1088	0.111
1089	0.111
1089	0.11
1090	0.109
1090	0.108
1090	0.107
1091	0.107
1091	0.107
1092	0.107
1092	0.107
1092	0.107
1093	0.106
1093	0.107
1094	0.107
1094	0.107
1095	0.107
1095	0.107
1095	0.106
1096	0.105
1096	0.105
1097	0.104
1097	0.103
1097	0.103
1098	0.103
1098	0.101
1099	0.101
1099	0.1
1100	0.099
1100	0.098
1100	0.097
1101	0.096
1101	0.095
1102	0.094
1102	0.093
1102	0.092
1103	0.092
1103	0.092
1104	0.09
1104	0.09
1104	0.09
1105	0.089
1105	0.087
1106	0.086
1106	0.084
1107	0.084
1107	0.084
1107	0.083
1108	0.081
1108	0.081
1109	0.08
1109	0.08
1109	0.08
1110	0.083
1110	0.082
1111	0.084
1111	0.081
