Data from reversibility-20sec_Absorbance__4279__000000000004279.txt Node

Date: Wed Dec 06 11:59:25 CET 2023
User: Marek
Spectrometer: MAYP115816
Trigger mode: 0
Integration Time (sec): 2.000000E-1
Scans to average: 10
Electric dark correction enabled: true
Nonlinearity correction enabled: true
Boxcar width: 5
XAxis mode: Wavelengths
Number of Pixels in Spectrum: 2068
>>>>>Begin Spectral Data<<<<<
199	-0.164
199	-0.135
200	-0.065
200	-0.014
201	0.015
201	0.034
202	0.051
202	0.061
203	0.066
203	0.07
204	0.084
204	0.099
205	0.112
205	0.117
205	0.114
206	0.114
206	0.113
207	0.114
207	0.112
208	0.113
208	0.113
209	0.114
209	0.111
210	0.112
210	0.112
211	0.116
211	0.118
212	0.113
212	0.115
213	0.118
213	0.119
213	0.117
214	0.121
214	0.121
215	0.122
215	0.123
216	0.122
216	0.122
217	0.127
217	0.128
218	0.126
218	0.129
219	0.135
219	0.135
220	0.139
220	0.136
221	0.135
221	0.136
221	0.139
222	0.143
222	0.146
223	0.153
223	0.156
224	0.159
224	0.167
225	0.175
225	0.187
226	0.196
226	0.208
227	0.22
227	0.229
228	0.243
228	0.257
229	0.273
229	0.298
229	0.317
230	0.342
230	0.371
231	0.405
231	0.442
232	0.478
232	0.521
233	0.565
233	0.613
234	0.664
234	0.717
235	0.77
235	0.821
236	0.872
236	0.926
236	0.978
237	1.031
237	1.084
238	1.128
238	1.177
239	1.224
239	1.264
240	1.306
240	1.346
241	1.384
241	1.419
242	1.448
242	1.481
243	1.509
243	1.536
243	1.559
244	1.58
244	1.602
245	1.619
245	1.639
246	1.657
246	1.673
247	1.686
247	1.698
248	1.712
248	1.725
249	1.733
249	1.741
250	1.747
250	1.756
250	1.761
251	1.763
251	1.764
252	1.769
252	1.771
253	1.771
253	1.768
254	1.768
254	1.769
255	1.766
255	1.764
256	1.762
256	1.761
257	1.761
257	1.76
258	1.761
258	1.76
258	1.761
259	1.761
259	1.759
260	1.76
260	1.762
261	1.762
261	1.766
262	1.769
262	1.769
263	1.772
263	1.774
264	1.778
264	1.78
265	1.782
265	1.784
265	1.785
266	1.787
266	1.786
267	1.784
267	1.786
268	1.785
268	1.786
269	1.787
269	1.784
270	1.783
270	1.782
271	1.778
271	1.778
272	1.774
272	1.771
272	1.766
273	1.76
273	1.752
274	1.744
274	1.738
275	1.731
275	1.724
276	1.717
276	1.709
277	1.7
277	1.692
278	1.681
278	1.668
278	1.653
279	1.636
279	1.615
280	1.588
280	1.556
281	1.518
281	1.476
282	1.431
282	1.387
283	1.343
283	1.301
284	1.261
284	1.222
285	1.186
285	1.153
285	1.124
286	1.099
286	1.076
287	1.058
287	1.042
288	1.028
288	1.017
289	1.007
289	0.998
290	0.991
290	0.985
291	0.979
291	0.975
292	0.97
292	0.966
292	0.963
293	0.959
293	0.956
294	0.953
294	0.95
295	0.947
295	0.945
296	0.942
296	0.939
297	0.936
297	0.934
298	0.931
298	0.928
298	0.926
299	0.923
299	0.921
300	0.919
300	0.916
301	0.914
301	0.912
302	0.909
302	0.907
303	0.905
303	0.903
304	0.901
304	0.899
305	0.897
305	0.895
305	0.892
306	0.89
306	0.888
307	0.886
307	0.883
308	0.881
308	0.878
309	0.876
309	0.873
310	0.871
310	0.868
311	0.865
311	0.862
311	0.859
312	0.856
312	0.853
313	0.85
313	0.846
314	0.843
314	0.839
315	0.835
315	0.831
316	0.827
316	0.822
317	0.818
317	0.814
318	0.809
318	0.804
318	0.799
319	0.794
319	0.788
320	0.783
320	0.777
321	0.771
321	0.765
322	0.759
322	0.753
323	0.747
323	0.741
324	0.735
324	0.728
324	0.722
325	0.715
325	0.709
326	0.702
326	0.695
327	0.689
327	0.682
328	0.675
328	0.668
329	0.661
329	0.655
330	0.648
330	0.641
330	0.634
331	0.627
331	0.621
332	0.614
332	0.607
333	0.6
333	0.594
334	0.587
334	0.58
335	0.573
335	0.567
336	0.56
336	0.554
336	0.547
337	0.541
337	0.535
338	0.529
338	0.523
339	0.517
339	0.511
340	0.505
340	0.5
341	0.494
341	0.489
342	0.483
342	0.478
342	0.473
343	0.468
343	0.463
344	0.458
344	0.453
345	0.449
345	0.444
346	0.44
346	0.435
347	0.431
347	0.427
348	0.423
348	0.419
348	0.416
349	0.412
349	0.408
350	0.404
350	0.401
351	0.398
351	0.394
352	0.391
352	0.389
353	0.386
353	0.383
354	0.38
354	0.377
354	0.375
355	0.372
355	0.369
356	0.366
356	0.364
357	0.361
357	0.358
358	0.355
358	0.353
359	0.35
359	0.348
360	0.346
360	0.344
360	0.343
361	0.341
361	0.339
362	0.338
362	0.336
363	0.334
363	0.333
364	0.331
364	0.329
365	0.327
365	0.325
366	0.324
366	0.322
366	0.32
367	0.319
367	0.317
368	0.315
368	0.314
369	0.312
369	0.311
370	0.31
370	0.308
371	0.307
371	0.306
372	0.305
372	0.304
372	0.303
373	0.302
373	0.301
374	0.3
374	0.299
375	0.298
375	0.297
376	0.297
376	0.296
377	0.295
377	0.294
378	0.293
378	0.292
378	0.291
379	0.29
379	0.29
380	0.289
380	0.288
381	0.288
381	0.287
382	0.287
382	0.286
383	0.286
383	0.285
383	0.285
384	0.284
384	0.284
385	0.283
385	0.283
386	0.282
386	0.282
387	0.281
387	0.281
388	0.28
388	0.28
389	0.28
389	0.279
389	0.279
390	0.279
390	0.278
391	0.278
391	0.278
392	0.278
392	0.277
393	0.277
393	0.277
394	0.276
394	0.276
394	0.276
395	0.275
395	0.275
396	0.274
396	0.274
397	0.273
397	0.273
398	0.273
398	0.273
399	0.272
399	0.272
400	0.272
400	0.272
400	0.271
401	0.271
401	0.271
402	0.271
402	0.271
403	0.27
403	0.27
404	0.27
404	0.27
405	0.27
405	0.269
405	0.269
406	0.269
406	0.269
407	0.268
407	0.268
408	0.268
408	0.267
409	0.267
409	0.266
410	0.266
410	0.266
411	0.266
411	0.265
411	0.265
412	0.265
412	0.264
413	0.264
413	0.264
414	0.264
414	0.264
415	0.263
415	0.263
416	0.262
416	0.262
416	0.262
417	0.261
417	0.261
418	0.261
418	0.26
419	0.26
419	0.259
420	0.259
420	0.259
421	0.258
421	0.258
421	0.258
422	0.257
422	0.257
423	0.257
423	0.257
424	0.256
424	0.256
425	0.255
425	0.255
426	0.255
426	0.254
427	0.254
427	0.254
427	0.254
428	0.253
428	0.253
429	0.253
429	0.253
430	0.253
430	0.252
431	0.252
431	0.252
432	0.252
432	0.252
432	0.251
433	0.251
433	0.251
434	0.251
434	0.251
435	0.251
435	0.25
436	0.25
436	0.25
437	0.249
437	0.249
437	0.249
438	0.249
438	0.248
439	0.248
439	0.248
440	0.248
440	0.247
441	0.247
441	0.247
442	0.247
442	0.247
442	0.247
443	0.247
443	0.247
444	0.246
444	0.246
445	0.246
445	0.246
446	0.246
446	0.245
447	0.245
447	0.245
447	0.244
448	0.244
448	0.244
449	0.244
449	0.244
450	0.243
450	0.243
451	0.243
451	0.243
452	0.243
452	0.243
452	0.242
453	0.242
453	0.242
454	0.242
454	0.242
455	0.241
455	0.241
456	0.241
456	0.241
457	0.24
457	0.24
458	0.24
458	0.24
458	0.239
459	0.239
459	0.239
460	0.239
460	0.239
461	0.238
461	0.238
462	0.238
462	0.238
463	0.238
463	0.238
463	0.237
464	0.237
464	0.236
465	0.236
465	0.236
466	0.236
466	0.236
467	0.235
467	0.235
467	0.235
468	0.235
468	0.235
469	0.235
469	0.235
470	0.235
470	0.235
471	0.235
471	0.235
472	0.235
472	0.235
472	0.235
473	0.235
473	0.235
474	0.235
474	0.235
475	0.235
475	0.235
476	0.235
476	0.235
477	0.235
477	0.235
477	0.235
478	0.235
478	0.235
479	0.236
479	0.236
480	0.236
480	0.236
481	0.235
481	0.235
482	0.236
482	0.236
482	0.236
483	0.236
483	0.236
484	0.236
484	0.236
485	0.236
485	0.236
486	0.236
486	0.236
487	0.236
487	0.236
487	0.237
488	0.237
488	0.237
489	0.237
489	0.238
490	0.239
490	0.239
491	0.24
491	0.24
492	0.241
492	0.241
492	0.241
493	0.242
493	0.242
494	0.243
494	0.243
495	0.243
495	0.244
496	0.244
496	0.245
496	0.245
497	0.245
497	0.246
498	0.246
498	0.246
499	0.247
499	0.247
500	0.247
500	0.248
501	0.248
501	0.248
501	0.248
502	0.249
502	0.249
503	0.25
503	0.25
504	0.251
504	0.251
505	0.252
505	0.252
506	0.252
506	0.253
506	0.253
507	0.254
507	0.254
508	0.254
508	0.255
509	0.255
509	0.256
510	0.256
510	0.257
511	0.258
511	0.258
511	0.259
512	0.26
512	0.26
513	0.261
513	0.261
514	0.262
514	0.262
515	0.263
515	0.263
515	0.263
516	0.263
516	0.264
517	0.264
517	0.265
518	0.265
518	0.265
519	0.265
519	0.265
520	0.266
520	0.266
520	0.266
521	0.266
521	0.267
522	0.267
522	0.267
523	0.267
523	0.267
524	0.267
524	0.268
524	0.268
525	0.268
525	0.268
526	0.268
526	0.268
527	0.268
527	0.268
528	0.268
528	0.269
529	0.269
529	0.268
529	0.268
530	0.268
530	0.268
531	0.268
531	0.268
532	0.268
532	0.268
533	0.267
533	0.267
533	0.268
534	0.268
534	0.267
535	0.267
535	0.267
536	0.267
536	0.267
537	0.267
537	0.267
538	0.267
538	0.267
538	0.267
539	0.266
539	0.266
540	0.266
540	0.266
541	0.265
541	0.265
542	0.265
542	0.265
542	0.264
543	0.264
543	0.264
544	0.263
544	0.263
545	0.263
545	0.263
546	0.263
546	0.262
547	0.262
547	0.261
547	0.261
548	0.26
548	0.26
549	0.26
549	0.259
550	0.259
550	0.258
551	0.258
551	0.257
551	0.257
552	0.257
552	0.256
553	0.256
553	0.255
554	0.255
554	0.254
555	0.253
555	0.253
556	0.252
556	0.252
556	0.252
557	0.252
557	0.252
558	0.252
558	0.252
559	0.252
559	0.252
560	0.252
560	0.252
560	0.251
561	0.251
561	0.251
562	0.25
562	0.249
563	0.248
563	0.247
564	0.246
564	0.245
564	0.245
565	0.245
565	0.245
566	0.244
566	0.244
567	0.244
567	0.244
568	0.244
568	0.244
568	0.244
569	0.244
569	0.243
570	0.242
570	0.241
571	0.241
571	0.241
572	0.24
572	0.24
573	0.239
573	0.239
573	0.238
574	0.238
574	0.238
575	0.238
575	0.238
576	0.238
576	0.238
577	0.237
577	0.236
577	0.236
578	0.236
578	0.236
579	0.236
579	0.236
580	0.235
580	0.234
581	0.233
581	0.232
581	0.233
582	0.233
582	0.233
583	0.233
583	0.232
584	0.231
584	0.23
585	0.23
585	0.23
585	0.23
586	0.229
586	0.229
587	0.228
587	0.227
588	0.226
588	0.226
589	0.225
589	0.225
590	0.225
590	0.225
590	0.226
591	0.226
591	0.226
592	0.225
592	0.225
593	0.224
593	0.224
594	0.224
594	0.223
594	0.222
595	0.222
595	0.222
596	0.221
596	0.221
597	0.222
597	0.222
598	0.222
598	0.222
598	0.222
599	0.222
599	0.221
600	0.22
600	0.22
601	0.22
601	0.219
602	0.219
602	0.218
602	0.217
603	0.217
603	0.217
604	0.217
604	0.217
605	0.217
605	0.217
606	0.217
606	0.216
606	0.216
607	0.216
607	0.216
608	0.216
608	0.215
609	0.214
609	0.214
610	0.214
610	0.213
610	0.213
611	0.213
611	0.213
612	0.213
612	0.213
613	0.213
613	0.213
614	0.213
614	0.212
614	0.212
615	0.212
615	0.212
616	0.212
616	0.212
617	0.212
617	0.212
618	0.212
618	0.212
618	0.212
619	0.212
619	0.212
620	0.213
620	0.212
621	0.212
621	0.211
622	0.211
622	0.211
622	0.21
623	0.209
623	0.209
624	0.209
624	0.209
625	0.208
625	0.208
626	0.208
626	0.208
626	0.208
627	0.208
627	0.208
628	0.207
628	0.207
629	0.206
629	0.206
630	0.205
630	0.205
630	0.205
631	0.204
631	0.204
632	0.204
632	0.204
633	0.204
633	0.204
634	0.205
634	0.205
634	0.205
635	0.205
635	0.204
636	0.204
636	0.204
637	0.204
637	0.204
638	0.203
638	0.203
638	0.203
639	0.202
639	0.202
640	0.202
640	0.202
641	0.202
641	0.202
642	0.202
642	0.202
642	0.202
643	0.202
643	0.203
644	0.203
644	0.203
645	0.203
645	0.203
646	0.203
646	0.203
646	0.203
647	0.203
647	0.203
648	0.203
648	0.202
649	0.202
649	0.202
650	0.202
650	0.202
650	0.202
651	0.202
651	0.202
652	0.202
652	0.202
653	0.202
653	0.204
653	0.211
654	0.165
654	0.131
655	0.132
655	0.132
656	0.133
656	0.133
657	0.133
657	0.134
657	0.134
658	0.132
658	0.121
659	0.153
659	0.197
660	0.203
660	0.203
661	0.202
661	0.202
661	0.201
662	0.201
662	0.2
663	0.2
663	0.2
664	0.199
664	0.199
665	0.199
665	0.199
665	0.199
666	0.199
666	0.199
667	0.199
667	0.2
668	0.2
668	0.2
669	0.2
669	0.2
669	0.2
670	0.2
670	0.2
671	0.2
671	0.2
672	0.199
672	0.199
672	0.199
673	0.199
673	0.199
674	0.199
674	0.199
675	0.198
675	0.199
676	0.199
676	0.199
676	0.199
677	0.199
677	0.199
678	0.199
678	0.199
679	0.199
679	0.199
680	0.2
680	0.199
680	0.199
681	0.199
681	0.199
682	0.2
682	0.2
683	0.2
683	0.201
684	0.201
684	0.201
684	0.201
685	0.201
685	0.202
686	0.202
686	0.202
687	0.201
687	0.202
687	0.202
688	0.202
688	0.202
689	0.202
689	0.203
690	0.202
690	0.202
691	0.202
691	0.202
691	0.202
692	0.202
692	0.202
693	0.203
693	0.203
694	0.203
694	0.204
695	0.205
695	0.206
695	0.206
696	0.206
696	0.206
697	0.206
697	0.206
698	0.206
698	0.206
698	0.206
699	0.206
699	0.206
700	0.205
700	0.206
701	0.206
701	0.206
702	0.206
702	0.206
702	0.206
703	0.205
703	0.205
704	0.204
704	0.204
705	0.204
705	0.204
705	0.204
706	0.204
706	0.204
707	0.205
707	0.205
708	0.205
708	0.206
709	0.206
709	0.206
709	0.206
710	0.206
710	0.206
711	0.206
711	0.206
712	0.206
712	0.206
713	0.206
713	0.207
713	0.207
714	0.207
714	0.207
715	0.207
715	0.206
716	0.206
716	0.206
716	0.205
717	0.205
717	0.204
718	0.204
718	0.204
719	0.204
719	0.205
720	0.205
720	0.206
720	0.206
721	0.207
721	0.208
722	0.209
722	0.209
723	0.21
723	0.21
723	0.211
724	0.211
724	0.211
725	0.21
725	0.209
726	0.209
726	0.208
727	0.208
727	0.207
727	0.207
728	0.206
728	0.206
729	0.206
729	0.206
730	0.206
730	0.206
730	0.207
731	0.207
731	0.207
732	0.208
732	0.208
733	0.208
733	0.208
734	0.208
734	0.208
734	0.208
735	0.209
735	0.208
736	0.208
736	0.208
737	0.208
737	0.208
737	0.208
738	0.208
738	0.207
739	0.207
739	0.207
740	0.207
740	0.207
741	0.208
741	0.208
741	0.208
742	0.207
742	0.208
743	0.208
743	0.209
744	0.209
744	0.21
744	0.21
745	0.21
745	0.21
746	0.21
746	0.211
747	0.211
747	0.212
748	0.212
748	0.213
748	0.213
749	0.213
749	0.213
750	0.213
750	0.213
751	0.213
751	0.213
751	0.213
752	0.212
752	0.211
753	0.211
753	0.21
754	0.211
754	0.21
754	0.211
755	0.211
755	0.211
756	0.211
756	0.21
757	0.21
757	0.21
758	0.211
758	0.211
758	0.211
759	0.211
759	0.211
760	0.211
760	0.211
761	0.212
761	0.213
761	0.213
762	0.214
762	0.214
763	0.214
763	0.214
764	0.214
764	0.213
764	0.213
765	0.213
765	0.212
766	0.212
766	0.211
767	0.21
767	0.209
768	0.208
768	0.208
768	0.207
769	0.207
769	0.207
770	0.207
770	0.207
771	0.208
771	0.208
771	0.208
772	0.209
772	0.21
773	0.211
773	0.212
774	0.212
774	0.213
775	0.214
775	0.215
775	0.215
776	0.215
776	0.215
777	0.216
777	0.216
778	0.215
778	0.215
778	0.214
779	0.214
779	0.214
780	0.213
780	0.213
781	0.212
781	0.212
781	0.212
782	0.212
782	0.212
783	0.212
783	0.212
784	0.212
784	0.213
784	0.213
785	0.214
785	0.214
786	0.215
786	0.215
787	0.216
787	0.216
788	0.216
788	0.215
788	0.215
789	0.214
789	0.214
790	0.214
790	0.214
791	0.213
791	0.213
791	0.213
792	0.214
792	0.214
793	0.214
793	0.214
794	0.214
794	0.214
794	0.213
795	0.214
795	0.214
796	0.214
796	0.214
797	0.213
797	0.213
797	0.214
798	0.214
798	0.214
799	0.215
799	0.215
800	0.215
800	0.215
801	0.216
801	0.216
801	0.216
802	0.216
802	0.217
803	0.217
803	0.218
804	0.218
804	0.219
804	0.219
805	0.22
805	0.22
806	0.22
806	0.22
807	0.221
807	0.221
807	0.221
808	0.221
808	0.22
809	0.22
809	0.22
810	0.22
810	0.22
810	0.219
811	0.219
811	0.22
812	0.22
812	0.22
813	0.221
813	0.221
813	0.221
814	0.222
814	0.223
815	0.223
815	0.224
816	0.224
816	0.224
817	0.224
817	0.224
817	0.224
818	0.224
818	0.224
819	0.223
819	0.222
820	0.221
820	0.22
820	0.22
821	0.219
821	0.219
822	0.219
822	0.219
823	0.219
823	0.219
823	0.219
824	0.22
824	0.222
825	0.223
825	0.223
826	0.224
826	0.224
826	0.224
827	0.224
827	0.225
828	0.225
828	0.224
829	0.224
829	0.224
829	0.224
830	0.224
830	0.224
831	0.224
831	0.225
832	0.224
832	0.225
832	0.225
833	0.225
833	0.225
834	0.225
834	0.225
835	0.225
835	0.225
835	0.226
836	0.226
836	0.227
837	0.227
837	0.227
838	0.227
838	0.227
839	0.227
839	0.226
839	0.225
840	0.225
840	0.223
841	0.222
841	0.221
842	0.219
842	0.218
842	0.217
843	0.217
843	0.216
844	0.216
844	0.215
845	0.215
845	0.215
845	0.216
846	0.216
846	0.216
847	0.217
847	0.217
848	0.218
848	0.218
848	0.219
849	0.22
849	0.22
850	0.221
850	0.222
851	0.223
851	0.223
851	0.224
852	0.223
852	0.223
853	0.223
853	0.223
854	0.223
854	0.223
854	0.223
855	0.223
855	0.223
856	0.223
856	0.223
857	0.223
857	0.222
857	0.222
858	0.221
858	0.22
859	0.219
859	0.218
860	0.217
860	0.215
860	0.214
861	0.214
861	0.213
862	0.212
862	0.211
863	0.211
863	0.21
863	0.21
864	0.211
864	0.211
865	0.211
865	0.211
866	0.211
866	0.211
866	0.212
867	0.212
867	0.212
868	0.211
868	0.211
869	0.21
869	0.21
869	0.209
870	0.209
870	0.209
871	0.209
871	0.209
872	0.209
872	0.21
872	0.21
873	0.211
873	0.211
874	0.211
874	0.211
875	0.211
875	0.211
875	0.211
876	0.211
876	0.211
877	0.211
877	0.211
878	0.212
878	0.213
878	0.214
879	0.215
879	0.215
880	0.216
880	0.216
881	0.216
881	0.215
881	0.215
882	0.214
882	0.213
883	0.212
883	0.211
884	0.21
884	0.209
884	0.208
885	0.207
885	0.207
886	0.206
886	0.206
887	0.206
887	0.205
887	0.204
888	0.204
888	0.203
889	0.203
889	0.203
890	0.203
890	0.203
890	0.203
891	0.203
891	0.203
892	0.204
892	0.204
893	0.205
893	0.205
893	0.205
894	0.205
894	0.205
895	0.205
895	0.205
895	0.204
896	0.204
896	0.203
897	0.203
897	0.202
898	0.202
898	0.201
898	0.201
899	0.201
899	0.201
900	0.201
900	0.201
901	0.201
901	0.201
901	0.201
902	0.201
902	0.2
903	0.2
903	0.2
904	0.2
904	0.199
904	0.199
905	0.199
905	0.199
906	0.199
906	0.199
907	0.2
907	0.2
907	0.201
908	0.201
908	0.202
909	0.201
909	0.201
910	0.201
910	0.201
910	0.2
911	0.199
911	0.198
912	0.197
912	0.196
913	0.195
913	0.195
913	0.194
914	0.194
914	0.193
915	0.193
915	0.193
916	0.192
916	0.191
916	0.19
917	0.189
917	0.188
918	0.187
918	0.186
918	0.185
919	0.184
919	0.184
920	0.184
920	0.184
921	0.184
921	0.184
921	0.184
922	0.184
922	0.185
923	0.185
923	0.185
924	0.186
924	0.186
924	0.186
925	0.186
925	0.186
926	0.186
926	0.186
927	0.186
927	0.186
927	0.186
928	0.186
928	0.185
929	0.185
929	0.185
930	0.184
930	0.184
930	0.184
931	0.184
931	0.184
932	0.184
932	0.184
933	0.184
933	0.184
933	0.184
934	0.184
934	0.183
935	0.183
935	0.182
935	0.181
936	0.181
936	0.18
937	0.179
937	0.178
938	0.178
938	0.177
938	0.176
939	0.176
939	0.175
940	0.175
940	0.174
941	0.174
941	0.174
941	0.174
942	0.174
942	0.173
943	0.173
943	0.173
944	0.172
944	0.172
944	0.172
945	0.171
945	0.17
946	0.17
946	0.169
946	0.169
947	0.168
947	0.168
948	0.167
948	0.167
949	0.166
949	0.166
949	0.166
950	0.165
950	0.166
951	0.165
951	0.165
952	0.164
952	0.164
952	0.164
953	0.164
953	0.163
954	0.163
954	0.162
955	0.162
955	0.162
955	0.162
956	0.162
956	0.162
957	0.163
957	0.163
957	0.164
958	0.164
958	0.164
959	0.164
959	0.164
960	0.165
960	0.165
960	0.164
961	0.164
961	0.164
962	0.163
962	0.163
963	0.162
963	0.162
963	0.162
964	0.161
964	0.161
965	0.161
965	0.161
966	0.161
966	0.161
966	0.161
967	0.16
967	0.16
968	0.16
968	0.16
968	0.16
969	0.159
969	0.159
970	0.159
970	0.158
971	0.158
971	0.157
971	0.157
972	0.157
972	0.156
973	0.156
973	0.155
974	0.155
974	0.155
974	0.154
975	0.154
975	0.153
976	0.153
976	0.153
976	0.152
977	0.152
977	0.152
978	0.151
978	0.151
979	0.151
979	0.15
979	0.15
980	0.149
980	0.149
981	0.148
981	0.147
982	0.146
982	0.146
982	0.145
983	0.144
983	0.144
984	0.143
984	0.143
984	0.142
985	0.141
985	0.141
986	0.14
986	0.139
987	0.139
987	0.138
987	0.137
988	0.137
988	0.136
989	0.136
989	0.135
990	0.134
990	0.134
990	0.134
991	0.133
991	0.133
992	0.132
992	0.132
992	0.131
993	0.13
993	0.129
994	0.129
994	0.128
995	0.128
995	0.127
995	0.127
996	0.127
996	0.128
997	0.128
997	0.129
997	0.13
998	0.13
998	0.131
999	0.132
999	0.133
1000	0.134
1000	0.135
1000	0.135
1001	0.136
1001	0.136
1002	0.136
1002	0.136
1003	0.136
1003	0.135
1003	0.135
1004	0.134
1004	0.134
1005	0.133
1005	0.133
1005	0.132
1006	0.132
1006	0.132
1007	0.131
1007	0.131
1008	0.131
1008	0.131
1008	0.131
1009	0.131
1009	0.131
1010	0.131
1010	0.131
1010	0.131
1011	0.131
1011	0.131
1012	0.131
1012	0.131
1013	0.131
1013	0.13
1013	0.13
1014	0.129
1014	0.129
1015	0.129
1015	0.128
1016	0.128
1016	0.127
1016	0.127
1017	0.126
1017	0.125
1018	0.125
1018	0.124
1018	0.123
1019	0.123
1019	0.122
1020	0.121
1020	0.121
1021	0.121
1021	0.121
1021	0.12
1022	0.12
1022	0.12
1023	0.12
1023	0.119
1023	0.119
1024	0.119
1024	0.119
1025	0.119
1025	0.119
1026	0.118
1026	0.118
1026	0.118
1027	0.117
1027	0.117
1028	0.117
1028	0.116
1028	0.116
1029	0.116
1029	0.116
1030	0.115
1030	0.115
1031	0.115
1031	0.115
1031	0.115
1032	0.114
1032	0.114
1033	0.114
1033	0.114
1033	0.113
1034	0.113
1034	0.112
1035	0.112
1035	0.112
1036	0.111
1036	0.111
1036	0.111
1037	0.111
1037	0.111
1038	0.111
1038	0.111
1039	0.111
1039	0.111
1039	0.111
1040	0.112
1040	0.112
1041	0.112
1041	0.112
1041	0.113
1042	0.113
1042	0.113
1043	0.113
1043	0.114
1044	0.114
1044	0.114
1044	0.114
1045	0.114
1045	0.114
1046	0.114
1046	0.114
1046	0.115
1047	0.115
1047	0.115
1048	0.115
1048	0.115
1049	0.115
1049	0.115
1049	0.115
1050	0.114
1050	0.114
1051	0.113
1051	0.112
1051	0.112
1052	0.111
1052	0.11
1053	0.109
1053	0.108
1053	0.107
1054	0.106
1054	0.105
1055	0.105
1055	0.105
1056	0.104
1056	0.103
1056	0.102
1057	0.101
1057	0.1
1058	0.1
1058	0.099
1058	0.098
1059	0.097
1059	0.097
1060	0.096
1060	0.095
1061	0.095
1061	0.095
1061	0.095
1062	0.094
1062	0.094
1063	0.094
1063	0.094
1063	0.094
1064	0.094
1064	0.095
1065	0.095
1065	0.095
1066	0.095
1066	0.095
1066	0.095
1067	0.094
1067	0.094
1068	0.094
1068	0.094
1068	0.093
1069	0.092
1069	0.091
1070	0.09
1070	0.09
1071	0.089
1071	0.088
1071	0.087
1072	0.087
1072	0.086
1073	0.085
1073	0.084
1073	0.084
1074	0.084
1074	0.084
1075	0.084
1075	0.085
1076	0.085
1076	0.085
1076	0.085
1077	0.086
1077	0.086
1078	0.086
1078	0.086
1078	0.086
1079	0.086
1079	0.086
1080	0.085
1080	0.085
1080	0.085
1081	0.085
1081	0.085
1082	0.085
1082	0.086
1083	0.085
1083	0.085
1083	0.085
1084	0.085
1084	0.085
1085	0.085
1085	0.084
1085	0.084
1086	0.084
1086	0.083
1087	0.083
1087	0.082
1088	0.083
1088	0.083
1088	0.083
1089	0.082
1089	0.082
1090	0.081
1090	0.081
1090	0.08
1091	0.079
1091	0.079
1092	0.078
1092	0.078
1092	0.077
1093	0.077
1093	0.077
1094	0.077
1094	0.077
1095	0.076
1095	0.076
1095	0.077
1096	0.076
1096	0.076
1097	0.075
1097	0.074
1097	0.074
1098	0.074
1098	0.072
1099	0.072
1099	0.071
1100	0.07
1100	0.069
1100	0.067
1101	0.067
1101	0.066
1102	0.065
1102	0.064
1102	0.062
1103	0.062
1103	0.062
1104	0.061
1104	0.061
1104	0.06
1105	0.06
1105	0.057
1106	0.056
1106	0.055
1107	0.055
1107	0.054
1107	0.054
1108	0.052
1108	0.052
1109	0.049
1109	0.048
1109	0.047
1110	0.05
1110	0.051
1111	0.053
1111	0.048
