Data from reversibility-20sec_Absorbance__4130__000000000004130.txt Node

Date: Wed Dec 06 11:09:46 CET 2023
User: Marek
Spectrometer: MAYP115816
Trigger mode: 0
Integration Time (sec): 2.000000E-1
Scans to average: 10
Electric dark correction enabled: true
Nonlinearity correction enabled: true
Boxcar width: 5
XAxis mode: Wavelengths
Number of Pixels in Spectrum: 2068
>>>>>Begin Spectral Data<<<<<
199	-0.101
199	-0.076
200	-0.017
200	0.036
201	0.064
201	0.08
202	0.093
202	0.104
203	0.111
203	0.113
204	0.128
204	0.143
205	0.157
205	0.165
205	0.163
206	0.163
206	0.162
207	0.164
207	0.163
208	0.161
208	0.163
209	0.165
209	0.164
210	0.162
210	0.162
211	0.162
211	0.163
212	0.16
212	0.162
213	0.165
213	0.167
213	0.167
214	0.168
214	0.17
215	0.173
215	0.171
216	0.173
216	0.175
217	0.179
217	0.181
218	0.179
218	0.184
219	0.189
219	0.187
220	0.186
220	0.185
221	0.189
221	0.193
221	0.195
222	0.202
222	0.208
223	0.214
223	0.216
224	0.22
224	0.229
225	0.242
225	0.254
226	0.266
226	0.274
227	0.286
227	0.295
228	0.307
228	0.322
229	0.337
229	0.361
229	0.384
230	0.406
230	0.432
231	0.462
231	0.5
232	0.538
232	0.583
233	0.626
233	0.673
234	0.725
234	0.777
235	0.828
235	0.88
236	0.934
236	0.985
236	1.038
237	1.089
237	1.138
238	1.185
238	1.233
239	1.28
239	1.32
240	1.363
240	1.399
241	1.43
241	1.464
242	1.497
242	1.529
243	1.557
243	1.581
243	1.603
244	1.625
244	1.648
245	1.665
245	1.687
246	1.707
246	1.724
247	1.733
247	1.744
248	1.758
248	1.772
249	1.781
249	1.785
250	1.79
250	1.798
250	1.8
251	1.804
251	1.802
252	1.806
252	1.805
253	1.804
253	1.798
254	1.796
254	1.795
255	1.791
255	1.787
256	1.786
256	1.783
257	1.784
257	1.781
258	1.78
258	1.779
258	1.78
259	1.781
259	1.782
260	1.783
260	1.786
261	1.785
261	1.789
262	1.791
262	1.794
263	1.796
263	1.798
264	1.797
264	1.799
265	1.8
265	1.801
265	1.8
266	1.802
266	1.801
267	1.799
267	1.8
268	1.8
268	1.802
269	1.806
269	1.806
270	1.806
270	1.806
271	1.805
271	1.803
272	1.8
272	1.798
272	1.793
273	1.787
273	1.777
274	1.769
274	1.759
275	1.75
275	1.741
276	1.732
276	1.723
277	1.714
277	1.703
278	1.692
278	1.677
278	1.663
279	1.645
279	1.623
280	1.594
280	1.56
281	1.521
281	1.478
282	1.433
282	1.389
283	1.344
283	1.302
284	1.261
284	1.222
285	1.185
285	1.152
285	1.123
286	1.098
286	1.076
287	1.056
287	1.04
288	1.026
288	1.014
289	1.005
289	0.996
290	0.989
290	0.983
291	0.977
291	0.972
292	0.968
292	0.964
292	0.96
293	0.957
293	0.954
294	0.951
294	0.948
295	0.945
295	0.943
296	0.94
296	0.937
297	0.935
297	0.932
298	0.93
298	0.927
298	0.924
299	0.922
299	0.92
300	0.917
300	0.914
301	0.912
301	0.91
302	0.908
302	0.906
303	0.904
303	0.902
304	0.9
304	0.898
305	0.896
305	0.894
305	0.892
306	0.889
306	0.887
307	0.885
307	0.882
308	0.88
308	0.878
309	0.875
309	0.873
310	0.87
310	0.867
311	0.865
311	0.862
311	0.859
312	0.856
312	0.852
313	0.849
313	0.846
314	0.842
314	0.838
315	0.834
315	0.83
316	0.826
316	0.822
317	0.817
317	0.813
318	0.808
318	0.803
318	0.798
319	0.793
319	0.788
320	0.782
320	0.776
321	0.771
321	0.765
322	0.759
322	0.753
323	0.746
323	0.74
324	0.734
324	0.727
324	0.721
325	0.714
325	0.708
326	0.701
326	0.695
327	0.688
327	0.681
328	0.675
328	0.668
329	0.661
329	0.654
330	0.647
330	0.64
330	0.633
331	0.627
331	0.62
332	0.613
332	0.606
333	0.599
333	0.592
334	0.586
334	0.579
335	0.573
335	0.566
336	0.559
336	0.552
336	0.546
337	0.54
337	0.534
338	0.528
338	0.522
339	0.516
339	0.51
340	0.504
340	0.499
341	0.493
341	0.488
342	0.483
342	0.477
342	0.472
343	0.467
343	0.462
344	0.457
344	0.452
345	0.448
345	0.443
346	0.439
346	0.434
347	0.43
347	0.426
348	0.422
348	0.418
348	0.414
349	0.41
349	0.407
350	0.403
350	0.4
351	0.397
351	0.394
352	0.391
352	0.388
353	0.385
353	0.382
354	0.379
354	0.377
354	0.374
355	0.371
355	0.368
356	0.366
356	0.363
357	0.36
357	0.357
358	0.355
358	0.352
359	0.35
359	0.347
360	0.346
360	0.344
360	0.342
361	0.34
361	0.338
362	0.337
362	0.336
363	0.334
363	0.332
364	0.33
364	0.329
365	0.327
365	0.325
366	0.323
366	0.321
366	0.32
367	0.318
367	0.317
368	0.315
368	0.314
369	0.312
369	0.311
370	0.309
370	0.308
371	0.307
371	0.306
372	0.305
372	0.303
372	0.302
373	0.301
373	0.3
374	0.299
374	0.298
375	0.297
375	0.297
376	0.296
376	0.295
377	0.294
377	0.293
378	0.292
378	0.292
378	0.291
379	0.29
379	0.29
380	0.289
380	0.288
381	0.288
381	0.287
382	0.286
382	0.286
383	0.285
383	0.285
383	0.284
384	0.284
384	0.283
385	0.283
385	0.282
386	0.282
386	0.281
387	0.281
387	0.28
388	0.28
388	0.279
389	0.279
389	0.279
389	0.278
390	0.278
390	0.277
391	0.277
391	0.277
392	0.277
392	0.277
393	0.276
393	0.276
394	0.275
394	0.275
394	0.275
395	0.274
395	0.274
396	0.274
396	0.273
397	0.273
397	0.273
398	0.272
398	0.272
399	0.272
399	0.272
400	0.271
400	0.271
400	0.271
401	0.271
401	0.27
402	0.27
402	0.27
403	0.27
403	0.269
404	0.269
404	0.269
405	0.269
405	0.268
405	0.268
406	0.268
406	0.267
407	0.267
407	0.267
408	0.266
408	0.266
409	0.266
409	0.265
410	0.265
410	0.265
411	0.265
411	0.265
411	0.264
412	0.264
412	0.264
413	0.264
413	0.264
414	0.263
414	0.263
415	0.263
415	0.263
416	0.262
416	0.262
416	0.262
417	0.261
417	0.261
418	0.261
418	0.261
419	0.26
419	0.26
420	0.259
420	0.259
421	0.259
421	0.258
421	0.258
422	0.258
422	0.257
423	0.257
423	0.256
424	0.256
424	0.256
425	0.255
425	0.255
426	0.255
426	0.255
427	0.254
427	0.254
427	0.254
428	0.254
428	0.253
429	0.253
429	0.253
430	0.253
430	0.252
431	0.252
431	0.252
432	0.252
432	0.252
432	0.252
433	0.251
433	0.251
434	0.251
434	0.251
435	0.251
435	0.251
436	0.25
436	0.25
437	0.25
437	0.249
437	0.249
438	0.249
438	0.248
439	0.248
439	0.248
440	0.248
440	0.247
441	0.247
441	0.247
442	0.247
442	0.247
442	0.246
443	0.246
443	0.246
444	0.246
444	0.246
445	0.245
445	0.245
446	0.245
446	0.245
447	0.245
447	0.244
447	0.244
448	0.244
448	0.244
449	0.244
449	0.243
450	0.243
450	0.243
451	0.243
451	0.243
452	0.242
452	0.242
452	0.242
453	0.242
453	0.242
454	0.241
454	0.241
455	0.241
455	0.241
456	0.241
456	0.24
457	0.24
457	0.24
458	0.24
458	0.239
458	0.239
459	0.239
459	0.239
460	0.239
460	0.239
461	0.239
461	0.238
462	0.238
462	0.238
463	0.238
463	0.237
463	0.237
464	0.237
464	0.236
465	0.236
465	0.236
466	0.236
466	0.236
467	0.236
467	0.236
467	0.235
468	0.235
468	0.235
469	0.235
469	0.235
470	0.235
470	0.235
471	0.235
471	0.235
472	0.235
472	0.235
472	0.235
473	0.235
473	0.235
474	0.235
474	0.235
475	0.235
475	0.235
476	0.234
476	0.235
477	0.235
477	0.235
477	0.235
478	0.235
478	0.235
479	0.235
479	0.235
480	0.235
480	0.235
481	0.235
481	0.235
482	0.235
482	0.235
482	0.235
483	0.236
483	0.236
484	0.236
484	0.236
485	0.236
485	0.236
486	0.236
486	0.236
487	0.236
487	0.236
487	0.236
488	0.236
488	0.236
489	0.236
489	0.237
490	0.237
490	0.237
491	0.238
491	0.238
492	0.239
492	0.239
492	0.239
493	0.24
493	0.241
494	0.241
494	0.242
495	0.242
495	0.243
496	0.243
496	0.243
496	0.244
497	0.244
497	0.245
498	0.245
498	0.245
499	0.246
499	0.246
500	0.247
500	0.247
501	0.248
501	0.248
501	0.248
502	0.249
502	0.249
503	0.249
503	0.25
504	0.251
504	0.251
505	0.252
505	0.252
506	0.252
506	0.252
506	0.253
507	0.253
507	0.254
508	0.254
508	0.254
509	0.255
509	0.255
510	0.255
510	0.256
511	0.256
511	0.257
511	0.257
512	0.258
512	0.258
513	0.259
513	0.259
514	0.26
514	0.261
515	0.261
515	0.262
515	0.262
516	0.263
516	0.263
517	0.264
517	0.264
518	0.264
518	0.264
519	0.264
519	0.264
520	0.265
520	0.265
520	0.265
521	0.265
521	0.265
522	0.266
522	0.266
523	0.267
523	0.267
524	0.267
524	0.268
524	0.268
525	0.268
525	0.268
526	0.268
526	0.268
527	0.268
527	0.268
528	0.268
528	0.268
529	0.268
529	0.268
529	0.268
530	0.268
530	0.268
531	0.268
531	0.269
532	0.268
532	0.268
533	0.268
533	0.268
533	0.268
534	0.267
534	0.267
535	0.267
535	0.267
536	0.267
536	0.267
537	0.267
537	0.267
538	0.267
538	0.267
538	0.266
539	0.267
539	0.266
540	0.266
540	0.265
541	0.265
541	0.264
542	0.264
542	0.264
542	0.264
543	0.264
543	0.264
544	0.263
544	0.263
545	0.263
545	0.263
546	0.263
546	0.263
547	0.262
547	0.262
547	0.262
548	0.261
548	0.261
549	0.261
549	0.26
550	0.26
550	0.259
551	0.259
551	0.258
551	0.258
552	0.258
552	0.258
553	0.257
553	0.257
554	0.256
554	0.256
555	0.255
555	0.255
556	0.254
556	0.254
556	0.254
557	0.253
557	0.253
558	0.253
558	0.253
559	0.253
559	0.253
560	0.253
560	0.253
560	0.253
561	0.253
561	0.252
562	0.252
562	0.251
563	0.25
563	0.249
564	0.248
564	0.248
564	0.247
565	0.247
565	0.247
566	0.247
566	0.246
567	0.246
567	0.246
568	0.246
568	0.245
568	0.245
569	0.245
569	0.245
570	0.244
570	0.243
571	0.243
571	0.242
572	0.242
572	0.241
573	0.241
573	0.241
573	0.241
574	0.24
574	0.24
575	0.24
575	0.24
576	0.24
576	0.239
577	0.239
577	0.238
577	0.238
578	0.237
578	0.236
579	0.236
579	0.236
580	0.236
580	0.235
581	0.235
581	0.234
581	0.235
582	0.235
582	0.235
583	0.235
583	0.234
584	0.234
584	0.233
585	0.232
585	0.232
585	0.232
586	0.231
586	0.231
587	0.23
587	0.23
588	0.229
588	0.229
589	0.229
589	0.228
590	0.228
590	0.228
590	0.229
591	0.229
591	0.228
592	0.228
592	0.227
593	0.227
593	0.226
594	0.226
594	0.225
594	0.224
595	0.224
595	0.223
596	0.223
596	0.223
597	0.224
597	0.224
598	0.224
598	0.224
598	0.224
599	0.224
599	0.224
600	0.223
600	0.223
601	0.222
601	0.222
602	0.221
602	0.221
602	0.22
603	0.219
603	0.22
604	0.22
604	0.22
605	0.22
605	0.22
606	0.22
606	0.219
606	0.219
607	0.219
607	0.219
608	0.219
608	0.218
609	0.218
609	0.217
610	0.217
610	0.217
610	0.217
611	0.216
611	0.216
612	0.216
612	0.216
613	0.217
613	0.216
614	0.216
614	0.216
614	0.216
615	0.216
615	0.215
616	0.215
616	0.215
617	0.215
617	0.215
618	0.214
618	0.214
618	0.214
619	0.214
619	0.214
620	0.215
620	0.214
621	0.214
621	0.214
622	0.213
622	0.213
622	0.212
623	0.212
623	0.212
624	0.211
624	0.211
625	0.211
625	0.21
626	0.21
626	0.21
626	0.21
627	0.21
627	0.21
628	0.21
628	0.21
629	0.21
629	0.21
630	0.209
630	0.209
630	0.209
631	0.209
631	0.209
632	0.209
632	0.209
633	0.209
633	0.208
634	0.209
634	0.209
634	0.209
635	0.208
635	0.208
636	0.208
636	0.208
637	0.208
637	0.207
638	0.207
638	0.207
638	0.206
639	0.206
639	0.206
640	0.206
640	0.206
641	0.206
641	0.205
642	0.205
642	0.206
642	0.206
643	0.206
643	0.206
644	0.207
644	0.207
645	0.207
645	0.207
646	0.207
646	0.207
646	0.207
647	0.206
647	0.206
648	0.206
648	0.205
649	0.205
649	0.204
650	0.204
650	0.204
650	0.204
651	0.204
651	0.204
652	0.204
652	0.204
653	0.205
653	0.207
653	0.212
654	0.166
654	0.132
655	0.134
655	0.134
656	0.134
656	0.135
657	0.135
657	0.136
657	0.136
658	0.134
658	0.124
659	0.156
659	0.202
660	0.206
660	0.206
661	0.206
661	0.205
661	0.205
662	0.205
662	0.205
663	0.205
663	0.205
664	0.205
664	0.205
665	0.204
665	0.204
665	0.204
666	0.204
666	0.204
667	0.203
667	0.204
668	0.204
668	0.203
669	0.203
669	0.203
669	0.204
670	0.204
670	0.204
671	0.204
671	0.204
672	0.204
672	0.203
672	0.203
673	0.203
673	0.204
674	0.204
674	0.204
675	0.204
675	0.204
676	0.204
676	0.205
676	0.205
677	0.205
677	0.205
678	0.204
678	0.204
679	0.204
679	0.204
680	0.204
680	0.203
680	0.203
681	0.203
681	0.203
682	0.203
682	0.203
683	0.203
683	0.204
684	0.204
684	0.204
684	0.204
685	0.204
685	0.204
686	0.204
686	0.204
687	0.204
687	0.205
687	0.205
688	0.205
688	0.205
689	0.206
689	0.207
690	0.207
690	0.207
691	0.207
691	0.207
691	0.208
692	0.208
692	0.208
693	0.209
693	0.209
694	0.209
694	0.209
695	0.21
695	0.211
695	0.211
696	0.211
696	0.211
697	0.211
697	0.211
698	0.21
698	0.21
698	0.21
699	0.21
699	0.21
700	0.209
700	0.209
701	0.209
701	0.209
702	0.208
702	0.208
702	0.208
703	0.207
703	0.207
704	0.206
704	0.206
705	0.206
705	0.206
705	0.206
706	0.206
706	0.206
707	0.206
707	0.207
708	0.207
708	0.207
709	0.208
709	0.208
709	0.208
710	0.208
710	0.208
711	0.209
711	0.209
712	0.209
712	0.209
713	0.21
713	0.21
713	0.21
714	0.21
714	0.209
715	0.209
715	0.209
716	0.209
716	0.208
716	0.208
717	0.207
717	0.207
718	0.206
718	0.206
719	0.206
719	0.207
720	0.207
720	0.208
720	0.208
721	0.209
721	0.21
722	0.211
722	0.212
723	0.213
723	0.213
723	0.214
724	0.213
724	0.213
725	0.213
725	0.212
726	0.211
726	0.211
727	0.21
727	0.209
727	0.209
728	0.209
728	0.208
729	0.209
729	0.209
730	0.209
730	0.209
730	0.21
731	0.211
731	0.211
732	0.212
732	0.213
733	0.213
733	0.214
734	0.214
734	0.214
734	0.215
735	0.215
735	0.215
736	0.214
736	0.214
737	0.214
737	0.213
737	0.213
738	0.212
738	0.211
739	0.211
739	0.211
740	0.211
740	0.211
741	0.211
741	0.211
741	0.211
742	0.211
742	0.212
743	0.213
743	0.214
744	0.214
744	0.215
744	0.215
745	0.215
745	0.215
746	0.215
746	0.215
747	0.215
747	0.216
748	0.216
748	0.216
748	0.215
749	0.215
749	0.216
750	0.216
750	0.215
751	0.215
751	0.215
751	0.215
752	0.215
752	0.214
753	0.214
753	0.214
754	0.214
754	0.214
754	0.214
755	0.214
755	0.215
756	0.214
756	0.214
757	0.214
757	0.214
758	0.214
758	0.215
758	0.215
759	0.215
759	0.215
760	0.215
760	0.215
761	0.215
761	0.215
761	0.216
762	0.216
762	0.216
763	0.216
763	0.216
764	0.216
764	0.216
764	0.216
765	0.215
765	0.215
766	0.214
766	0.214
767	0.213
767	0.212
768	0.211
768	0.21
768	0.21
769	0.21
769	0.21
770	0.211
770	0.211
771	0.212
771	0.212
771	0.213
772	0.214
772	0.215
773	0.215
773	0.216
774	0.216
774	0.217
775	0.217
775	0.218
775	0.218
776	0.219
776	0.219
777	0.219
777	0.22
778	0.22
778	0.22
778	0.219
779	0.219
779	0.219
780	0.218
780	0.218
781	0.217
781	0.217
781	0.217
782	0.217
782	0.217
783	0.217
783	0.217
784	0.217
784	0.217
784	0.218
785	0.218
785	0.218
786	0.219
786	0.219
787	0.219
787	0.219
788	0.219
788	0.218
788	0.218
789	0.217
789	0.217
790	0.217
790	0.216
791	0.216
791	0.215
791	0.215
792	0.215
792	0.216
793	0.216
793	0.216
794	0.216
794	0.216
794	0.216
795	0.217
795	0.217
796	0.218
796	0.218
797	0.218
797	0.218
797	0.219
798	0.219
798	0.219
799	0.22
799	0.22
800	0.219
800	0.219
801	0.219
801	0.219
801	0.219
802	0.219
802	0.219
803	0.219
803	0.22
804	0.22
804	0.221
804	0.222
805	0.222
805	0.223
806	0.223
806	0.223
807	0.223
807	0.223
807	0.223
808	0.223
808	0.223
809	0.223
809	0.222
810	0.222
810	0.222
810	0.222
811	0.222
811	0.222
812	0.222
812	0.222
813	0.222
813	0.222
813	0.223
814	0.223
814	0.224
815	0.225
815	0.225
816	0.225
816	0.225
817	0.224
817	0.224
817	0.224
818	0.223
818	0.223
819	0.223
819	0.222
820	0.222
820	0.221
820	0.221
821	0.221
821	0.221
822	0.221
822	0.221
823	0.221
823	0.221
823	0.222
824	0.223
824	0.224
825	0.225
825	0.226
826	0.226
826	0.227
826	0.227
827	0.228
827	0.228
828	0.229
828	0.228
829	0.228
829	0.228
829	0.228
830	0.228
830	0.228
831	0.229
831	0.229
832	0.229
832	0.229
832	0.23
833	0.23
833	0.23
834	0.23
834	0.23
835	0.23
835	0.23
835	0.23
836	0.23
836	0.23
837	0.23
837	0.23
838	0.229
838	0.229
839	0.229
839	0.228
839	0.228
840	0.227
840	0.226
841	0.226
841	0.225
842	0.225
842	0.224
842	0.223
843	0.223
843	0.223
844	0.223
844	0.223
845	0.223
845	0.223
845	0.223
846	0.223
846	0.223
847	0.223
847	0.223
848	0.224
848	0.224
848	0.224
849	0.225
849	0.225
850	0.225
850	0.226
851	0.226
851	0.226
851	0.226
852	0.226
852	0.225
853	0.225
853	0.225
854	0.225
854	0.225
854	0.226
855	0.226
855	0.226
856	0.227
856	0.227
857	0.227
857	0.227
857	0.227
858	0.227
858	0.226
859	0.225
859	0.224
860	0.224
860	0.223
860	0.222
861	0.221
861	0.22
862	0.22
862	0.219
863	0.219
863	0.219
863	0.219
864	0.219
864	0.22
865	0.22
865	0.22
866	0.22
866	0.22
866	0.22
867	0.22
867	0.22
868	0.219
868	0.219
869	0.219
869	0.218
869	0.217
870	0.217
870	0.216
871	0.216
871	0.216
872	0.216
872	0.216
872	0.216
873	0.216
873	0.216
874	0.216
874	0.215
875	0.215
875	0.215
875	0.215
876	0.215
876	0.215
877	0.215
877	0.215
878	0.216
878	0.216
878	0.217
879	0.218
879	0.219
880	0.22
880	0.22
881	0.22
881	0.221
881	0.221
882	0.221
882	0.22
883	0.22
883	0.22
884	0.22
884	0.219
884	0.219
885	0.218
885	0.218
886	0.218
886	0.217
887	0.217
887	0.216
887	0.215
888	0.215
888	0.214
889	0.214
889	0.213
890	0.213
890	0.213
890	0.213
891	0.212
891	0.212
892	0.212
892	0.212
893	0.212
893	0.212
893	0.211
894	0.211
894	0.21
895	0.21
895	0.21
895	0.209
896	0.209
896	0.209
897	0.208
897	0.208
898	0.208
898	0.207
898	0.207
899	0.207
899	0.207
900	0.206
900	0.206
901	0.206
901	0.206
901	0.206
902	0.206
902	0.205
903	0.205
903	0.205
904	0.205
904	0.205
904	0.205
905	0.205
905	0.205
906	0.205
906	0.206
907	0.206
907	0.207
907	0.207
908	0.207
908	0.208
909	0.208
909	0.208
910	0.208
910	0.207
910	0.206
911	0.206
911	0.205
912	0.204
912	0.204
913	0.203
913	0.202
913	0.201
914	0.2
914	0.199
915	0.199
915	0.198
916	0.197
916	0.196
916	0.195
917	0.194
917	0.194
918	0.193
918	0.192
918	0.191
919	0.191
919	0.19
920	0.189
920	0.189
921	0.189
921	0.188
921	0.188
922	0.188
922	0.188
923	0.189
923	0.189
924	0.19
924	0.191
924	0.191
925	0.192
925	0.193
926	0.193
926	0.194
927	0.194
927	0.194
927	0.194
928	0.194
928	0.193
929	0.193
929	0.193
930	0.193
930	0.192
930	0.192
931	0.192
931	0.192
932	0.192
932	0.192
933	0.192
933	0.192
933	0.192
934	0.192
934	0.192
935	0.192
935	0.192
935	0.192
936	0.192
936	0.191
937	0.191
937	0.19
938	0.19
938	0.189
938	0.189
939	0.188
939	0.187
940	0.186
940	0.186
941	0.185
941	0.184
941	0.184
942	0.183
942	0.182
943	0.181
943	0.18
944	0.179
944	0.179
944	0.178
945	0.177
945	0.176
946	0.175
946	0.174
946	0.174
947	0.173
947	0.173
948	0.172
948	0.172
949	0.172
949	0.172
949	0.171
950	0.171
950	0.171
951	0.171
951	0.171
952	0.17
952	0.17
952	0.169
953	0.169
953	0.168
954	0.168
954	0.167
955	0.167
955	0.166
955	0.166
956	0.166
956	0.166
957	0.166
957	0.166
957	0.166
958	0.166
958	0.166
959	0.167
959	0.167
960	0.167
960	0.167
960	0.167
961	0.166
961	0.166
962	0.166
962	0.166
963	0.166
963	0.166
963	0.166
964	0.166
964	0.166
965	0.166
965	0.166
966	0.167
966	0.167
966	0.167
967	0.167
967	0.167
968	0.168
968	0.167
968	0.167
969	0.167
969	0.166
970	0.165
970	0.165
971	0.164
971	0.163
971	0.163
972	0.162
972	0.161
973	0.16
973	0.16
974	0.159
974	0.159
974	0.158
975	0.158
975	0.158
976	0.158
976	0.158
976	0.157
977	0.157
977	0.157
978	0.156
978	0.156
979	0.155
979	0.155
979	0.154
980	0.154
980	0.153
981	0.152
981	0.152
982	0.151
982	0.15
982	0.15
983	0.15
983	0.149
984	0.149
984	0.149
984	0.148
985	0.148
985	0.148
986	0.147
986	0.147
987	0.146
987	0.146
987	0.146
988	0.146
988	0.145
989	0.145
989	0.144
990	0.144
990	0.143
990	0.143
991	0.142
991	0.142
992	0.141
992	0.141
992	0.14
993	0.139
993	0.139
994	0.138
994	0.137
995	0.137
995	0.136
995	0.136
996	0.136
996	0.136
997	0.136
997	0.136
997	0.137
998	0.137
998	0.138
999	0.138
999	0.139
1000	0.139
1000	0.139
1000	0.139
1001	0.14
1001	0.139
1002	0.139
1002	0.139
1003	0.139
1003	0.138
1003	0.138
1004	0.137
1004	0.136
1005	0.136
1005	0.135
1005	0.135
1006	0.134
1006	0.134
1007	0.133
1007	0.133
1008	0.133
1008	0.133
1008	0.133
1009	0.133
1009	0.134
1010	0.134
1010	0.134
1010	0.135
1011	0.135
1011	0.135
1012	0.135
1012	0.135
1013	0.135
1013	0.134
1013	0.134
1014	0.134
1014	0.133
1015	0.132
1015	0.131
1016	0.131
1016	0.13
1016	0.129
1017	0.128
1017	0.127
1018	0.127
1018	0.126
1018	0.126
1019	0.125
1019	0.125
1020	0.125
1020	0.124
1021	0.124
1021	0.124
1021	0.124
1022	0.125
1022	0.124
1023	0.124
1023	0.124
1023	0.125
1024	0.125
1024	0.124
1025	0.124
1025	0.124
1026	0.124
1026	0.123
1026	0.123
1027	0.122
1027	0.122
1028	0.121
1028	0.121
1028	0.121
1029	0.12
1029	0.12
1030	0.12
1030	0.12
1031	0.12
1031	0.12
1031	0.12
1032	0.12
1032	0.12
1033	0.12
1033	0.12
1033	0.119
1034	0.119
1034	0.118
1035	0.118
1035	0.117
1036	0.117
1036	0.116
1036	0.116
1037	0.116
1037	0.115
1038	0.115
1038	0.115
1039	0.115
1039	0.116
1039	0.116
1040	0.116
1040	0.116
1041	0.117
1041	0.117
1041	0.117
1042	0.117
1042	0.117
1043	0.117
1043	0.117
1044	0.117
1044	0.117
1044	0.118
1045	0.118
1045	0.118
1046	0.118
1046	0.118
1046	0.119
1047	0.119
1047	0.119
1048	0.119
1048	0.12
1049	0.12
1049	0.12
1049	0.12
1050	0.12
1050	0.12
1051	0.12
1051	0.119
1051	0.119
1052	0.119
1052	0.118
1053	0.118
1053	0.117
1053	0.117
1054	0.116
1054	0.116
1055	0.115
1055	0.115
1056	0.114
1056	0.114
1056	0.113
1057	0.112
1057	0.112
1058	0.111
1058	0.11
1058	0.109
1059	0.108
1059	0.108
1060	0.107
1060	0.107
1061	0.107
1061	0.107
1061	0.107
1062	0.107
1062	0.107
1063	0.107
1063	0.107
1063	0.107
1064	0.107
1064	0.107
1065	0.106
1065	0.106
1066	0.106
1066	0.106
1066	0.105
1067	0.104
1067	0.104
1068	0.103
1068	0.103
1068	0.102
1069	0.102
1069	0.101
1070	0.1
1070	0.1
1071	0.099
1071	0.098
1071	0.098
1072	0.097
1072	0.097
1073	0.096
1073	0.096
1073	0.096
1074	0.096
1074	0.096
1075	0.096
1075	0.096
1076	0.096
1076	0.096
1076	0.097
1077	0.097
1077	0.097
1078	0.097
1078	0.097
1078	0.097
1079	0.097
1079	0.097
1080	0.097
1080	0.097
1080	0.096
1081	0.096
1081	0.096
1082	0.096
1082	0.096
1083	0.096
1083	0.095
1083	0.096
1084	0.095
1084	0.095
1085	0.095
1085	0.095
1085	0.095
1086	0.095
1086	0.094
1087	0.094
1087	0.093
1088	0.093
1088	0.092
1088	0.091
1089	0.091
1089	0.09
1090	0.09
1090	0.089
1090	0.088
1091	0.088
1091	0.088
1092	0.088
1092	0.088
1092	0.087
1093	0.087
1093	0.088
1094	0.088
1094	0.087
1095	0.087
1095	0.087
1095	0.087
1096	0.086
1096	0.087
1097	0.086
1097	0.086
1097	0.086
1098	0.085
1098	0.084
1099	0.083
1099	0.082
1100	0.081
1100	0.08
1100	0.079
1101	0.078
1101	0.077
1102	0.077
1102	0.076
1102	0.075
1103	0.074
1103	0.073
1104	0.073
1104	0.075
1104	0.074
1105	0.073
1105	0.071
1106	0.069
1106	0.068
1107	0.067
1107	0.067
1107	0.067
1108	0.066
1108	0.065
1109	0.061
1109	0.061
1109	0.061
1110	0.063
1110	0.066
1111	0.067
1111	0.062
