Data from reversibility-20sec_Absorbance__3457__000000000003457.txt Node

Date: Wed Dec 06 07:25:25 CET 2023
User: Marek
Spectrometer: MAYP115816
Trigger mode: 0
Integration Time (sec): 2.000000E-1
Scans to average: 10
Electric dark correction enabled: true
Nonlinearity correction enabled: true
Boxcar width: 5
XAxis mode: Wavelengths
Number of Pixels in Spectrum: 2068
>>>>>Begin Spectral Data<<<<<
199	-0.062
199	-0.026
200	0.026
200	0.075
201	0.099
201	0.115
202	0.124
202	0.135
203	0.138
203	0.142
204	0.156
204	0.168
205	0.177
205	0.184
205	0.181
206	0.18
206	0.178
207	0.178
207	0.175
208	0.176
208	0.175
209	0.174
209	0.174
210	0.173
210	0.175
211	0.176
211	0.18
212	0.18
212	0.183
213	0.185
213	0.186
213	0.187
214	0.19
214	0.191
215	0.192
215	0.193
216	0.192
216	0.191
217	0.192
217	0.193
218	0.193
218	0.198
219	0.204
219	0.205
220	0.208
220	0.209
221	0.205
221	0.209
221	0.215
222	0.226
222	0.232
223	0.239
223	0.24
224	0.242
224	0.252
225	0.262
225	0.273
226	0.287
226	0.296
227	0.305
227	0.311
228	0.324
228	0.337
229	0.353
229	0.377
229	0.397
230	0.42
230	0.45
231	0.481
231	0.521
232	0.558
232	0.6
233	0.644
233	0.692
234	0.744
234	0.797
235	0.848
235	0.902
236	0.951
236	1.005
236	1.057
237	1.11
237	1.161
238	1.208
238	1.254
239	1.3
239	1.339
240	1.379
240	1.414
241	1.449
241	1.484
242	1.516
242	1.548
243	1.576
243	1.601
243	1.628
244	1.647
244	1.668
245	1.686
245	1.708
246	1.726
246	1.74
247	1.748
247	1.758
248	1.77
248	1.782
249	1.789
249	1.796
250	1.803
250	1.808
250	1.808
251	1.81
251	1.811
252	1.815
252	1.814
253	1.813
253	1.811
254	1.808
254	1.807
255	1.805
255	1.803
256	1.803
256	1.801
257	1.799
257	1.797
258	1.798
258	1.796
258	1.794
259	1.794
259	1.795
260	1.795
260	1.797
261	1.797
261	1.8
262	1.803
262	1.804
263	1.806
263	1.808
264	1.811
264	1.812
265	1.811
265	1.811
265	1.812
266	1.812
266	1.813
267	1.811
267	1.811
268	1.812
268	1.813
269	1.814
269	1.813
270	1.813
270	1.812
271	1.809
271	1.808
272	1.803
272	1.8
272	1.795
273	1.789
273	1.781
274	1.773
274	1.766
275	1.757
275	1.749
276	1.74
276	1.733
277	1.724
277	1.714
278	1.702
278	1.689
278	1.673
279	1.654
279	1.63
280	1.602
280	1.568
281	1.527
281	1.483
282	1.438
282	1.392
283	1.347
283	1.305
284	1.264
284	1.225
285	1.188
285	1.155
285	1.126
286	1.101
286	1.079
287	1.06
287	1.044
288	1.031
288	1.019
289	1.01
289	1.001
290	0.994
290	0.988
291	0.983
291	0.978
292	0.974
292	0.97
292	0.967
293	0.964
293	0.961
294	0.958
294	0.955
295	0.952
295	0.95
296	0.947
296	0.944
297	0.942
297	0.939
298	0.937
298	0.934
298	0.932
299	0.929
299	0.927
300	0.924
300	0.922
301	0.92
301	0.918
302	0.915
302	0.913
303	0.911
303	0.909
304	0.907
304	0.905
305	0.903
305	0.901
305	0.899
306	0.897
306	0.895
307	0.893
307	0.891
308	0.889
308	0.886
309	0.884
309	0.881
310	0.878
310	0.876
311	0.873
311	0.87
311	0.867
312	0.864
312	0.861
313	0.858
313	0.854
314	0.85
314	0.847
315	0.843
315	0.839
316	0.835
316	0.831
317	0.826
317	0.822
318	0.817
318	0.812
318	0.807
319	0.802
319	0.796
320	0.791
320	0.786
321	0.78
321	0.774
322	0.768
322	0.762
323	0.756
323	0.75
324	0.743
324	0.737
324	0.73
325	0.723
325	0.717
326	0.71
326	0.704
327	0.697
327	0.69
328	0.684
328	0.677
329	0.67
329	0.663
330	0.656
330	0.65
330	0.643
331	0.636
331	0.629
332	0.622
332	0.616
333	0.609
333	0.602
334	0.595
334	0.588
335	0.582
335	0.575
336	0.569
336	0.562
336	0.556
337	0.55
337	0.544
338	0.538
338	0.532
339	0.526
339	0.52
340	0.514
340	0.509
341	0.503
341	0.498
342	0.492
342	0.487
342	0.482
343	0.477
343	0.472
344	0.467
344	0.462
345	0.457
345	0.453
346	0.449
346	0.444
347	0.44
347	0.436
348	0.432
348	0.428
348	0.424
349	0.42
349	0.417
350	0.414
350	0.41
351	0.407
351	0.404
352	0.401
352	0.398
353	0.395
353	0.392
354	0.389
354	0.387
354	0.383
355	0.381
355	0.378
356	0.375
356	0.372
357	0.369
357	0.366
358	0.363
358	0.361
359	0.359
359	0.356
360	0.355
360	0.353
360	0.351
361	0.349
361	0.347
362	0.346
362	0.345
363	0.343
363	0.342
364	0.34
364	0.338
365	0.336
365	0.334
366	0.333
366	0.331
366	0.33
367	0.328
367	0.326
368	0.325
368	0.323
369	0.322
369	0.32
370	0.319
370	0.318
371	0.317
371	0.315
372	0.314
372	0.313
372	0.312
373	0.311
373	0.31
374	0.309
374	0.308
375	0.307
375	0.306
376	0.306
376	0.305
377	0.304
377	0.303
378	0.302
378	0.301
378	0.301
379	0.3
379	0.299
380	0.298
380	0.298
381	0.297
381	0.296
382	0.296
382	0.295
383	0.294
383	0.294
383	0.293
384	0.293
384	0.292
385	0.292
385	0.292
386	0.291
386	0.291
387	0.29
387	0.29
388	0.29
388	0.289
389	0.289
389	0.289
389	0.288
390	0.288
390	0.287
391	0.287
391	0.286
392	0.286
392	0.286
393	0.286
393	0.285
394	0.285
394	0.284
394	0.284
395	0.284
395	0.284
396	0.283
396	0.283
397	0.283
397	0.282
398	0.282
398	0.282
399	0.282
399	0.281
400	0.281
400	0.281
400	0.28
401	0.28
401	0.279
402	0.279
402	0.279
403	0.278
403	0.278
404	0.278
404	0.277
405	0.277
405	0.277
405	0.277
406	0.277
406	0.276
407	0.276
407	0.276
408	0.276
408	0.275
409	0.275
409	0.275
410	0.275
410	0.274
411	0.274
411	0.274
411	0.274
412	0.274
412	0.273
413	0.273
413	0.273
414	0.272
414	0.272
415	0.272
415	0.272
416	0.271
416	0.271
416	0.27
417	0.27
417	0.27
418	0.27
418	0.269
419	0.269
419	0.269
420	0.268
420	0.268
421	0.268
421	0.267
421	0.267
422	0.267
422	0.267
423	0.266
423	0.266
424	0.266
424	0.265
425	0.265
425	0.265
426	0.265
426	0.264
427	0.264
427	0.263
427	0.263
428	0.263
428	0.262
429	0.262
429	0.262
430	0.261
430	0.261
431	0.261
431	0.261
432	0.26
432	0.26
432	0.26
433	0.26
433	0.26
434	0.259
434	0.259
435	0.259
435	0.259
436	0.259
436	0.259
437	0.259
437	0.258
437	0.258
438	0.258
438	0.258
439	0.258
439	0.257
440	0.257
440	0.257
441	0.256
441	0.256
442	0.256
442	0.255
442	0.255
443	0.255
443	0.255
444	0.254
444	0.254
445	0.254
445	0.254
446	0.254
446	0.253
447	0.253
447	0.253
447	0.253
448	0.253
448	0.252
449	0.252
449	0.252
450	0.252
450	0.252
451	0.252
451	0.251
452	0.251
452	0.251
452	0.251
453	0.251
453	0.251
454	0.25
454	0.25
455	0.25
455	0.249
456	0.249
456	0.249
457	0.249
457	0.248
458	0.248
458	0.248
458	0.248
459	0.248
459	0.248
460	0.248
460	0.247
461	0.247
461	0.247
462	0.247
462	0.247
463	0.246
463	0.246
463	0.246
464	0.245
464	0.245
465	0.245
465	0.244
466	0.244
466	0.244
467	0.244
467	0.244
467	0.244
468	0.244
468	0.244
469	0.244
469	0.244
470	0.244
470	0.244
471	0.244
471	0.244
472	0.244
472	0.244
472	0.244
473	0.244
473	0.244
474	0.243
474	0.243
475	0.243
475	0.243
476	0.243
476	0.243
477	0.243
477	0.243
477	0.243
478	0.243
478	0.243
479	0.243
479	0.243
480	0.243
480	0.243
481	0.243
481	0.243
482	0.243
482	0.243
482	0.243
483	0.243
483	0.243
484	0.243
484	0.243
485	0.243
485	0.243
486	0.243
486	0.243
487	0.243
487	0.243
487	0.243
488	0.244
488	0.244
489	0.244
489	0.245
490	0.245
490	0.245
491	0.246
491	0.247
492	0.247
492	0.248
492	0.248
493	0.249
493	0.249
494	0.249
494	0.25
495	0.25
495	0.251
496	0.251
496	0.252
496	0.252
497	0.252
497	0.252
498	0.253
498	0.253
499	0.253
499	0.254
500	0.254
500	0.255
501	0.255
501	0.255
501	0.256
502	0.256
502	0.256
503	0.257
503	0.257
504	0.258
504	0.258
505	0.259
505	0.259
506	0.259
506	0.26
506	0.26
507	0.261
507	0.261
508	0.262
508	0.262
509	0.262
509	0.263
510	0.263
510	0.264
511	0.265
511	0.265
511	0.266
512	0.266
512	0.267
513	0.267
513	0.267
514	0.268
514	0.268
515	0.269
515	0.269
515	0.269
516	0.269
516	0.27
517	0.27
517	0.271
518	0.271
518	0.271
519	0.272
519	0.272
520	0.272
520	0.272
520	0.273
521	0.273
521	0.274
522	0.274
522	0.274
523	0.275
523	0.275
524	0.275
524	0.276
524	0.276
525	0.276
525	0.276
526	0.276
526	0.276
527	0.276
527	0.276
528	0.276
528	0.276
529	0.276
529	0.276
529	0.276
530	0.276
530	0.276
531	0.276
531	0.276
532	0.276
532	0.276
533	0.275
533	0.275
533	0.275
534	0.275
534	0.275
535	0.275
535	0.274
536	0.274
536	0.274
537	0.274
537	0.274
538	0.274
538	0.274
538	0.274
539	0.274
539	0.274
540	0.274
540	0.274
541	0.273
541	0.273
542	0.273
542	0.273
542	0.273
543	0.273
543	0.273
544	0.273
544	0.273
545	0.272
545	0.273
546	0.272
546	0.272
547	0.272
547	0.271
547	0.271
548	0.271
548	0.27
549	0.27
549	0.269
550	0.269
550	0.269
551	0.268
551	0.268
551	0.268
552	0.267
552	0.267
553	0.267
553	0.267
554	0.266
554	0.266
555	0.265
555	0.265
556	0.265
556	0.265
556	0.264
557	0.264
557	0.264
558	0.264
558	0.264
559	0.264
559	0.264
560	0.264
560	0.264
560	0.263
561	0.263
561	0.263
562	0.262
562	0.262
563	0.261
563	0.261
564	0.26
564	0.259
564	0.259
565	0.259
565	0.259
566	0.258
566	0.258
567	0.258
567	0.258
568	0.258
568	0.257
568	0.257
569	0.256
569	0.256
570	0.255
570	0.255
571	0.254
571	0.254
572	0.253
572	0.253
573	0.253
573	0.252
573	0.252
574	0.252
574	0.252
575	0.252
575	0.252
576	0.252
576	0.251
577	0.25
577	0.25
577	0.249
578	0.249
578	0.248
579	0.248
579	0.248
580	0.248
580	0.247
581	0.247
581	0.247
581	0.247
582	0.247
582	0.247
583	0.247
583	0.246
584	0.245
584	0.244
585	0.244
585	0.244
585	0.243
586	0.243
586	0.243
587	0.242
587	0.242
588	0.241
588	0.241
589	0.241
589	0.241
590	0.241
590	0.24
590	0.241
591	0.24
591	0.24
592	0.239
592	0.239
593	0.238
593	0.238
594	0.237
594	0.236
594	0.236
595	0.235
595	0.235
596	0.234
596	0.235
597	0.235
597	0.236
598	0.236
598	0.236
598	0.236
599	0.236
599	0.236
600	0.236
600	0.235
601	0.235
601	0.235
602	0.234
602	0.233
602	0.233
603	0.233
603	0.233
604	0.233
604	0.232
605	0.232
605	0.232
606	0.232
606	0.231
606	0.231
607	0.23
607	0.23
608	0.23
608	0.229
609	0.228
609	0.228
610	0.228
610	0.227
610	0.227
611	0.227
611	0.227
612	0.227
612	0.228
613	0.228
613	0.228
614	0.227
614	0.227
614	0.227
615	0.227
615	0.227
616	0.227
616	0.227
617	0.227
617	0.227
618	0.226
618	0.227
618	0.227
619	0.227
619	0.226
620	0.226
620	0.226
621	0.226
621	0.226
622	0.225
622	0.225
622	0.224
623	0.224
623	0.224
624	0.224
624	0.223
625	0.223
625	0.223
626	0.223
626	0.222
626	0.223
627	0.223
627	0.222
628	0.222
628	0.222
629	0.222
629	0.222
630	0.221
630	0.221
630	0.221
631	0.222
631	0.221
632	0.221
632	0.221
633	0.221
633	0.221
634	0.222
634	0.222
634	0.222
635	0.222
635	0.222
636	0.221
636	0.222
637	0.221
637	0.221
638	0.221
638	0.22
638	0.22
639	0.219
639	0.219
640	0.219
640	0.219
641	0.218
641	0.218
642	0.218
642	0.218
642	0.218
643	0.218
643	0.218
644	0.219
644	0.219
645	0.219
645	0.219
646	0.219
646	0.22
646	0.22
647	0.22
647	0.219
648	0.219
648	0.218
649	0.218
649	0.218
650	0.218
650	0.218
650	0.218
651	0.217
651	0.217
652	0.217
652	0.218
653	0.218
653	0.22
653	0.225
654	0.175
654	0.139
655	0.141
655	0.142
656	0.142
656	0.143
657	0.143
657	0.144
657	0.144
658	0.142
658	0.132
659	0.167
659	0.216
660	0.22
660	0.219
661	0.218
661	0.218
661	0.218
662	0.217
662	0.217
663	0.216
663	0.216
664	0.216
664	0.216
665	0.216
665	0.216
665	0.216
666	0.216
666	0.217
667	0.217
667	0.217
668	0.217
668	0.217
669	0.218
669	0.218
669	0.218
670	0.219
670	0.219
671	0.218
671	0.218
672	0.218
672	0.217
672	0.216
673	0.216
673	0.215
674	0.215
674	0.215
675	0.214
675	0.214
676	0.214
676	0.215
676	0.215
677	0.216
677	0.216
678	0.216
678	0.217
679	0.216
679	0.217
680	0.217
680	0.217
680	0.217
681	0.217
681	0.217
682	0.217
682	0.218
683	0.218
683	0.218
684	0.219
684	0.219
684	0.218
685	0.219
685	0.219
686	0.219
686	0.219
687	0.219
687	0.219
687	0.219
688	0.219
688	0.22
689	0.22
689	0.221
690	0.221
690	0.221
691	0.221
691	0.221
691	0.221
692	0.221
692	0.221
693	0.222
693	0.222
694	0.222
694	0.222
695	0.223
695	0.224
695	0.224
696	0.224
696	0.224
697	0.225
697	0.225
698	0.225
698	0.224
698	0.225
699	0.225
699	0.224
700	0.223
700	0.223
701	0.223
701	0.222
702	0.221
702	0.221
702	0.221
703	0.22
703	0.22
704	0.22
704	0.22
705	0.221
705	0.221
705	0.221
706	0.221
706	0.222
707	0.222
707	0.222
708	0.223
708	0.223
709	0.223
709	0.223
709	0.222
710	0.222
710	0.222
711	0.223
711	0.223
712	0.223
712	0.223
713	0.224
713	0.224
713	0.224
714	0.224
714	0.224
715	0.224
715	0.224
716	0.224
716	0.224
716	0.223
717	0.223
717	0.223
718	0.222
718	0.222
719	0.222
719	0.222
720	0.222
720	0.223
720	0.223
721	0.224
721	0.225
722	0.225
722	0.226
723	0.226
723	0.226
723	0.226
724	0.226
724	0.226
725	0.225
725	0.224
726	0.224
726	0.223
727	0.223
727	0.223
727	0.223
728	0.223
728	0.223
729	0.224
729	0.225
730	0.226
730	0.226
730	0.227
731	0.228
731	0.228
732	0.229
732	0.229
733	0.229
733	0.229
734	0.229
734	0.229
734	0.229
735	0.229
735	0.229
736	0.229
736	0.229
737	0.228
737	0.228
737	0.228
738	0.228
738	0.227
739	0.226
739	0.226
740	0.226
740	0.226
741	0.226
741	0.227
741	0.227
742	0.227
742	0.227
743	0.228
743	0.228
744	0.229
744	0.229
744	0.23
745	0.23
745	0.23
746	0.23
746	0.23
747	0.23
747	0.231
748	0.231
748	0.231
748	0.231
749	0.231
749	0.231
750	0.232
750	0.232
751	0.232
751	0.232
751	0.232
752	0.232
752	0.231
753	0.231
753	0.23
754	0.23
754	0.229
754	0.229
755	0.229
755	0.229
756	0.228
756	0.227
757	0.227
757	0.227
758	0.227
758	0.227
758	0.228
759	0.228
759	0.228
760	0.228
760	0.227
761	0.228
761	0.228
761	0.229
762	0.229
762	0.229
763	0.229
763	0.229
764	0.229
764	0.229
764	0.229
765	0.229
765	0.229
766	0.229
766	0.229
767	0.229
767	0.228
768	0.228
768	0.228
768	0.228
769	0.228
769	0.228
770	0.229
770	0.229
771	0.229
771	0.229
771	0.229
772	0.23
772	0.23
773	0.23
773	0.23
774	0.231
774	0.231
775	0.232
775	0.232
775	0.233
776	0.233
776	0.234
777	0.234
777	0.234
778	0.234
778	0.234
778	0.233
779	0.233
779	0.233
780	0.232
780	0.231
781	0.231
781	0.23
781	0.23
782	0.23
782	0.23
783	0.23
783	0.231
784	0.231
784	0.231
784	0.232
785	0.232
785	0.232
786	0.233
786	0.233
787	0.233
787	0.233
788	0.233
788	0.233
788	0.233
789	0.232
789	0.232
790	0.232
790	0.232
791	0.232
791	0.232
791	0.232
792	0.233
792	0.234
793	0.234
793	0.234
794	0.234
794	0.234
794	0.234
795	0.234
795	0.234
796	0.235
796	0.235
797	0.234
797	0.234
797	0.234
798	0.234
798	0.235
799	0.235
799	0.235
800	0.234
800	0.234
801	0.234
801	0.233
801	0.233
802	0.233
802	0.233
803	0.233
803	0.233
804	0.233
804	0.234
804	0.234
805	0.234
805	0.235
806	0.235
806	0.235
807	0.235
807	0.235
807	0.235
808	0.236
808	0.236
809	0.236
809	0.236
810	0.236
810	0.236
810	0.236
811	0.236
811	0.237
812	0.237
812	0.237
813	0.238
813	0.238
813	0.239
814	0.24
814	0.24
815	0.241
815	0.241
816	0.241
816	0.241
817	0.24
817	0.24
817	0.239
818	0.239
818	0.238
819	0.237
819	0.237
820	0.236
820	0.235
820	0.235
821	0.236
821	0.236
822	0.236
822	0.237
823	0.237
823	0.238
823	0.239
824	0.24
824	0.241
825	0.243
825	0.244
826	0.245
826	0.245
826	0.245
827	0.246
827	0.246
828	0.246
828	0.246
829	0.246
829	0.246
829	0.245
830	0.245
830	0.245
831	0.246
831	0.245
832	0.245
832	0.245
832	0.245
833	0.245
833	0.245
834	0.245
834	0.245
835	0.245
835	0.245
835	0.244
836	0.244
836	0.244
837	0.243
837	0.243
838	0.242
838	0.242
839	0.241
839	0.24
839	0.24
840	0.239
840	0.238
841	0.238
841	0.237
842	0.237
842	0.236
842	0.236
843	0.236
843	0.236
844	0.237
844	0.237
845	0.237
845	0.237
845	0.238
846	0.238
846	0.239
847	0.239
847	0.24
848	0.24
848	0.24
848	0.24
849	0.24
849	0.24
850	0.239
850	0.239
851	0.239
851	0.238
851	0.238
852	0.237
852	0.237
853	0.237
853	0.237
854	0.237
854	0.238
854	0.239
855	0.239
855	0.24
856	0.241
856	0.241
857	0.242
857	0.243
857	0.243
858	0.243
858	0.243
859	0.242
859	0.241
860	0.24
860	0.239
860	0.238
861	0.237
861	0.236
862	0.234
862	0.233
863	0.233
863	0.232
863	0.232
864	0.232
864	0.232
865	0.233
865	0.233
866	0.233
866	0.234
866	0.234
867	0.235
867	0.235
868	0.235
868	0.236
869	0.235
869	0.235
869	0.234
870	0.233
870	0.233
871	0.232
871	0.232
872	0.232
872	0.232
872	0.231
873	0.231
873	0.231
874	0.231
874	0.231
875	0.231
875	0.231
875	0.231
876	0.231
876	0.231
877	0.231
877	0.231
878	0.231
878	0.231
878	0.232
879	0.232
879	0.233
880	0.233
880	0.233
881	0.233
881	0.233
881	0.233
882	0.233
882	0.233
883	0.233
883	0.233
884	0.233
884	0.232
884	0.232
885	0.232
885	0.231
886	0.231
886	0.231
887	0.23
887	0.23
887	0.229
888	0.229
888	0.228
889	0.228
889	0.228
890	0.227
890	0.227
890	0.227
891	0.227
891	0.226
892	0.226
892	0.226
893	0.226
893	0.226
893	0.225
894	0.225
894	0.224
895	0.224
895	0.223
895	0.223
896	0.223
896	0.222
897	0.222
897	0.221
898	0.221
898	0.22
898	0.22
899	0.219
899	0.219
900	0.219
900	0.219
901	0.219
901	0.218
901	0.218
902	0.218
902	0.218
903	0.218
903	0.218
904	0.217
904	0.217
904	0.217
905	0.217
905	0.217
906	0.217
906	0.218
907	0.218
907	0.219
907	0.219
908	0.219
908	0.22
909	0.22
909	0.22
910	0.22
910	0.22
910	0.22
911	0.219
911	0.219
912	0.219
912	0.218
913	0.218
913	0.217
913	0.217
914	0.216
914	0.216
915	0.215
915	0.215
916	0.215
916	0.214
916	0.213
917	0.213
917	0.212
918	0.211
918	0.211
918	0.21
919	0.209
919	0.209
920	0.208
920	0.207
921	0.207
921	0.207
921	0.206
922	0.206
922	0.206
923	0.206
923	0.206
924	0.207
924	0.207
924	0.207
925	0.208
925	0.208
926	0.208
926	0.208
927	0.208
927	0.207
927	0.207
928	0.207
928	0.206
929	0.206
929	0.205
930	0.205
930	0.204
930	0.204
931	0.204
931	0.204
932	0.204
932	0.203
933	0.204
933	0.203
933	0.203
934	0.203
934	0.203
935	0.203
935	0.203
935	0.203
936	0.202
936	0.202
937	0.202
937	0.201
938	0.201
938	0.2
938	0.199
939	0.198
939	0.197
940	0.196
940	0.196
941	0.195
941	0.194
941	0.194
942	0.193
942	0.193
943	0.192
943	0.192
944	0.192
944	0.192
944	0.191
945	0.191
945	0.191
946	0.191
946	0.19
946	0.19
947	0.19
947	0.19
948	0.19
948	0.19
949	0.19
949	0.19
949	0.19
950	0.19
950	0.19
951	0.19
951	0.189
952	0.188
952	0.187
952	0.186
953	0.185
953	0.184
954	0.183
954	0.182
955	0.181
955	0.18
955	0.18
956	0.179
956	0.179
957	0.179
957	0.179
957	0.179
958	0.179
958	0.179
959	0.179
959	0.179
960	0.179
960	0.179
960	0.179
961	0.178
961	0.178
962	0.178
962	0.177
963	0.177
963	0.176
963	0.176
964	0.176
964	0.176
965	0.176
965	0.176
966	0.177
966	0.177
966	0.177
967	0.177
967	0.177
968	0.178
968	0.177
968	0.177
969	0.176
969	0.176
970	0.175
970	0.175
971	0.174
971	0.173
971	0.173
972	0.172
972	0.172
973	0.172
973	0.171
974	0.171
974	0.171
974	0.171
975	0.171
975	0.171
976	0.171
976	0.171
976	0.171
977	0.17
977	0.17
978	0.17
978	0.169
979	0.169
979	0.169
979	0.168
980	0.168
980	0.167
981	0.166
981	0.165
982	0.165
982	0.164
982	0.164
983	0.163
983	0.163
984	0.163
984	0.162
984	0.162
985	0.162
985	0.162
986	0.161
986	0.161
987	0.161
987	0.16
987	0.16
988	0.159
988	0.159
989	0.158
989	0.158
990	0.157
990	0.156
990	0.156
991	0.155
991	0.155
992	0.155
992	0.154
992	0.153
993	0.153
993	0.152
994	0.152
994	0.152
995	0.151
995	0.151
995	0.151
996	0.15
996	0.15
997	0.15
997	0.15
997	0.151
998	0.151
998	0.151
999	0.151
999	0.152
1000	0.152
1000	0.152
1000	0.153
1001	0.153
1001	0.153
1002	0.153
1002	0.152
1003	0.152
1003	0.151
1003	0.151
1004	0.15
1004	0.149
1005	0.148
1005	0.148
1005	0.147
1006	0.146
1006	0.146
1007	0.146
1007	0.145
1008	0.145
1008	0.145
1008	0.145
1009	0.145
1009	0.145
1010	0.145
1010	0.145
1010	0.146
1011	0.146
1011	0.146
1012	0.146
1012	0.146
1013	0.146
1013	0.146
1013	0.145
1014	0.145
1014	0.145
1015	0.144
1015	0.144
1016	0.143
1016	0.143
1016	0.142
1017	0.142
1017	0.141
1018	0.141
1018	0.14
1018	0.14
1019	0.139
1019	0.139
1020	0.139
1020	0.139
1021	0.138
1021	0.138
1021	0.138
1022	0.138
1022	0.138
1023	0.138
1023	0.138
1023	0.138
1024	0.138
1024	0.138
1025	0.138
1025	0.138
1026	0.137
1026	0.137
1026	0.137
1027	0.136
1027	0.136
1028	0.136
1028	0.135
1028	0.135
1029	0.135
1029	0.135
1030	0.135
1030	0.135
1031	0.135
1031	0.135
1031	0.135
1032	0.135
1032	0.135
1033	0.135
1033	0.134
1033	0.134
1034	0.134
1034	0.134
1035	0.133
1035	0.133
1036	0.133
1036	0.133
1036	0.133
1037	0.132
1037	0.132
1038	0.132
1038	0.131
1039	0.131
1039	0.131
1039	0.131
1040	0.131
1040	0.131
1041	0.131
1041	0.131
1041	0.131
1042	0.131
1042	0.131
1043	0.131
1043	0.131
1044	0.131
1044	0.131
1044	0.131
1045	0.131
1045	0.131
1046	0.132
1046	0.132
1046	0.132
1047	0.133
1047	0.133
1048	0.133
1048	0.134
1049	0.134
1049	0.134
1049	0.134
1050	0.134
1050	0.134
1051	0.133
1051	0.133
1051	0.133
1052	0.132
1052	0.132
1053	0.131
1053	0.13
1053	0.13
1054	0.129
1054	0.128
1055	0.128
1055	0.128
1056	0.127
1056	0.126
1056	0.125
1057	0.125
1057	0.124
1058	0.124
1058	0.123
1058	0.122
1059	0.121
1059	0.12
1060	0.119
1060	0.119
1061	0.118
1061	0.117
1061	0.117
1062	0.117
1062	0.117
1063	0.117
1063	0.116
1063	0.116
1064	0.115
1064	0.115
1065	0.115
1065	0.115
1066	0.114
1066	0.114
1066	0.113
1067	0.113
1067	0.112
1068	0.112
1068	0.112
1068	0.112
1069	0.112
1069	0.111
1070	0.111
1070	0.11
1071	0.11
1071	0.109
1071	0.109
1072	0.108
1072	0.107
1073	0.107
1073	0.106
1073	0.106
1074	0.106
1074	0.105
1075	0.105
1075	0.104
1076	0.105
1076	0.105
1076	0.105
1077	0.106
1077	0.106
1078	0.105
1078	0.106
1078	0.105
1079	0.105
1079	0.105
1080	0.104
1080	0.104
1080	0.103
1081	0.103
1081	0.103
1082	0.103
1082	0.104
1083	0.103
1083	0.103
1083	0.103
1084	0.103
1084	0.103
1085	0.103
1085	0.103
1085	0.103
1086	0.103
1086	0.102
1087	0.101
1087	0.1
1088	0.1
1088	0.1
1088	0.1
1089	0.099
1089	0.098
1090	0.098
1090	0.097
1090	0.096
1091	0.095
1091	0.095
1092	0.095
1092	0.096
1092	0.096
1093	0.095
1093	0.096
1094	0.096
1094	0.095
1095	0.096
1095	0.095
1095	0.095
1096	0.095
1096	0.094
1097	0.093
1097	0.092
1097	0.091
1098	0.091
1098	0.09
1099	0.09
1099	0.088
1100	0.088
1100	0.087
1100	0.085
1101	0.085
1101	0.085
1102	0.084
1102	0.084
1102	0.083
1103	0.083
1103	0.083
1104	0.084
1104	0.083
1104	0.083
1105	0.082
1105	0.08
1106	0.079
1106	0.078
1107	0.077
1107	0.076
1107	0.076
1108	0.074
1108	0.072
1109	0.071
1109	0.07
1109	0.071
1110	0.074
1110	0.073
1111	0.069
1111	0.069
