Data from reversibility-20sec_Absorbance__3300__000000000003300.txt Node

Date: Wed Dec 06 06:33:05 CET 2023
User: Marek
Spectrometer: MAYP115816
Trigger mode: 0
Integration Time (sec): 2.000000E-1
Scans to average: 10
Electric dark correction enabled: true
Nonlinearity correction enabled: true
Boxcar width: 5
XAxis mode: Wavelengths
Number of Pixels in Spectrum: 2068
>>>>>Begin Spectral Data<<<<<
199	-0.116
199	-0.081
200	-0.011
200	0.042
201	0.071
201	0.085
202	0.095
202	0.107
203	0.114
203	0.116
204	0.13
204	0.145
205	0.157
205	0.162
205	0.157
206	0.158
206	0.161
207	0.164
207	0.161
208	0.159
208	0.162
209	0.165
209	0.164
210	0.164
210	0.162
211	0.167
211	0.171
212	0.166
212	0.167
213	0.171
213	0.175
213	0.177
214	0.18
214	0.179
215	0.18
215	0.183
216	0.185
216	0.182
217	0.186
217	0.188
218	0.187
218	0.19
219	0.191
219	0.191
220	0.194
220	0.192
221	0.191
221	0.193
221	0.197
222	0.202
222	0.207
223	0.213
223	0.214
224	0.221
224	0.228
225	0.237
225	0.249
226	0.262
226	0.27
227	0.28
227	0.29
228	0.303
228	0.319
229	0.334
229	0.357
229	0.378
230	0.407
230	0.438
231	0.469
231	0.506
232	0.542
232	0.586
233	0.628
233	0.676
234	0.73
234	0.781
235	0.834
235	0.885
236	0.934
236	0.988
236	1.041
237	1.097
237	1.146
238	1.195
238	1.238
239	1.286
239	1.329
240	1.368
240	1.406
241	1.443
241	1.474
242	1.509
242	1.54
243	1.57
243	1.598
243	1.624
244	1.644
244	1.662
245	1.681
245	1.702
246	1.72
246	1.736
247	1.747
247	1.761
248	1.773
248	1.783
249	1.79
249	1.798
250	1.806
250	1.814
250	1.818
251	1.821
251	1.822
252	1.825
252	1.822
253	1.821
253	1.817
254	1.816
254	1.816
255	1.813
255	1.811
256	1.808
256	1.806
257	1.804
257	1.802
258	1.803
258	1.801
258	1.802
259	1.802
259	1.802
260	1.801
260	1.802
261	1.803
261	1.806
262	1.81
262	1.811
263	1.815
263	1.819
264	1.82
264	1.822
265	1.823
265	1.825
265	1.827
266	1.827
266	1.828
267	1.825
267	1.827
268	1.826
268	1.825
269	1.829
269	1.828
270	1.828
270	1.827
271	1.824
271	1.823
272	1.818
272	1.816
272	1.81
273	1.803
273	1.795
274	1.786
274	1.778
275	1.769
275	1.761
276	1.753
276	1.744
277	1.735
277	1.725
278	1.714
278	1.701
278	1.686
279	1.667
279	1.643
280	1.615
280	1.579
281	1.538
281	1.493
282	1.447
282	1.4
283	1.355
283	1.311
284	1.27
284	1.23
285	1.194
285	1.16
285	1.131
286	1.105
286	1.083
287	1.064
287	1.048
288	1.034
288	1.023
289	1.013
289	1.005
290	0.997
290	0.991
291	0.986
291	0.981
292	0.976
292	0.973
292	0.969
293	0.966
293	0.963
294	0.96
294	0.957
295	0.955
295	0.952
296	0.949
296	0.947
297	0.944
297	0.942
298	0.939
298	0.937
298	0.934
299	0.931
299	0.929
300	0.926
300	0.924
301	0.922
301	0.92
302	0.917
302	0.915
303	0.913
303	0.911
304	0.909
304	0.907
305	0.905
305	0.903
305	0.901
306	0.899
306	0.897
307	0.895
307	0.892
308	0.89
308	0.887
309	0.885
309	0.882
310	0.88
310	0.877
311	0.874
311	0.871
311	0.869
312	0.865
312	0.862
313	0.859
313	0.855
314	0.852
314	0.848
315	0.844
315	0.84
316	0.836
316	0.831
317	0.827
317	0.822
318	0.817
318	0.812
318	0.807
319	0.802
319	0.797
320	0.792
320	0.786
321	0.78
321	0.774
322	0.768
322	0.762
323	0.755
323	0.749
324	0.743
324	0.737
324	0.73
325	0.724
325	0.717
326	0.71
326	0.704
327	0.697
327	0.691
328	0.684
328	0.677
329	0.67
329	0.663
330	0.656
330	0.649
330	0.643
331	0.636
331	0.629
332	0.622
332	0.615
333	0.609
333	0.602
334	0.595
334	0.589
335	0.582
335	0.575
336	0.569
336	0.562
336	0.556
337	0.549
337	0.543
338	0.537
338	0.531
339	0.525
339	0.519
340	0.513
340	0.508
341	0.502
341	0.497
342	0.492
342	0.486
342	0.481
343	0.476
343	0.471
344	0.466
344	0.461
345	0.457
345	0.452
346	0.448
346	0.443
347	0.439
347	0.435
348	0.431
348	0.427
348	0.423
349	0.419
349	0.415
350	0.412
350	0.409
351	0.405
351	0.402
352	0.399
352	0.396
353	0.393
353	0.391
354	0.388
354	0.385
354	0.382
355	0.38
355	0.377
356	0.374
356	0.371
357	0.368
357	0.366
358	0.363
358	0.36
359	0.358
359	0.356
360	0.354
360	0.352
360	0.35
361	0.349
361	0.347
362	0.345
362	0.344
363	0.342
363	0.34
364	0.339
364	0.337
365	0.335
365	0.333
366	0.331
366	0.33
366	0.328
367	0.326
367	0.324
368	0.323
368	0.321
369	0.32
369	0.319
370	0.317
370	0.316
371	0.315
371	0.313
372	0.312
372	0.311
372	0.31
373	0.309
373	0.308
374	0.307
374	0.306
375	0.305
375	0.304
376	0.303
376	0.303
377	0.302
377	0.301
378	0.3
378	0.299
378	0.298
379	0.297
379	0.297
380	0.296
380	0.295
381	0.295
381	0.294
382	0.293
382	0.293
383	0.292
383	0.292
383	0.291
384	0.291
384	0.29
385	0.29
385	0.289
386	0.289
386	0.288
387	0.288
387	0.288
388	0.287
388	0.287
389	0.286
389	0.286
389	0.286
390	0.285
390	0.285
391	0.284
391	0.284
392	0.283
392	0.283
393	0.283
393	0.283
394	0.282
394	0.282
394	0.281
395	0.281
395	0.281
396	0.281
396	0.28
397	0.28
397	0.279
398	0.279
398	0.279
399	0.279
399	0.278
400	0.278
400	0.278
400	0.277
401	0.277
401	0.277
402	0.276
402	0.276
403	0.276
403	0.275
404	0.275
404	0.275
405	0.275
405	0.275
405	0.274
406	0.274
406	0.274
407	0.274
407	0.273
408	0.273
408	0.273
409	0.272
409	0.272
410	0.272
410	0.272
411	0.272
411	0.271
411	0.271
412	0.271
412	0.27
413	0.27
413	0.27
414	0.27
414	0.269
415	0.269
415	0.268
416	0.268
416	0.268
416	0.267
417	0.267
417	0.267
418	0.266
418	0.266
419	0.266
419	0.265
420	0.265
420	0.265
421	0.264
421	0.264
421	0.264
422	0.264
422	0.263
423	0.263
423	0.263
424	0.262
424	0.262
425	0.262
425	0.261
426	0.261
426	0.261
427	0.26
427	0.26
427	0.26
428	0.259
428	0.259
429	0.259
429	0.258
430	0.258
430	0.258
431	0.257
431	0.257
432	0.257
432	0.257
432	0.257
433	0.257
433	0.256
434	0.256
434	0.256
435	0.256
435	0.256
436	0.256
436	0.256
437	0.255
437	0.255
437	0.255
438	0.255
438	0.255
439	0.255
439	0.255
440	0.254
440	0.254
441	0.253
441	0.253
442	0.253
442	0.253
442	0.252
443	0.252
443	0.252
444	0.252
444	0.251
445	0.251
445	0.251
446	0.251
446	0.25
447	0.25
447	0.25
447	0.25
448	0.25
448	0.249
449	0.249
449	0.249
450	0.249
450	0.249
451	0.249
451	0.248
452	0.248
452	0.248
452	0.248
453	0.248
453	0.248
454	0.247
454	0.247
455	0.247
455	0.246
456	0.246
456	0.246
457	0.246
457	0.246
458	0.245
458	0.245
458	0.245
459	0.245
459	0.245
460	0.245
460	0.245
461	0.245
461	0.245
462	0.245
462	0.244
463	0.244
463	0.244
463	0.244
464	0.243
464	0.242
465	0.242
465	0.242
466	0.241
466	0.241
467	0.241
467	0.241
467	0.241
468	0.241
468	0.241
469	0.241
469	0.241
470	0.241
470	0.241
471	0.241
471	0.241
472	0.241
472	0.241
472	0.241
473	0.241
473	0.241
474	0.241
474	0.241
475	0.24
475	0.24
476	0.24
476	0.241
477	0.241
477	0.241
477	0.241
478	0.24
478	0.24
479	0.24
479	0.24
480	0.24
480	0.241
481	0.24
481	0.24
482	0.241
482	0.241
482	0.241
483	0.241
483	0.242
484	0.242
484	0.242
485	0.242
485	0.242
486	0.242
486	0.242
487	0.242
487	0.242
487	0.242
488	0.242
488	0.242
489	0.242
489	0.243
490	0.243
490	0.244
491	0.244
491	0.245
492	0.245
492	0.246
492	0.247
493	0.247
493	0.248
494	0.248
494	0.249
495	0.249
495	0.25
496	0.25
496	0.25
496	0.251
497	0.251
497	0.251
498	0.252
498	0.252
499	0.252
499	0.253
500	0.253
500	0.254
501	0.254
501	0.255
501	0.255
502	0.255
502	0.256
503	0.256
503	0.257
504	0.257
504	0.258
505	0.258
505	0.259
506	0.259
506	0.259
506	0.26
507	0.26
507	0.261
508	0.261
508	0.262
509	0.262
509	0.263
510	0.263
510	0.264
511	0.265
511	0.266
511	0.266
512	0.267
512	0.267
513	0.268
513	0.268
514	0.269
514	0.269
515	0.27
515	0.27
515	0.27
516	0.27
516	0.271
517	0.272
517	0.272
518	0.272
518	0.272
519	0.273
519	0.273
520	0.273
520	0.274
520	0.274
521	0.274
521	0.274
522	0.275
522	0.275
523	0.275
523	0.276
524	0.276
524	0.276
524	0.277
525	0.277
525	0.277
526	0.277
526	0.277
527	0.277
527	0.277
528	0.277
528	0.277
529	0.277
529	0.277
529	0.277
530	0.277
530	0.277
531	0.277
531	0.277
532	0.277
532	0.277
533	0.277
533	0.276
533	0.276
534	0.276
534	0.276
535	0.275
535	0.275
536	0.275
536	0.274
537	0.274
537	0.274
538	0.274
538	0.273
538	0.273
539	0.273
539	0.273
540	0.273
540	0.273
541	0.273
541	0.272
542	0.272
542	0.272
542	0.272
543	0.272
543	0.271
544	0.271
544	0.27
545	0.27
545	0.27
546	0.27
546	0.27
547	0.269
547	0.269
547	0.268
548	0.268
548	0.267
549	0.267
549	0.267
550	0.266
550	0.266
551	0.266
551	0.265
551	0.265
552	0.264
552	0.264
553	0.264
553	0.264
554	0.263
554	0.263
555	0.262
555	0.261
556	0.261
556	0.26
556	0.26
557	0.26
557	0.26
558	0.26
558	0.26
559	0.26
559	0.26
560	0.26
560	0.26
560	0.259
561	0.259
561	0.259
562	0.258
562	0.257
563	0.256
563	0.255
564	0.255
564	0.254
564	0.254
565	0.254
565	0.253
566	0.253
566	0.252
567	0.252
567	0.252
568	0.252
568	0.251
568	0.251
569	0.25
569	0.25
570	0.249
570	0.248
571	0.248
571	0.248
572	0.247
572	0.247
573	0.247
573	0.246
573	0.246
574	0.246
574	0.246
575	0.246
575	0.246
576	0.246
576	0.245
577	0.244
577	0.244
577	0.243
578	0.243
578	0.242
579	0.242
579	0.242
580	0.241
580	0.241
581	0.24
581	0.24
581	0.24
582	0.24
582	0.24
583	0.239
583	0.239
584	0.238
584	0.237
585	0.237
585	0.237
585	0.236
586	0.236
586	0.236
587	0.235
587	0.235
588	0.234
588	0.234
589	0.234
589	0.234
590	0.233
590	0.233
590	0.233
591	0.233
591	0.232
592	0.232
592	0.231
593	0.23
593	0.23
594	0.229
594	0.229
594	0.228
595	0.228
595	0.227
596	0.226
596	0.227
597	0.228
597	0.228
598	0.228
598	0.228
598	0.228
599	0.228
599	0.228
600	0.228
600	0.227
601	0.227
601	0.227
602	0.226
602	0.225
602	0.225
603	0.225
603	0.225
604	0.225
604	0.224
605	0.224
605	0.224
606	0.224
606	0.223
606	0.223
607	0.222
607	0.222
608	0.222
608	0.221
609	0.22
609	0.22
610	0.22
610	0.219
610	0.219
611	0.219
611	0.219
612	0.219
612	0.219
613	0.219
613	0.219
614	0.219
614	0.219
614	0.219
615	0.219
615	0.218
616	0.218
616	0.218
617	0.218
617	0.218
618	0.218
618	0.218
618	0.218
619	0.218
619	0.218
620	0.218
620	0.218
621	0.218
621	0.217
622	0.217
622	0.217
622	0.216
623	0.216
623	0.216
624	0.215
624	0.215
625	0.214
625	0.214
626	0.214
626	0.214
626	0.214
627	0.214
627	0.213
628	0.214
628	0.213
629	0.213
629	0.213
630	0.213
630	0.213
630	0.213
631	0.213
631	0.212
632	0.212
632	0.212
633	0.212
633	0.212
634	0.212
634	0.213
634	0.213
635	0.212
635	0.212
636	0.212
636	0.212
637	0.212
637	0.211
638	0.211
638	0.211
638	0.21
639	0.21
639	0.209
640	0.209
640	0.209
641	0.209
641	0.209
642	0.208
642	0.209
642	0.209
643	0.209
643	0.209
644	0.209
644	0.209
645	0.21
645	0.21
646	0.21
646	0.211
646	0.211
647	0.211
647	0.211
648	0.211
648	0.21
649	0.21
649	0.21
650	0.21
650	0.21
650	0.21
651	0.209
651	0.209
652	0.209
652	0.209
653	0.209
653	0.211
653	0.217
654	0.169
654	0.135
655	0.136
655	0.137
656	0.137
656	0.138
657	0.138
657	0.138
657	0.138
658	0.137
658	0.126
659	0.16
659	0.207
660	0.21
660	0.21
661	0.209
661	0.209
661	0.208
662	0.208
662	0.207
663	0.207
663	0.207
664	0.207
664	0.207
665	0.207
665	0.206
665	0.207
666	0.207
666	0.207
667	0.208
667	0.208
668	0.208
668	0.208
669	0.208
669	0.209
669	0.209
670	0.209
670	0.209
671	0.209
671	0.209
672	0.208
672	0.208
672	0.208
673	0.207
673	0.207
674	0.207
674	0.206
675	0.206
675	0.206
676	0.207
676	0.207
676	0.207
677	0.207
677	0.208
678	0.208
678	0.208
679	0.208
679	0.208
680	0.208
680	0.208
680	0.208
681	0.208
681	0.208
682	0.208
682	0.209
683	0.209
683	0.209
684	0.209
684	0.209
684	0.209
685	0.209
685	0.209
686	0.209
686	0.209
687	0.209
687	0.209
687	0.209
688	0.21
688	0.21
689	0.211
689	0.212
690	0.212
690	0.212
691	0.212
691	0.213
691	0.213
692	0.213
692	0.213
693	0.213
693	0.214
694	0.214
694	0.213
695	0.214
695	0.215
695	0.215
696	0.216
696	0.216
697	0.216
697	0.216
698	0.216
698	0.215
698	0.215
699	0.216
699	0.215
700	0.214
700	0.214
701	0.214
701	0.213
702	0.213
702	0.212
702	0.212
703	0.212
703	0.211
704	0.211
704	0.212
705	0.212
705	0.212
705	0.212
706	0.212
706	0.212
707	0.213
707	0.213
708	0.213
708	0.214
709	0.214
709	0.213
709	0.213
710	0.213
710	0.213
711	0.213
711	0.213
712	0.213
712	0.213
713	0.214
713	0.214
713	0.214
714	0.215
714	0.215
715	0.215
715	0.215
716	0.215
716	0.215
716	0.214
717	0.214
717	0.213
718	0.212
718	0.212
719	0.212
719	0.212
720	0.213
720	0.213
720	0.214
721	0.214
721	0.215
722	0.215
722	0.216
723	0.216
723	0.217
723	0.217
724	0.216
724	0.216
725	0.215
725	0.215
726	0.214
726	0.213
727	0.213
727	0.213
727	0.213
728	0.213
728	0.213
729	0.213
729	0.214
730	0.214
730	0.215
730	0.216
731	0.216
731	0.217
732	0.218
732	0.218
733	0.218
733	0.219
734	0.219
734	0.219
734	0.22
735	0.22
735	0.22
736	0.22
736	0.219
737	0.219
737	0.219
737	0.218
738	0.218
738	0.217
739	0.217
739	0.216
740	0.216
740	0.216
741	0.216
741	0.216
741	0.216
742	0.216
742	0.217
743	0.218
743	0.218
744	0.218
744	0.219
744	0.219
745	0.219
745	0.219
746	0.22
746	0.22
747	0.221
747	0.221
748	0.221
748	0.221
748	0.221
749	0.221
749	0.222
750	0.222
750	0.222
751	0.222
751	0.222
751	0.222
752	0.221
752	0.221
753	0.22
753	0.22
754	0.219
754	0.219
754	0.218
755	0.218
755	0.218
756	0.217
756	0.216
757	0.216
757	0.216
758	0.216
758	0.216
758	0.216
759	0.217
759	0.217
760	0.217
760	0.216
761	0.217
761	0.218
761	0.218
762	0.218
762	0.218
763	0.219
763	0.218
764	0.218
764	0.219
764	0.219
765	0.219
765	0.218
766	0.218
766	0.218
767	0.218
767	0.217
768	0.217
768	0.217
768	0.217
769	0.217
769	0.217
770	0.217
770	0.218
771	0.218
771	0.218
771	0.218
772	0.219
772	0.22
773	0.22
773	0.22
774	0.221
774	0.221
775	0.222
775	0.222
775	0.223
776	0.223
776	0.223
777	0.223
777	0.223
778	0.223
778	0.223
778	0.222
779	0.222
779	0.221
780	0.22
780	0.22
781	0.22
781	0.219
781	0.219
782	0.219
782	0.219
783	0.22
783	0.22
784	0.22
784	0.22
784	0.221
785	0.221
785	0.221
786	0.221
786	0.221
787	0.222
787	0.222
788	0.221
788	0.221
788	0.221
789	0.221
789	0.22
790	0.221
790	0.22
791	0.22
791	0.22
791	0.22
792	0.221
792	0.221
793	0.221
793	0.222
794	0.222
794	0.222
794	0.222
795	0.222
795	0.222
796	0.222
796	0.223
797	0.222
797	0.222
797	0.223
798	0.223
798	0.223
799	0.223
799	0.223
800	0.223
800	0.223
801	0.223
801	0.222
801	0.222
802	0.222
802	0.222
803	0.222
803	0.222
804	0.222
804	0.223
804	0.223
805	0.223
805	0.223
806	0.224
806	0.224
807	0.224
807	0.224
807	0.225
808	0.225
808	0.225
809	0.225
809	0.225
810	0.226
810	0.226
810	0.226
811	0.226
811	0.226
812	0.227
812	0.227
813	0.227
813	0.227
813	0.228
814	0.228
814	0.229
815	0.229
815	0.229
816	0.229
816	0.228
817	0.228
817	0.227
817	0.226
818	0.226
818	0.225
819	0.225
819	0.224
820	0.224
820	0.224
820	0.224
821	0.224
821	0.225
822	0.225
822	0.226
823	0.227
823	0.227
823	0.228
824	0.23
824	0.231
825	0.232
825	0.233
826	0.234
826	0.234
826	0.234
827	0.235
827	0.235
828	0.235
828	0.235
829	0.235
829	0.235
829	0.235
830	0.235
830	0.235
831	0.235
831	0.235
832	0.235
832	0.235
832	0.235
833	0.235
833	0.235
834	0.235
834	0.234
835	0.234
835	0.233
835	0.233
836	0.232
836	0.232
837	0.232
837	0.231
838	0.23
838	0.229
839	0.229
839	0.228
839	0.227
840	0.227
840	0.226
841	0.225
841	0.225
842	0.224
842	0.224
842	0.224
843	0.224
843	0.224
844	0.225
844	0.225
845	0.226
845	0.226
845	0.227
846	0.227
846	0.228
847	0.228
847	0.228
848	0.228
848	0.228
848	0.228
849	0.228
849	0.228
850	0.228
850	0.227
851	0.227
851	0.226
851	0.226
852	0.225
852	0.224
853	0.224
853	0.223
854	0.223
854	0.224
854	0.224
855	0.225
855	0.225
856	0.226
856	0.227
857	0.227
857	0.228
857	0.228
858	0.228
858	0.228
859	0.227
859	0.227
860	0.226
860	0.225
860	0.224
861	0.223
861	0.222
862	0.221
862	0.22
863	0.219
863	0.219
863	0.219
864	0.219
864	0.219
865	0.22
865	0.22
866	0.221
866	0.221
866	0.221
867	0.221
867	0.221
868	0.221
868	0.221
869	0.221
869	0.22
869	0.219
870	0.218
870	0.218
871	0.218
871	0.218
872	0.218
872	0.218
872	0.217
873	0.217
873	0.217
874	0.217
874	0.217
875	0.217
875	0.216
875	0.216
876	0.216
876	0.215
877	0.215
877	0.216
878	0.216
878	0.216
878	0.217
879	0.218
879	0.219
880	0.219
880	0.22
881	0.22
881	0.22
881	0.22
882	0.22
882	0.22
883	0.219
883	0.219
884	0.219
884	0.218
884	0.218
885	0.217
885	0.216
886	0.216
886	0.215
887	0.214
887	0.214
887	0.213
888	0.212
888	0.211
889	0.211
889	0.211
890	0.21
890	0.21
890	0.21
891	0.209
891	0.209
892	0.209
892	0.209
893	0.209
893	0.208
893	0.208
894	0.208
894	0.207
895	0.207
895	0.207
895	0.207
896	0.206
896	0.206
897	0.206
897	0.206
898	0.205
898	0.205
898	0.205
899	0.204
899	0.204
900	0.204
900	0.204
901	0.204
901	0.204
901	0.204
902	0.203
902	0.203
903	0.203
903	0.203
904	0.203
904	0.203
904	0.203
905	0.203
905	0.203
906	0.203
906	0.204
907	0.204
907	0.205
907	0.205
908	0.205
908	0.206
909	0.206
909	0.206
910	0.206
910	0.206
910	0.205
911	0.205
911	0.204
912	0.204
912	0.203
913	0.203
913	0.202
913	0.202
914	0.201
914	0.201
915	0.2
915	0.199
916	0.199
916	0.198
916	0.198
917	0.197
917	0.196
918	0.196
918	0.195
918	0.194
919	0.193
919	0.192
920	0.192
920	0.191
921	0.19
921	0.189
921	0.189
922	0.188
922	0.188
923	0.188
923	0.188
924	0.188
924	0.188
924	0.188
925	0.188
925	0.189
926	0.189
926	0.189
927	0.189
927	0.189
927	0.189
928	0.19
928	0.19
929	0.19
929	0.189
930	0.189
930	0.189
930	0.189
931	0.188
931	0.188
932	0.188
932	0.188
933	0.188
933	0.187
933	0.187
934	0.187
934	0.186
935	0.186
935	0.186
935	0.186
936	0.186
936	0.185
937	0.185
937	0.184
938	0.184
938	0.183
938	0.183
939	0.182
939	0.181
940	0.18
940	0.179
941	0.179
941	0.178
941	0.177
942	0.177
942	0.176
943	0.176
943	0.175
944	0.174
944	0.174
944	0.174
945	0.173
945	0.173
946	0.172
946	0.172
946	0.172
947	0.172
947	0.172
948	0.173
948	0.173
949	0.173
949	0.173
949	0.173
950	0.172
950	0.172
951	0.171
951	0.17
952	0.169
952	0.168
952	0.167
953	0.166
953	0.164
954	0.163
954	0.162
955	0.162
955	0.161
955	0.161
956	0.16
956	0.161
957	0.161
957	0.161
957	0.161
958	0.162
958	0.162
959	0.162
959	0.162
960	0.162
960	0.162
960	0.162
961	0.162
961	0.162
962	0.162
962	0.161
963	0.161
963	0.161
963	0.161
964	0.161
964	0.161
965	0.161
965	0.161
966	0.162
966	0.162
966	0.163
967	0.163
967	0.163
968	0.163
968	0.163
968	0.163
969	0.162
969	0.161
970	0.161
970	0.16
971	0.159
971	0.158
971	0.157
972	0.156
972	0.156
973	0.155
973	0.155
974	0.154
974	0.154
974	0.154
975	0.154
975	0.154
976	0.154
976	0.154
976	0.153
977	0.153
977	0.153
978	0.152
978	0.152
979	0.151
979	0.15
979	0.15
980	0.149
980	0.149
981	0.148
981	0.147
982	0.147
982	0.146
982	0.146
983	0.146
983	0.145
984	0.145
984	0.145
984	0.144
985	0.144
985	0.144
986	0.144
986	0.143
987	0.143
987	0.142
987	0.142
988	0.141
988	0.141
989	0.141
989	0.14
990	0.14
990	0.139
990	0.139
991	0.139
991	0.139
992	0.139
992	0.138
992	0.138
993	0.137
993	0.137
994	0.136
994	0.136
995	0.136
995	0.135
995	0.135
996	0.135
996	0.134
997	0.134
997	0.134
997	0.134
998	0.134
998	0.134
999	0.134
999	0.135
1000	0.135
1000	0.135
1000	0.135
1001	0.135
1001	0.135
1002	0.134
1002	0.134
1003	0.134
1003	0.134
1003	0.133
1004	0.132
1004	0.132
1005	0.131
1005	0.13
1005	0.13
1006	0.129
1006	0.129
1007	0.128
1007	0.128
1008	0.128
1008	0.128
1008	0.128
1009	0.128
1009	0.129
1010	0.129
1010	0.129
1010	0.13
1011	0.13
1011	0.13
1012	0.13
1012	0.13
1013	0.13
1013	0.13
1013	0.13
1014	0.129
1014	0.129
1015	0.128
1015	0.128
1016	0.127
1016	0.126
1016	0.126
1017	0.125
1017	0.124
1018	0.124
1018	0.123
1018	0.123
1019	0.123
1019	0.122
1020	0.122
1020	0.122
1021	0.122
1021	0.122
1021	0.122
1022	0.123
1022	0.123
1023	0.123
1023	0.123
1023	0.123
1024	0.123
1024	0.123
1025	0.123
1025	0.123
1026	0.123
1026	0.122
1026	0.122
1027	0.122
1027	0.121
1028	0.121
1028	0.121
1028	0.121
1029	0.121
1029	0.12
1030	0.12
1030	0.12
1031	0.121
1031	0.12
1031	0.12
1032	0.12
1032	0.12
1033	0.12
1033	0.12
1033	0.12
1034	0.12
1034	0.12
1035	0.119
1035	0.119
1036	0.119
1036	0.118
1036	0.118
1037	0.118
1037	0.117
1038	0.117
1038	0.116
1039	0.116
1039	0.116
1039	0.116
1040	0.116
1040	0.116
1041	0.116
1041	0.115
1041	0.116
1042	0.116
1042	0.116
1043	0.116
1043	0.116
1044	0.116
1044	0.116
1044	0.116
1045	0.116
1045	0.116
1046	0.116
1046	0.116
1046	0.117
1047	0.117
1047	0.117
1048	0.118
1048	0.118
1049	0.119
1049	0.119
1049	0.119
1050	0.119
1050	0.118
1051	0.118
1051	0.118
1051	0.118
1052	0.117
1052	0.117
1053	0.116
1053	0.115
1053	0.114
1054	0.114
1054	0.113
1055	0.113
1055	0.112
1056	0.112
1056	0.111
1056	0.11
1057	0.109
1057	0.109
1058	0.108
1058	0.107
1058	0.106
1059	0.106
1059	0.105
1060	0.104
1060	0.103
1061	0.103
1061	0.102
1061	0.102
1062	0.102
1062	0.102
1063	0.102
1063	0.101
1063	0.101
1064	0.101
1064	0.1
1065	0.1
1065	0.1
1066	0.1
1066	0.1
1066	0.099
1067	0.099
1067	0.099
1068	0.098
1068	0.098
1068	0.098
1069	0.097
1069	0.097
1070	0.096
1070	0.096
1071	0.095
1071	0.095
1071	0.094
1072	0.094
1072	0.093
1073	0.092
1073	0.091
1073	0.09
1074	0.09
1074	0.09
1075	0.089
1075	0.089
1076	0.089
1076	0.089
1076	0.089
1077	0.089
1077	0.09
1078	0.09
1078	0.091
1078	0.091
1079	0.091
1079	0.091
1080	0.09
1080	0.091
1080	0.09
1081	0.09
1081	0.09
1082	0.091
1082	0.091
1083	0.091
1083	0.091
1083	0.091
1084	0.091
1084	0.091
1085	0.091
1085	0.091
1085	0.091
1086	0.091
1086	0.09
1087	0.089
1087	0.088
1088	0.088
1088	0.088
1088	0.088
1089	0.087
1089	0.087
1090	0.086
1090	0.085
1090	0.085
1091	0.085
1091	0.084
1092	0.085
1092	0.086
1092	0.086
1093	0.085
1093	0.085
1094	0.085
1094	0.085
1095	0.085
1095	0.084
1095	0.084
1096	0.083
1096	0.082
1097	0.08
1097	0.08
1097	0.08
1098	0.079
1098	0.078
1099	0.078
1099	0.077
1100	0.077
1100	0.076
1100	0.075
1101	0.075
1101	0.075
1102	0.074
1102	0.073
1102	0.071
1103	0.071
1103	0.071
1104	0.071
1104	0.07
1104	0.069
1105	0.068
1105	0.066
1106	0.064
1106	0.063
1107	0.062
1107	0.062
1107	0.061
1108	0.059
1108	0.058
1109	0.056
1109	0.057
1109	0.056
1110	0.059
1110	0.057
1111	0.058
1111	0.056
