Data from reversibility-20sec_Absorbance__3232__000000000003232.txt Node

Date: Wed Dec 06 06:10:25 CET 2023
User: Marek
Spectrometer: MAYP115816
Trigger mode: 0
Integration Time (sec): 2.000000E-1
Scans to average: 10
Electric dark correction enabled: true
Nonlinearity correction enabled: true
Boxcar width: 5
XAxis mode: Wavelengths
Number of Pixels in Spectrum: 2068
>>>>>Begin Spectral Data<<<<<
199	-0.085
199	-0.049
200	0.008
200	0.062
201	0.092
201	0.105
202	0.118
202	0.126
203	0.132
203	0.135
204	0.148
204	0.163
205	0.172
205	0.18
205	0.175
206	0.172
206	0.174
207	0.174
207	0.173
208	0.175
208	0.173
209	0.176
209	0.173
210	0.174
210	0.175
211	0.177
211	0.182
212	0.18
212	0.184
213	0.188
213	0.187
213	0.19
214	0.194
214	0.196
215	0.195
215	0.194
216	0.197
216	0.192
217	0.194
217	0.195
218	0.191
218	0.196
219	0.198
219	0.194
220	0.196
220	0.198
221	0.2
221	0.2
221	0.208
222	0.214
222	0.216
223	0.224
223	0.228
224	0.234
224	0.245
225	0.256
225	0.265
226	0.275
226	0.286
227	0.296
227	0.306
228	0.322
228	0.336
229	0.353
229	0.378
229	0.4
230	0.423
230	0.452
231	0.486
231	0.527
232	0.565
232	0.61
233	0.655
233	0.704
234	0.754
234	0.803
235	0.856
235	0.907
236	0.96
236	1.013
236	1.064
237	1.115
237	1.164
238	1.21
238	1.256
239	1.305
239	1.348
240	1.388
240	1.426
241	1.463
241	1.495
242	1.525
242	1.558
243	1.586
243	1.613
243	1.637
244	1.657
244	1.679
245	1.698
245	1.721
246	1.739
246	1.757
247	1.771
247	1.782
248	1.794
248	1.807
249	1.815
249	1.822
250	1.827
250	1.834
250	1.833
251	1.835
251	1.836
252	1.839
252	1.838
253	1.838
253	1.832
254	1.83
254	1.83
255	1.827
255	1.826
256	1.826
256	1.824
257	1.822
257	1.82
258	1.821
258	1.821
258	1.822
259	1.822
259	1.821
260	1.821
260	1.822
261	1.823
261	1.827
262	1.831
262	1.834
263	1.836
263	1.837
264	1.839
264	1.841
265	1.843
265	1.845
265	1.845
266	1.845
266	1.844
267	1.843
267	1.844
268	1.845
268	1.846
269	1.848
269	1.849
270	1.848
270	1.847
271	1.845
271	1.845
272	1.841
272	1.838
272	1.832
273	1.824
273	1.815
274	1.807
274	1.797
275	1.788
275	1.78
276	1.772
276	1.763
277	1.756
277	1.744
278	1.732
278	1.718
278	1.703
279	1.684
279	1.659
280	1.63
280	1.594
281	1.554
281	1.509
282	1.462
282	1.415
283	1.37
283	1.327
284	1.286
284	1.247
285	1.21
285	1.177
285	1.148
286	1.123
286	1.101
287	1.082
287	1.066
288	1.052
288	1.041
289	1.031
289	1.022
290	1.015
290	1.009
291	1.003
291	0.998
292	0.994
292	0.99
292	0.986
293	0.983
293	0.98
294	0.977
294	0.975
295	0.972
295	0.97
296	0.967
296	0.965
297	0.962
297	0.959
298	0.957
298	0.954
298	0.952
299	0.95
299	0.947
300	0.945
300	0.942
301	0.94
301	0.938
302	0.935
302	0.934
303	0.931
303	0.929
304	0.928
304	0.925
305	0.923
305	0.922
305	0.92
306	0.917
306	0.915
307	0.913
307	0.911
308	0.909
308	0.906
309	0.904
309	0.901
310	0.899
310	0.896
311	0.893
311	0.89
311	0.887
312	0.884
312	0.881
313	0.877
313	0.874
314	0.87
314	0.867
315	0.862
315	0.858
316	0.854
316	0.85
317	0.845
317	0.841
318	0.836
318	0.831
318	0.826
319	0.821
319	0.816
320	0.811
320	0.805
321	0.8
321	0.794
322	0.788
322	0.782
323	0.776
323	0.769
324	0.763
324	0.756
324	0.749
325	0.743
325	0.736
326	0.73
326	0.723
327	0.716
327	0.709
328	0.703
328	0.696
329	0.689
329	0.682
330	0.675
330	0.668
330	0.661
331	0.655
331	0.648
332	0.641
332	0.634
333	0.627
333	0.621
334	0.614
334	0.607
335	0.6
335	0.594
336	0.587
336	0.581
336	0.575
337	0.568
337	0.562
338	0.556
338	0.55
339	0.544
339	0.538
340	0.533
340	0.527
341	0.521
341	0.516
342	0.51
342	0.505
342	0.5
343	0.495
343	0.49
344	0.485
344	0.48
345	0.475
345	0.471
346	0.467
346	0.462
347	0.458
347	0.454
348	0.45
348	0.446
348	0.442
349	0.438
349	0.435
350	0.431
350	0.428
351	0.425
351	0.421
352	0.418
352	0.416
353	0.413
353	0.41
354	0.407
354	0.404
354	0.402
355	0.399
355	0.396
356	0.393
356	0.39
357	0.387
357	0.384
358	0.382
358	0.379
359	0.377
359	0.374
360	0.373
360	0.371
360	0.369
361	0.367
361	0.365
362	0.364
362	0.363
363	0.361
363	0.359
364	0.357
364	0.355
365	0.354
365	0.352
366	0.35
366	0.349
366	0.347
367	0.345
367	0.344
368	0.342
368	0.34
369	0.339
369	0.338
370	0.336
370	0.335
371	0.334
371	0.333
372	0.331
372	0.33
372	0.329
373	0.328
373	0.327
374	0.326
374	0.325
375	0.324
375	0.324
376	0.323
376	0.322
377	0.321
377	0.32
378	0.319
378	0.318
378	0.317
379	0.317
379	0.316
380	0.315
380	0.314
381	0.313
381	0.313
382	0.312
382	0.312
383	0.311
383	0.311
383	0.31
384	0.31
384	0.309
385	0.309
385	0.308
386	0.308
386	0.307
387	0.307
387	0.307
388	0.306
388	0.306
389	0.305
389	0.305
389	0.305
390	0.304
390	0.304
391	0.303
391	0.303
392	0.303
392	0.303
393	0.302
393	0.302
394	0.302
394	0.301
394	0.301
395	0.301
395	0.301
396	0.3
396	0.3
397	0.3
397	0.299
398	0.299
398	0.298
399	0.298
399	0.298
400	0.298
400	0.297
400	0.297
401	0.297
401	0.296
402	0.296
402	0.295
403	0.295
403	0.295
404	0.294
404	0.294
405	0.294
405	0.294
405	0.294
406	0.293
406	0.293
407	0.293
407	0.292
408	0.292
408	0.292
409	0.292
409	0.291
410	0.291
410	0.291
411	0.291
411	0.29
411	0.29
412	0.29
412	0.29
413	0.289
413	0.289
414	0.289
414	0.288
415	0.288
415	0.288
416	0.287
416	0.287
416	0.287
417	0.286
417	0.286
418	0.286
418	0.285
419	0.285
419	0.285
420	0.284
420	0.284
421	0.284
421	0.283
421	0.283
422	0.283
422	0.283
423	0.282
423	0.282
424	0.282
424	0.281
425	0.281
425	0.281
426	0.281
426	0.28
427	0.28
427	0.279
427	0.279
428	0.279
428	0.279
429	0.278
429	0.278
430	0.278
430	0.278
431	0.277
431	0.277
432	0.277
432	0.277
432	0.276
433	0.276
433	0.276
434	0.276
434	0.276
435	0.276
435	0.275
436	0.276
436	0.275
437	0.275
437	0.275
437	0.274
438	0.274
438	0.274
439	0.274
439	0.273
440	0.273
440	0.273
441	0.272
441	0.272
442	0.272
442	0.271
442	0.271
443	0.271
443	0.271
444	0.27
444	0.27
445	0.27
445	0.27
446	0.27
446	0.269
447	0.269
447	0.269
447	0.269
448	0.269
448	0.269
449	0.268
449	0.268
450	0.268
450	0.268
451	0.268
451	0.267
452	0.267
452	0.267
452	0.267
453	0.267
453	0.267
454	0.266
454	0.266
455	0.266
455	0.266
456	0.265
456	0.265
457	0.265
457	0.265
458	0.264
458	0.264
458	0.264
459	0.264
459	0.264
460	0.264
460	0.264
461	0.264
461	0.264
462	0.263
462	0.263
463	0.263
463	0.263
463	0.262
464	0.262
464	0.261
465	0.261
465	0.261
466	0.261
466	0.261
467	0.261
467	0.261
467	0.261
468	0.26
468	0.26
469	0.26
469	0.261
470	0.261
470	0.261
471	0.26
471	0.26
472	0.26
472	0.26
472	0.26
473	0.26
473	0.26
474	0.259
474	0.259
475	0.259
475	0.259
476	0.259
476	0.259
477	0.259
477	0.259
477	0.259
478	0.259
478	0.259
479	0.259
479	0.259
480	0.259
480	0.259
481	0.259
481	0.259
482	0.259
482	0.259
482	0.259
483	0.26
483	0.26
484	0.26
484	0.26
485	0.26
485	0.26
486	0.26
486	0.26
487	0.26
487	0.261
487	0.261
488	0.261
488	0.261
489	0.261
489	0.262
490	0.262
490	0.262
491	0.263
491	0.264
492	0.264
492	0.264
492	0.265
493	0.265
493	0.266
494	0.266
494	0.267
495	0.267
495	0.268
496	0.268
496	0.269
496	0.269
497	0.269
497	0.269
498	0.27
498	0.27
499	0.27
499	0.271
500	0.271
500	0.272
501	0.272
501	0.273
501	0.273
502	0.273
502	0.274
503	0.274
503	0.275
504	0.275
504	0.276
505	0.276
505	0.277
506	0.277
506	0.277
506	0.277
507	0.278
507	0.278
508	0.279
508	0.279
509	0.279
509	0.28
510	0.28
510	0.281
511	0.282
511	0.283
511	0.283
512	0.284
512	0.284
513	0.285
513	0.285
514	0.286
514	0.286
515	0.287
515	0.287
515	0.287
516	0.287
516	0.288
517	0.288
517	0.289
518	0.289
518	0.289
519	0.289
519	0.29
520	0.29
520	0.29
520	0.291
521	0.291
521	0.292
522	0.292
522	0.292
523	0.293
523	0.293
524	0.294
524	0.294
524	0.294
525	0.294
525	0.294
526	0.294
526	0.294
527	0.294
527	0.294
528	0.294
528	0.294
529	0.294
529	0.294
529	0.294
530	0.294
530	0.294
531	0.294
531	0.294
532	0.294
532	0.294
533	0.293
533	0.293
533	0.293
534	0.293
534	0.292
535	0.292
535	0.292
536	0.291
536	0.292
537	0.291
537	0.291
538	0.291
538	0.291
538	0.291
539	0.291
539	0.291
540	0.291
540	0.291
541	0.291
541	0.29
542	0.29
542	0.29
542	0.29
543	0.29
543	0.29
544	0.289
544	0.289
545	0.289
545	0.289
546	0.289
546	0.289
547	0.288
547	0.288
547	0.287
548	0.287
548	0.287
549	0.286
549	0.286
550	0.286
550	0.285
551	0.285
551	0.284
551	0.284
552	0.284
552	0.284
553	0.283
553	0.283
554	0.283
554	0.282
555	0.281
555	0.281
556	0.28
556	0.28
556	0.28
557	0.28
557	0.279
558	0.279
558	0.279
559	0.279
559	0.279
560	0.279
560	0.279
560	0.279
561	0.278
561	0.278
562	0.277
562	0.276
563	0.276
563	0.275
564	0.275
564	0.274
564	0.274
565	0.273
565	0.273
566	0.272
566	0.272
567	0.272
567	0.272
568	0.272
568	0.272
568	0.271
569	0.271
569	0.27
570	0.269
570	0.269
571	0.268
571	0.268
572	0.268
572	0.267
573	0.267
573	0.267
573	0.266
574	0.266
574	0.266
575	0.266
575	0.266
576	0.266
576	0.265
577	0.265
577	0.264
577	0.264
578	0.263
578	0.263
579	0.263
579	0.263
580	0.262
580	0.262
581	0.261
581	0.261
581	0.261
582	0.261
582	0.261
583	0.261
583	0.261
584	0.26
584	0.259
585	0.259
585	0.258
585	0.258
586	0.257
586	0.257
587	0.256
587	0.256
588	0.255
588	0.255
589	0.255
589	0.255
590	0.254
590	0.254
590	0.254
591	0.254
591	0.253
592	0.253
592	0.252
593	0.252
593	0.251
594	0.25
594	0.25
594	0.249
595	0.249
595	0.248
596	0.248
596	0.248
597	0.248
597	0.249
598	0.249
598	0.249
598	0.249
599	0.249
599	0.249
600	0.249
600	0.249
601	0.249
601	0.248
602	0.248
602	0.247
602	0.246
603	0.246
603	0.246
604	0.246
604	0.246
605	0.246
605	0.245
606	0.245
606	0.244
606	0.244
607	0.244
607	0.243
608	0.243
608	0.242
609	0.242
609	0.241
610	0.241
610	0.24
610	0.24
611	0.24
611	0.24
612	0.24
612	0.24
613	0.241
613	0.241
614	0.241
614	0.24
614	0.241
615	0.241
615	0.24
616	0.241
616	0.24
617	0.24
617	0.24
618	0.24
618	0.24
618	0.24
619	0.24
619	0.24
620	0.239
620	0.239
621	0.239
621	0.239
622	0.238
622	0.238
622	0.237
623	0.237
623	0.237
624	0.236
624	0.236
625	0.236
625	0.235
626	0.235
626	0.235
626	0.235
627	0.235
627	0.235
628	0.234
628	0.234
629	0.234
629	0.234
630	0.234
630	0.234
630	0.234
631	0.234
631	0.234
632	0.234
632	0.234
633	0.234
633	0.234
634	0.234
634	0.234
634	0.234
635	0.234
635	0.234
636	0.234
636	0.234
637	0.233
637	0.233
638	0.233
638	0.232
638	0.232
639	0.231
639	0.231
640	0.231
640	0.231
641	0.231
641	0.23
642	0.23
642	0.23
642	0.23
643	0.23
643	0.231
644	0.231
644	0.231
645	0.231
645	0.231
646	0.231
646	0.231
646	0.231
647	0.231
647	0.231
648	0.231
648	0.23
649	0.23
649	0.23
650	0.23
650	0.23
650	0.23
651	0.229
651	0.229
652	0.229
652	0.23
653	0.23
653	0.232
653	0.237
654	0.184
654	0.146
655	0.149
655	0.149
656	0.15
656	0.15
657	0.151
657	0.151
657	0.151
658	0.15
658	0.138
659	0.176
659	0.229
660	0.232
660	0.231
661	0.231
661	0.23
661	0.23
662	0.229
662	0.229
663	0.228
663	0.228
664	0.228
664	0.228
665	0.228
665	0.228
665	0.228
666	0.228
666	0.229
667	0.229
667	0.23
668	0.23
668	0.23
669	0.23
669	0.231
669	0.231
670	0.232
670	0.232
671	0.232
671	0.231
672	0.231
672	0.23
672	0.23
673	0.23
673	0.229
674	0.229
674	0.228
675	0.227
675	0.227
676	0.228
676	0.228
676	0.228
677	0.228
677	0.229
678	0.229
678	0.228
679	0.228
679	0.228
680	0.228
680	0.228
680	0.228
681	0.228
681	0.229
682	0.229
682	0.229
683	0.23
683	0.23
684	0.231
684	0.23
684	0.231
685	0.231
685	0.231
686	0.231
686	0.231
687	0.231
687	0.231
687	0.232
688	0.232
688	0.232
689	0.233
689	0.234
690	0.234
690	0.234
691	0.234
691	0.234
691	0.234
692	0.234
692	0.234
693	0.235
693	0.235
694	0.235
694	0.234
695	0.235
695	0.236
695	0.236
696	0.236
696	0.236
697	0.237
697	0.237
698	0.237
698	0.236
698	0.237
699	0.237
699	0.237
700	0.236
700	0.236
701	0.236
701	0.235
702	0.235
702	0.234
702	0.234
703	0.234
703	0.234
704	0.233
704	0.234
705	0.234
705	0.234
705	0.234
706	0.234
706	0.234
707	0.234
707	0.234
708	0.235
708	0.235
709	0.235
709	0.235
709	0.234
710	0.234
710	0.234
711	0.235
711	0.235
712	0.235
712	0.235
713	0.236
713	0.236
713	0.236
714	0.236
714	0.236
715	0.236
715	0.236
716	0.236
716	0.236
716	0.236
717	0.235
717	0.235
718	0.234
718	0.234
719	0.234
719	0.235
720	0.235
720	0.235
720	0.236
721	0.236
721	0.237
722	0.238
722	0.238
723	0.238
723	0.239
723	0.239
724	0.239
724	0.238
725	0.238
725	0.237
726	0.237
726	0.236
727	0.236
727	0.236
727	0.236
728	0.236
728	0.236
729	0.236
729	0.237
730	0.238
730	0.238
730	0.239
731	0.24
731	0.24
732	0.241
732	0.241
733	0.241
733	0.241
734	0.242
734	0.242
734	0.242
735	0.242
735	0.242
736	0.241
736	0.241
737	0.241
737	0.241
737	0.24
738	0.24
738	0.239
739	0.239
739	0.239
740	0.238
740	0.238
741	0.239
741	0.239
741	0.239
742	0.239
742	0.24
743	0.24
743	0.241
744	0.241
744	0.242
744	0.242
745	0.242
745	0.242
746	0.242
746	0.242
747	0.242
747	0.243
748	0.243
748	0.243
748	0.243
749	0.243
749	0.243
750	0.243
750	0.243
751	0.244
751	0.244
751	0.244
752	0.243
752	0.243
753	0.242
753	0.242
754	0.241
754	0.241
754	0.24
755	0.24
755	0.24
756	0.239
756	0.238
757	0.238
757	0.239
758	0.239
758	0.239
758	0.24
759	0.24
759	0.24
760	0.24
760	0.24
761	0.24
761	0.241
761	0.241
762	0.241
762	0.242
763	0.242
763	0.242
764	0.242
764	0.242
764	0.242
765	0.242
765	0.242
766	0.242
766	0.242
767	0.242
767	0.241
768	0.241
768	0.241
768	0.241
769	0.241
769	0.241
770	0.241
770	0.242
771	0.242
771	0.242
771	0.242
772	0.243
772	0.243
773	0.244
773	0.244
774	0.244
774	0.245
775	0.245
775	0.245
775	0.246
776	0.246
776	0.246
777	0.246
777	0.247
778	0.246
778	0.246
778	0.246
779	0.245
779	0.245
780	0.244
780	0.243
781	0.243
781	0.243
781	0.243
782	0.243
782	0.243
783	0.243
783	0.243
784	0.243
784	0.244
784	0.244
785	0.245
785	0.245
786	0.245
786	0.245
787	0.245
787	0.245
788	0.245
788	0.244
788	0.244
789	0.244
789	0.244
790	0.244
790	0.244
791	0.244
791	0.244
791	0.244
792	0.245
792	0.246
793	0.246
793	0.247
794	0.247
794	0.247
794	0.247
795	0.247
795	0.248
796	0.248
796	0.248
797	0.247
797	0.247
797	0.247
798	0.247
798	0.247
799	0.247
799	0.247
800	0.247
800	0.246
801	0.246
801	0.246
801	0.246
802	0.246
802	0.246
803	0.247
803	0.247
804	0.247
804	0.248
804	0.248
805	0.249
805	0.249
806	0.249
806	0.249
807	0.249
807	0.249
807	0.249
808	0.249
808	0.249
809	0.249
809	0.249
810	0.249
810	0.249
810	0.249
811	0.248
811	0.249
812	0.249
812	0.249
813	0.249
813	0.25
813	0.25
814	0.251
814	0.252
815	0.252
815	0.253
816	0.253
816	0.253
817	0.252
817	0.252
817	0.252
818	0.251
818	0.251
819	0.25
819	0.25
820	0.249
820	0.248
820	0.248
821	0.248
821	0.248
822	0.248
822	0.249
823	0.249
823	0.25
823	0.251
824	0.252
824	0.253
825	0.255
825	0.256
826	0.257
826	0.257
826	0.257
827	0.258
827	0.258
828	0.258
828	0.258
829	0.257
829	0.257
829	0.257
830	0.257
830	0.257
831	0.258
831	0.258
832	0.258
832	0.258
832	0.259
833	0.259
833	0.259
834	0.259
834	0.259
835	0.259
835	0.259
835	0.258
836	0.258
836	0.258
837	0.258
837	0.258
838	0.257
838	0.256
839	0.256
839	0.255
839	0.254
840	0.253
840	0.252
841	0.252
841	0.251
842	0.251
842	0.25
842	0.25
843	0.25
843	0.25
844	0.25
844	0.251
845	0.251
845	0.251
845	0.251
846	0.252
846	0.252
847	0.252
847	0.252
848	0.253
848	0.253
848	0.253
849	0.253
849	0.252
850	0.252
850	0.252
851	0.251
851	0.251
851	0.251
852	0.25
852	0.25
853	0.25
853	0.25
854	0.25
854	0.251
854	0.252
855	0.253
855	0.253
856	0.254
856	0.255
857	0.256
857	0.257
857	0.257
858	0.257
858	0.257
859	0.256
859	0.255
860	0.255
860	0.253
860	0.252
861	0.251
861	0.25
862	0.249
862	0.248
863	0.247
863	0.247
863	0.246
864	0.246
864	0.246
865	0.246
865	0.247
866	0.247
866	0.247
866	0.247
867	0.247
867	0.248
868	0.248
868	0.248
869	0.248
869	0.248
869	0.247
870	0.246
870	0.246
871	0.246
871	0.246
872	0.246
872	0.246
872	0.245
873	0.245
873	0.245
874	0.245
874	0.245
875	0.245
875	0.244
875	0.244
876	0.244
876	0.243
877	0.243
877	0.243
878	0.243
878	0.243
878	0.243
879	0.244
879	0.244
880	0.245
880	0.245
881	0.245
881	0.246
881	0.246
882	0.246
882	0.246
883	0.246
883	0.246
884	0.246
884	0.246
884	0.246
885	0.246
885	0.245
886	0.245
886	0.244
887	0.244
887	0.243
887	0.243
888	0.242
888	0.241
889	0.241
889	0.24
890	0.24
890	0.24
890	0.24
891	0.239
891	0.239
892	0.239
892	0.239
893	0.238
893	0.238
893	0.238
894	0.237
894	0.236
895	0.236
895	0.235
895	0.235
896	0.234
896	0.234
897	0.233
897	0.233
898	0.232
898	0.232
898	0.231
899	0.231
899	0.231
900	0.23
900	0.23
901	0.23
901	0.23
901	0.23
902	0.23
902	0.23
903	0.23
903	0.23
904	0.23
904	0.229
904	0.229
905	0.229
905	0.229
906	0.23
906	0.23
907	0.231
907	0.231
907	0.232
908	0.232
908	0.233
909	0.233
909	0.234
910	0.234
910	0.234
910	0.233
911	0.233
911	0.232
912	0.232
912	0.231
913	0.231
913	0.23
913	0.229
914	0.229
914	0.228
915	0.228
915	0.227
916	0.227
916	0.227
916	0.227
917	0.226
917	0.226
918	0.225
918	0.225
918	0.224
919	0.223
919	0.223
920	0.222
920	0.221
921	0.221
921	0.22
921	0.22
922	0.22
922	0.219
923	0.219
923	0.22
924	0.22
924	0.22
924	0.221
925	0.221
925	0.221
926	0.221
926	0.221
927	0.221
927	0.22
927	0.22
928	0.22
928	0.219
929	0.219
929	0.218
930	0.218
930	0.217
930	0.217
931	0.217
931	0.217
932	0.217
932	0.217
933	0.217
933	0.217
933	0.217
934	0.217
934	0.217
935	0.217
935	0.217
935	0.217
936	0.216
936	0.216
937	0.215
937	0.215
938	0.214
938	0.213
938	0.213
939	0.212
939	0.211
940	0.21
940	0.21
941	0.209
941	0.208
941	0.208
942	0.208
942	0.207
943	0.207
943	0.207
944	0.206
944	0.206
944	0.206
945	0.205
945	0.205
946	0.205
946	0.205
946	0.205
947	0.204
947	0.204
948	0.204
948	0.204
949	0.204
949	0.204
949	0.204
950	0.204
950	0.204
951	0.203
951	0.202
952	0.202
952	0.201
952	0.2
953	0.199
953	0.198
954	0.197
954	0.196
955	0.195
955	0.194
955	0.193
956	0.193
956	0.193
957	0.193
957	0.192
957	0.192
958	0.192
958	0.192
959	0.192
959	0.192
960	0.191
960	0.191
960	0.191
961	0.191
961	0.19
962	0.19
962	0.19
963	0.189
963	0.189
963	0.189
964	0.189
964	0.189
965	0.189
965	0.189
966	0.189
966	0.189
966	0.19
967	0.19
967	0.19
968	0.19
968	0.19
968	0.19
969	0.19
969	0.189
970	0.189
970	0.188
971	0.188
971	0.187
971	0.187
972	0.187
972	0.186
973	0.186
973	0.186
974	0.186
974	0.186
974	0.186
975	0.186
975	0.186
976	0.186
976	0.187
976	0.186
977	0.186
977	0.186
978	0.186
978	0.185
979	0.185
979	0.184
979	0.184
980	0.183
980	0.182
981	0.181
981	0.181
982	0.18
982	0.18
982	0.179
983	0.179
983	0.179
984	0.178
984	0.178
984	0.178
985	0.177
985	0.177
986	0.176
986	0.176
987	0.176
987	0.175
987	0.174
988	0.174
988	0.173
989	0.172
989	0.172
990	0.171
990	0.17
990	0.17
991	0.169
991	0.169
992	0.168
992	0.168
992	0.167
993	0.167
993	0.166
994	0.165
994	0.165
995	0.164
995	0.164
995	0.164
996	0.163
996	0.163
997	0.164
997	0.164
997	0.164
998	0.164
998	0.165
999	0.165
999	0.166
1000	0.166
1000	0.167
1000	0.167
1001	0.167
1001	0.167
1002	0.167
1002	0.167
1003	0.166
1003	0.166
1003	0.165
1004	0.164
1004	0.163
1005	0.163
1005	0.162
1005	0.161
1006	0.16
1006	0.16
1007	0.159
1007	0.159
1008	0.159
1008	0.159
1008	0.159
1009	0.159
1009	0.159
1010	0.159
1010	0.159
1010	0.159
1011	0.159
1011	0.159
1012	0.159
1012	0.159
1013	0.159
1013	0.158
1013	0.158
1014	0.158
1014	0.157
1015	0.157
1015	0.157
1016	0.157
1016	0.156
1016	0.155
1017	0.155
1017	0.154
1018	0.154
1018	0.154
1018	0.153
1019	0.153
1019	0.153
1020	0.152
1020	0.152
1021	0.152
1021	0.153
1021	0.153
1022	0.153
1022	0.153
1023	0.153
1023	0.153
1023	0.153
1024	0.153
1024	0.153
1025	0.153
1025	0.152
1026	0.152
1026	0.151
1026	0.151
1027	0.15
1027	0.15
1028	0.15
1028	0.15
1028	0.15
1029	0.149
1029	0.149
1030	0.149
1030	0.15
1031	0.15
1031	0.15
1031	0.15
1032	0.15
1032	0.149
1033	0.149
1033	0.149
1033	0.149
1034	0.149
1034	0.148
1035	0.148
1035	0.147
1036	0.147
1036	0.147
1036	0.146
1037	0.146
1037	0.146
1038	0.146
1038	0.146
1039	0.146
1039	0.146
1039	0.146
1040	0.146
1040	0.146
1041	0.146
1041	0.146
1041	0.146
1042	0.146
1042	0.146
1043	0.146
1043	0.146
1044	0.146
1044	0.147
1044	0.147
1045	0.147
1045	0.147
1046	0.147
1046	0.147
1046	0.148
1047	0.148
1047	0.148
1048	0.148
1048	0.149
1049	0.149
1049	0.15
1049	0.15
1050	0.15
1050	0.15
1051	0.15
1051	0.15
1051	0.149
1052	0.149
1052	0.148
1053	0.147
1053	0.147
1053	0.146
1054	0.145
1054	0.144
1055	0.144
1055	0.143
1056	0.143
1056	0.142
1056	0.141
1057	0.14
1057	0.14
1058	0.139
1058	0.138
1058	0.137
1059	0.136
1059	0.136
1060	0.135
1060	0.134
1061	0.133
1061	0.132
1061	0.132
1062	0.131
1062	0.131
1063	0.13
1063	0.13
1063	0.129
1064	0.128
1064	0.128
1065	0.128
1065	0.127
1066	0.127
1066	0.126
1066	0.126
1067	0.126
1067	0.126
1068	0.125
1068	0.125
1068	0.125
1069	0.125
1069	0.124
1070	0.124
1070	0.124
1071	0.123
1071	0.123
1071	0.122
1072	0.122
1072	0.121
1073	0.12
1073	0.12
1073	0.12
1074	0.12
1074	0.12
1075	0.12
1075	0.12
1076	0.12
1076	0.121
1076	0.121
1077	0.121
1077	0.121
1078	0.121
1078	0.121
1078	0.121
1079	0.12
1079	0.12
1080	0.119
1080	0.119
1080	0.119
1081	0.119
1081	0.119
1082	0.119
1082	0.119
1083	0.119
1083	0.118
1083	0.118
1084	0.118
1084	0.118
1085	0.118
1085	0.118
1085	0.118
1086	0.118
1086	0.117
1087	0.117
1087	0.116
1088	0.115
1088	0.115
1088	0.115
1089	0.114
1089	0.113
1090	0.112
1090	0.111
1090	0.11
1091	0.11
1091	0.109
1092	0.109
1092	0.109
1092	0.109
1093	0.109
1093	0.109
1094	0.109
1094	0.109
1095	0.108
1095	0.108
1095	0.108
1096	0.108
1096	0.106
1097	0.106
1097	0.105
1097	0.105
1098	0.104
1098	0.103
1099	0.103
1099	0.102
1100	0.101
1100	0.1
1100	0.099
1101	0.099
1101	0.098
1102	0.097
1102	0.096
1102	0.095
1103	0.094
1103	0.094
1104	0.095
1104	0.095
1104	0.094
1105	0.093
1105	0.09
1106	0.089
1106	0.088
1107	0.089
1107	0.088
1107	0.087
1108	0.085
1108	0.084
1109	0.082
1109	0.082
1109	0.081
1110	0.083
1110	0.082
1111	0.083
1111	0.08
