Data from reversibility-20sec_Absorbance__3156__000000000003156.txt Node

Date: Wed Dec 06 05:45:05 CET 2023
User: Marek
Spectrometer: MAYP115816
Trigger mode: 0
Integration Time (sec): 2.000000E-1
Scans to average: 10
Electric dark correction enabled: true
Nonlinearity correction enabled: true
Boxcar width: 5
XAxis mode: Wavelengths
Number of Pixels in Spectrum: 2068
>>>>>Begin Spectral Data<<<<<
199	-0.102
199	-0.08
200	-0.002
200	0.05
201	0.079
201	0.095
202	0.108
202	0.117
203	0.123
203	0.127
204	0.143
204	0.157
205	0.171
205	0.175
205	0.175
206	0.174
206	0.177
207	0.181
207	0.182
208	0.183
208	0.183
209	0.184
209	0.184
210	0.187
210	0.188
211	0.187
211	0.191
212	0.185
212	0.184
213	0.188
213	0.189
213	0.19
214	0.193
214	0.194
215	0.193
215	0.191
216	0.196
216	0.194
217	0.201
217	0.201
218	0.199
218	0.206
219	0.21
219	0.21
220	0.212
220	0.214
221	0.217
221	0.217
221	0.223
222	0.229
222	0.233
223	0.238
223	0.237
224	0.241
224	0.248
225	0.255
225	0.261
226	0.27
226	0.28
227	0.287
227	0.295
228	0.311
228	0.325
229	0.343
229	0.367
229	0.387
230	0.412
230	0.444
231	0.474
231	0.513
232	0.55
232	0.594
233	0.638
233	0.688
234	0.737
234	0.79
235	0.845
235	0.9
236	0.952
236	1.006
236	1.058
237	1.114
237	1.162
238	1.209
238	1.259
239	1.31
239	1.355
240	1.399
240	1.436
241	1.477
241	1.513
242	1.544
242	1.581
243	1.615
243	1.64
243	1.667
244	1.689
244	1.713
245	1.731
245	1.756
246	1.776
246	1.795
247	1.813
247	1.825
248	1.843
248	1.86
249	1.871
249	1.877
250	1.882
250	1.891
250	1.893
251	1.894
251	1.895
252	1.899
252	1.897
253	1.895
253	1.893
254	1.893
254	1.892
255	1.89
255	1.89
256	1.889
256	1.887
257	1.888
257	1.886
258	1.886
258	1.886
258	1.887
259	1.885
259	1.887
260	1.887
260	1.889
261	1.893
261	1.898
262	1.901
262	1.907
263	1.913
263	1.915
264	1.918
264	1.923
265	1.926
265	1.929
265	1.931
266	1.93
266	1.932
267	1.931
267	1.933
268	1.933
268	1.935
269	1.939
269	1.94
270	1.939
270	1.938
271	1.936
271	1.935
272	1.931
272	1.928
272	1.92
273	1.912
273	1.903
274	1.891
274	1.881
275	1.872
275	1.863
276	1.853
276	1.844
277	1.836
277	1.825
278	1.813
278	1.799
278	1.782
279	1.761
279	1.733
280	1.7
280	1.661
281	1.615
281	1.564
282	1.512
282	1.461
283	1.412
283	1.365
284	1.321
284	1.279
285	1.24
285	1.206
285	1.175
286	1.149
286	1.126
287	1.106
287	1.089
288	1.075
288	1.063
289	1.052
289	1.043
290	1.036
290	1.029
291	1.024
291	1.019
292	1.014
292	1.011
292	1.007
293	1.004
293	1.001
294	0.998
294	0.995
295	0.993
295	0.99
296	0.987
296	0.985
297	0.983
297	0.98
298	0.977
298	0.975
298	0.972
299	0.97
299	0.967
300	0.965
300	0.963
301	0.96
301	0.958
302	0.955
302	0.954
303	0.951
303	0.95
304	0.948
304	0.946
305	0.944
305	0.941
305	0.939
306	0.938
306	0.935
307	0.933
307	0.931
308	0.929
308	0.926
309	0.923
309	0.921
310	0.918
310	0.915
311	0.913
311	0.91
311	0.906
312	0.903
312	0.9
313	0.896
313	0.892
314	0.889
314	0.885
315	0.88
315	0.876
316	0.872
316	0.868
317	0.863
317	0.858
318	0.853
318	0.848
318	0.843
319	0.838
319	0.833
320	0.827
320	0.822
321	0.816
321	0.81
322	0.804
322	0.797
323	0.791
323	0.785
324	0.778
324	0.771
324	0.765
325	0.758
325	0.751
326	0.744
326	0.738
327	0.731
327	0.724
328	0.717
328	0.71
329	0.704
329	0.697
330	0.689
330	0.682
330	0.675
331	0.668
331	0.661
332	0.654
332	0.647
333	0.64
333	0.633
334	0.626
334	0.619
335	0.613
335	0.606
336	0.599
336	0.593
336	0.586
337	0.58
337	0.574
338	0.567
338	0.561
339	0.555
339	0.549
340	0.543
340	0.538
341	0.532
341	0.527
342	0.521
342	0.516
342	0.51
343	0.505
343	0.5
344	0.495
344	0.49
345	0.486
345	0.481
346	0.477
346	0.472
347	0.468
347	0.464
348	0.46
348	0.456
348	0.452
349	0.448
349	0.445
350	0.441
350	0.438
351	0.435
351	0.431
352	0.428
352	0.425
353	0.422
353	0.419
354	0.416
354	0.413
354	0.41
355	0.408
355	0.405
356	0.402
356	0.399
357	0.396
357	0.393
358	0.39
358	0.388
359	0.386
359	0.383
360	0.381
360	0.379
360	0.377
361	0.376
361	0.374
362	0.373
362	0.371
363	0.369
363	0.368
364	0.366
364	0.364
365	0.362
365	0.361
366	0.359
366	0.357
366	0.356
367	0.354
367	0.352
368	0.35
368	0.349
369	0.347
369	0.346
370	0.345
370	0.343
371	0.342
371	0.341
372	0.34
372	0.338
372	0.337
373	0.337
373	0.336
374	0.335
374	0.334
375	0.333
375	0.332
376	0.331
376	0.33
377	0.329
377	0.328
378	0.327
378	0.326
378	0.325
379	0.324
379	0.323
380	0.322
380	0.322
381	0.321
381	0.32
382	0.32
382	0.32
383	0.319
383	0.318
383	0.318
384	0.317
384	0.317
385	0.316
385	0.316
386	0.315
386	0.315
387	0.314
387	0.314
388	0.313
388	0.313
389	0.313
389	0.313
389	0.312
390	0.312
390	0.311
391	0.311
391	0.311
392	0.31
392	0.31
393	0.31
393	0.309
394	0.309
394	0.308
394	0.308
395	0.308
395	0.308
396	0.307
396	0.307
397	0.306
397	0.306
398	0.306
398	0.305
399	0.305
399	0.305
400	0.305
400	0.304
400	0.304
401	0.304
401	0.303
402	0.303
402	0.303
403	0.302
403	0.302
404	0.301
404	0.301
405	0.301
405	0.3
405	0.3
406	0.3
406	0.299
407	0.299
407	0.299
408	0.299
408	0.298
409	0.298
409	0.298
410	0.297
410	0.297
411	0.297
411	0.297
411	0.297
412	0.297
412	0.296
413	0.296
413	0.295
414	0.295
414	0.295
415	0.295
415	0.294
416	0.294
416	0.294
416	0.293
417	0.293
417	0.292
418	0.292
418	0.292
419	0.291
419	0.291
420	0.29
420	0.29
421	0.29
421	0.289
421	0.289
422	0.289
422	0.288
423	0.288
423	0.288
424	0.287
424	0.287
425	0.287
425	0.286
426	0.286
426	0.286
427	0.285
427	0.285
427	0.285
428	0.284
428	0.284
429	0.284
429	0.283
430	0.283
430	0.283
431	0.283
431	0.283
432	0.283
432	0.282
432	0.282
433	0.282
433	0.281
434	0.281
434	0.281
435	0.281
435	0.281
436	0.281
436	0.281
437	0.28
437	0.28
437	0.28
438	0.28
438	0.279
439	0.279
439	0.279
440	0.279
440	0.278
441	0.278
441	0.278
442	0.277
442	0.277
442	0.277
443	0.276
443	0.276
444	0.276
444	0.276
445	0.276
445	0.275
446	0.275
446	0.275
447	0.275
447	0.274
447	0.274
448	0.274
448	0.274
449	0.274
449	0.274
450	0.273
450	0.273
451	0.273
451	0.273
452	0.273
452	0.273
452	0.272
453	0.272
453	0.272
454	0.272
454	0.271
455	0.271
455	0.271
456	0.271
456	0.27
457	0.27
457	0.27
458	0.27
458	0.269
458	0.269
459	0.269
459	0.269
460	0.269
460	0.269
461	0.269
461	0.268
462	0.268
462	0.268
463	0.268
463	0.268
463	0.267
464	0.267
464	0.266
465	0.266
465	0.266
466	0.265
466	0.265
467	0.265
467	0.265
467	0.265
468	0.265
468	0.265
469	0.265
469	0.265
470	0.265
470	0.265
471	0.265
471	0.264
472	0.264
472	0.264
472	0.264
473	0.264
473	0.264
474	0.264
474	0.264
475	0.264
475	0.264
476	0.264
476	0.264
477	0.264
477	0.264
477	0.264
478	0.263
478	0.263
479	0.264
479	0.264
480	0.264
480	0.264
481	0.264
481	0.264
482	0.264
482	0.264
482	0.264
483	0.264
483	0.264
484	0.265
484	0.264
485	0.264
485	0.264
486	0.264
486	0.265
487	0.265
487	0.265
487	0.265
488	0.265
488	0.265
489	0.265
489	0.266
490	0.267
490	0.267
491	0.268
491	0.268
492	0.268
492	0.269
492	0.269
493	0.27
493	0.27
494	0.271
494	0.271
495	0.271
495	0.272
496	0.272
496	0.273
496	0.273
497	0.273
497	0.274
498	0.274
498	0.274
499	0.275
499	0.275
500	0.276
500	0.276
501	0.277
501	0.277
501	0.278
502	0.278
502	0.278
503	0.278
503	0.279
504	0.279
504	0.28
505	0.28
505	0.28
506	0.281
506	0.281
506	0.281
507	0.282
507	0.282
508	0.283
508	0.284
509	0.284
509	0.284
510	0.285
510	0.286
511	0.286
511	0.287
511	0.288
512	0.288
512	0.289
513	0.289
513	0.29
514	0.29
514	0.29
515	0.291
515	0.291
515	0.292
516	0.292
516	0.292
517	0.293
517	0.293
518	0.293
518	0.293
519	0.294
519	0.294
520	0.294
520	0.295
520	0.295
521	0.295
521	0.296
522	0.296
522	0.296
523	0.297
523	0.297
524	0.297
524	0.297
524	0.298
525	0.298
525	0.298
526	0.298
526	0.298
527	0.298
527	0.298
528	0.298
528	0.298
529	0.298
529	0.298
529	0.298
530	0.298
530	0.299
531	0.299
531	0.299
532	0.299
532	0.298
533	0.298
533	0.298
533	0.298
534	0.297
534	0.297
535	0.296
535	0.296
536	0.296
536	0.296
537	0.295
537	0.295
538	0.295
538	0.295
538	0.295
539	0.295
539	0.295
540	0.295
540	0.295
541	0.295
541	0.295
542	0.295
542	0.295
542	0.294
543	0.294
543	0.294
544	0.293
544	0.293
545	0.293
545	0.293
546	0.293
546	0.292
547	0.292
547	0.292
547	0.291
548	0.291
548	0.291
549	0.29
549	0.29
550	0.29
550	0.289
551	0.289
551	0.288
551	0.288
552	0.288
552	0.287
553	0.287
553	0.287
554	0.286
554	0.286
555	0.285
555	0.284
556	0.284
556	0.284
556	0.283
557	0.283
557	0.283
558	0.283
558	0.283
559	0.283
559	0.283
560	0.283
560	0.283
560	0.282
561	0.282
561	0.282
562	0.281
562	0.28
563	0.28
563	0.279
564	0.278
564	0.278
564	0.277
565	0.277
565	0.277
566	0.276
566	0.276
567	0.276
567	0.276
568	0.276
568	0.275
568	0.275
569	0.275
569	0.275
570	0.274
570	0.273
571	0.272
571	0.272
572	0.271
572	0.271
573	0.271
573	0.271
573	0.27
574	0.27
574	0.27
575	0.27
575	0.27
576	0.27
576	0.27
577	0.269
577	0.269
577	0.268
578	0.268
578	0.267
579	0.267
579	0.267
580	0.267
580	0.266
581	0.265
581	0.265
581	0.265
582	0.265
582	0.265
583	0.265
583	0.264
584	0.264
584	0.262
585	0.262
585	0.262
585	0.261
586	0.261
586	0.261
587	0.26
587	0.26
588	0.259
588	0.259
589	0.258
589	0.258
590	0.258
590	0.258
590	0.258
591	0.258
591	0.257
592	0.257
592	0.256
593	0.255
593	0.255
594	0.254
594	0.254
594	0.253
595	0.253
595	0.252
596	0.252
596	0.252
597	0.252
597	0.253
598	0.253
598	0.253
598	0.253
599	0.253
599	0.253
600	0.253
600	0.252
601	0.252
601	0.252
602	0.251
602	0.251
602	0.25
603	0.25
603	0.25
604	0.249
604	0.249
605	0.249
605	0.249
606	0.248
606	0.248
606	0.247
607	0.247
607	0.247
608	0.246
608	0.245
609	0.245
609	0.245
610	0.244
610	0.244
610	0.244
611	0.244
611	0.244
612	0.244
612	0.244
613	0.244
613	0.244
614	0.244
614	0.244
614	0.244
615	0.244
615	0.244
616	0.244
616	0.244
617	0.244
617	0.244
618	0.244
618	0.244
618	0.243
619	0.243
619	0.243
620	0.243
620	0.243
621	0.243
621	0.242
622	0.242
622	0.241
622	0.241
623	0.24
623	0.24
624	0.24
624	0.24
625	0.239
625	0.239
626	0.239
626	0.239
626	0.239
627	0.239
627	0.238
628	0.238
628	0.238
629	0.238
629	0.237
630	0.237
630	0.238
630	0.238
631	0.238
631	0.238
632	0.237
632	0.237
633	0.237
633	0.238
634	0.238
634	0.238
634	0.238
635	0.238
635	0.238
636	0.237
636	0.237
637	0.237
637	0.237
638	0.236
638	0.236
638	0.235
639	0.235
639	0.234
640	0.234
640	0.234
641	0.234
641	0.234
642	0.233
642	0.233
642	0.233
643	0.234
643	0.234
644	0.234
644	0.234
645	0.234
645	0.235
646	0.235
646	0.235
646	0.235
647	0.235
647	0.235
648	0.234
648	0.234
649	0.234
649	0.234
650	0.233
650	0.233
650	0.233
651	0.233
651	0.233
652	0.233
652	0.233
653	0.234
653	0.235
653	0.241
654	0.187
654	0.148
655	0.151
655	0.151
656	0.152
656	0.152
657	0.153
657	0.153
657	0.153
658	0.152
658	0.14
659	0.178
659	0.232
660	0.235
660	0.235
661	0.234
661	0.234
661	0.233
662	0.233
662	0.232
663	0.232
663	0.232
664	0.231
664	0.231
665	0.231
665	0.231
665	0.231
666	0.231
666	0.232
667	0.232
667	0.233
668	0.233
668	0.233
669	0.233
669	0.234
669	0.234
670	0.235
670	0.235
671	0.235
671	0.235
672	0.234
672	0.234
672	0.233
673	0.233
673	0.232
674	0.232
674	0.231
675	0.231
675	0.231
676	0.231
676	0.231
676	0.231
677	0.232
677	0.232
678	0.232
678	0.232
679	0.232
679	0.232
680	0.232
680	0.232
680	0.232
681	0.232
681	0.232
682	0.232
682	0.233
683	0.233
683	0.234
684	0.234
684	0.234
684	0.234
685	0.234
685	0.234
686	0.234
686	0.234
687	0.234
687	0.235
687	0.235
688	0.235
688	0.235
689	0.236
689	0.236
690	0.237
690	0.237
691	0.237
691	0.237
691	0.237
692	0.237
692	0.237
693	0.237
693	0.238
694	0.237
694	0.237
695	0.238
695	0.238
695	0.239
696	0.239
696	0.239
697	0.239
697	0.24
698	0.24
698	0.239
698	0.24
699	0.24
699	0.239
700	0.239
700	0.239
701	0.238
701	0.238
702	0.237
702	0.237
702	0.237
703	0.236
703	0.236
704	0.236
704	0.236
705	0.237
705	0.236
705	0.236
706	0.237
706	0.237
707	0.237
707	0.237
708	0.237
708	0.237
709	0.237
709	0.237
709	0.237
710	0.237
710	0.237
711	0.237
711	0.237
712	0.238
712	0.238
713	0.238
713	0.239
713	0.239
714	0.239
714	0.239
715	0.239
715	0.239
716	0.239
716	0.239
716	0.238
717	0.238
717	0.237
718	0.237
718	0.237
719	0.237
719	0.237
720	0.237
720	0.238
720	0.238
721	0.239
721	0.239
722	0.24
722	0.24
723	0.241
723	0.241
723	0.241
724	0.241
724	0.241
725	0.24
725	0.239
726	0.239
726	0.239
727	0.238
727	0.238
727	0.238
728	0.238
728	0.238
729	0.239
729	0.239
730	0.24
730	0.24
730	0.241
731	0.242
731	0.242
732	0.243
732	0.243
733	0.243
733	0.244
734	0.244
734	0.244
734	0.244
735	0.244
735	0.244
736	0.244
736	0.244
737	0.243
737	0.243
737	0.243
738	0.242
738	0.241
739	0.241
739	0.24
740	0.24
740	0.24
741	0.241
741	0.241
741	0.241
742	0.241
742	0.241
743	0.242
743	0.242
744	0.243
744	0.243
744	0.243
745	0.243
745	0.243
746	0.244
746	0.244
747	0.244
747	0.244
748	0.245
748	0.245
748	0.245
749	0.245
749	0.245
750	0.245
750	0.245
751	0.246
751	0.246
751	0.246
752	0.245
752	0.245
753	0.244
753	0.244
754	0.243
754	0.243
754	0.242
755	0.242
755	0.242
756	0.241
756	0.24
757	0.24
757	0.24
758	0.241
758	0.241
758	0.241
759	0.242
759	0.242
760	0.242
760	0.242
761	0.242
761	0.243
761	0.243
762	0.244
762	0.244
763	0.244
763	0.244
764	0.244
764	0.244
764	0.245
765	0.245
765	0.244
766	0.244
766	0.244
767	0.244
767	0.243
768	0.243
768	0.243
768	0.243
769	0.243
769	0.243
770	0.243
770	0.243
771	0.243
771	0.243
771	0.244
772	0.244
772	0.245
773	0.245
773	0.245
774	0.246
774	0.246
775	0.247
775	0.247
775	0.247
776	0.247
776	0.248
777	0.248
777	0.248
778	0.248
778	0.247
778	0.247
779	0.247
779	0.246
780	0.246
780	0.245
781	0.245
781	0.245
781	0.245
782	0.245
782	0.244
783	0.245
783	0.245
784	0.245
784	0.245
784	0.246
785	0.246
785	0.246
786	0.246
786	0.246
787	0.246
787	0.246
788	0.246
788	0.246
788	0.245
789	0.245
789	0.245
790	0.245
790	0.245
791	0.245
791	0.245
791	0.246
792	0.247
792	0.247
793	0.247
793	0.248
794	0.248
794	0.248
794	0.248
795	0.248
795	0.248
796	0.248
796	0.248
797	0.248
797	0.248
797	0.248
798	0.248
798	0.248
799	0.248
799	0.248
800	0.247
800	0.247
801	0.247
801	0.247
801	0.247
802	0.247
802	0.247
803	0.248
803	0.248
804	0.248
804	0.249
804	0.249
805	0.25
805	0.25
806	0.25
806	0.25
807	0.25
807	0.25
807	0.25
808	0.25
808	0.25
809	0.25
809	0.25
810	0.25
810	0.25
810	0.25
811	0.25
811	0.25
812	0.251
812	0.251
813	0.251
813	0.252
813	0.252
814	0.253
814	0.253
815	0.254
815	0.254
816	0.254
816	0.254
817	0.253
817	0.253
817	0.252
818	0.252
818	0.251
819	0.251
819	0.25
820	0.249
820	0.249
820	0.248
821	0.249
821	0.249
822	0.249
822	0.25
823	0.25
823	0.251
823	0.252
824	0.253
824	0.255
825	0.256
825	0.257
826	0.258
826	0.258
826	0.259
827	0.259
827	0.259
828	0.26
828	0.259
829	0.259
829	0.259
829	0.259
830	0.259
830	0.259
831	0.26
831	0.26
832	0.26
832	0.26
832	0.26
833	0.26
833	0.26
834	0.26
834	0.26
835	0.26
835	0.26
835	0.26
836	0.26
836	0.26
837	0.259
837	0.259
838	0.258
838	0.258
839	0.257
839	0.256
839	0.255
840	0.255
840	0.254
841	0.253
841	0.252
842	0.252
842	0.252
842	0.252
843	0.252
843	0.252
844	0.253
844	0.253
845	0.253
845	0.253
845	0.254
846	0.254
846	0.254
847	0.255
847	0.255
848	0.255
848	0.255
848	0.255
849	0.255
849	0.255
850	0.254
850	0.254
851	0.254
851	0.253
851	0.253
852	0.252
852	0.252
853	0.251
853	0.252
854	0.252
854	0.252
854	0.253
855	0.254
855	0.255
856	0.255
856	0.256
857	0.257
857	0.258
857	0.258
858	0.258
858	0.258
859	0.257
859	0.256
860	0.255
860	0.254
860	0.253
861	0.252
861	0.251
862	0.25
862	0.249
863	0.248
863	0.248
863	0.247
864	0.247
864	0.247
865	0.247
865	0.248
866	0.248
866	0.248
866	0.248
867	0.249
867	0.249
868	0.25
868	0.25
869	0.249
869	0.249
869	0.248
870	0.248
870	0.247
871	0.247
871	0.247
872	0.247
872	0.246
872	0.246
873	0.246
873	0.246
874	0.246
874	0.246
875	0.246
875	0.246
875	0.245
876	0.245
876	0.245
877	0.245
877	0.245
878	0.245
878	0.245
878	0.246
879	0.246
879	0.247
880	0.247
880	0.248
881	0.248
881	0.248
881	0.248
882	0.248
882	0.248
883	0.248
883	0.248
884	0.248
884	0.248
884	0.247
885	0.247
885	0.247
886	0.246
886	0.246
887	0.245
887	0.244
887	0.244
888	0.243
888	0.242
889	0.242
889	0.242
890	0.242
890	0.241
890	0.241
891	0.241
891	0.241
892	0.24
892	0.24
893	0.24
893	0.24
893	0.239
894	0.238
894	0.238
895	0.237
895	0.236
895	0.236
896	0.235
896	0.235
897	0.234
897	0.234
898	0.233
898	0.233
898	0.233
899	0.232
899	0.232
900	0.232
900	0.232
901	0.232
901	0.232
901	0.233
902	0.233
902	0.233
903	0.233
903	0.233
904	0.232
904	0.232
904	0.232
905	0.232
905	0.232
906	0.232
906	0.232
907	0.233
907	0.233
907	0.234
908	0.234
908	0.235
909	0.235
909	0.235
910	0.235
910	0.235
910	0.234
911	0.234
911	0.233
912	0.232
912	0.232
913	0.231
913	0.231
913	0.23
914	0.23
914	0.229
915	0.229
915	0.229
916	0.228
916	0.228
916	0.228
917	0.228
917	0.227
918	0.227
918	0.226
918	0.225
919	0.225
919	0.224
920	0.223
920	0.222
921	0.222
921	0.221
921	0.22
922	0.22
922	0.22
923	0.22
923	0.22
924	0.22
924	0.22
924	0.221
925	0.221
925	0.221
926	0.221
926	0.221
927	0.221
927	0.221
927	0.221
928	0.22
928	0.22
929	0.219
929	0.219
930	0.218
930	0.218
930	0.218
931	0.217
931	0.217
932	0.218
932	0.217
933	0.218
933	0.218
933	0.218
934	0.217
934	0.217
935	0.217
935	0.217
935	0.217
936	0.217
936	0.216
937	0.216
937	0.215
938	0.215
938	0.214
938	0.214
939	0.213
939	0.212
940	0.212
940	0.211
941	0.21
941	0.21
941	0.209
942	0.209
942	0.208
943	0.208
943	0.208
944	0.207
944	0.207
944	0.207
945	0.206
945	0.206
946	0.206
946	0.206
946	0.205
947	0.205
947	0.205
948	0.205
948	0.205
949	0.205
949	0.205
949	0.205
950	0.204
950	0.204
951	0.204
951	0.203
952	0.202
952	0.201
952	0.201
953	0.199
953	0.199
954	0.197
954	0.197
955	0.196
955	0.195
955	0.194
956	0.194
956	0.193
957	0.193
957	0.193
957	0.193
958	0.193
958	0.193
959	0.193
959	0.193
960	0.192
960	0.192
960	0.192
961	0.192
961	0.191
962	0.191
962	0.19
963	0.19
963	0.19
963	0.189
964	0.189
964	0.189
965	0.189
965	0.189
966	0.189
966	0.19
966	0.19
967	0.19
967	0.19
968	0.19
968	0.19
968	0.19
969	0.19
969	0.189
970	0.189
970	0.188
971	0.188
971	0.188
971	0.188
972	0.187
972	0.187
973	0.187
973	0.187
974	0.187
974	0.187
974	0.187
975	0.187
975	0.188
976	0.188
976	0.188
976	0.188
977	0.188
977	0.187
978	0.187
978	0.186
979	0.185
979	0.185
979	0.184
980	0.184
980	0.183
981	0.182
981	0.181
982	0.181
982	0.181
982	0.18
983	0.18
983	0.18
984	0.179
984	0.179
984	0.178
985	0.178
985	0.178
986	0.177
986	0.177
987	0.176
987	0.176
987	0.175
988	0.175
988	0.174
989	0.173
989	0.173
990	0.172
990	0.171
990	0.17
991	0.17
991	0.169
992	0.169
992	0.168
992	0.167
993	0.166
993	0.166
994	0.165
994	0.165
995	0.164
995	0.164
995	0.164
996	0.164
996	0.164
997	0.164
997	0.164
997	0.164
998	0.164
998	0.165
999	0.165
999	0.166
1000	0.166
1000	0.167
1000	0.167
1001	0.167
1001	0.167
1002	0.167
1002	0.166
1003	0.166
1003	0.166
1003	0.165
1004	0.164
1004	0.163
1005	0.163
1005	0.162
1005	0.161
1006	0.161
1006	0.16
1007	0.16
1007	0.159
1008	0.159
1008	0.159
1008	0.159
1009	0.159
1009	0.159
1010	0.159
1010	0.159
1010	0.159
1011	0.159
1011	0.159
1012	0.159
1012	0.159
1013	0.159
1013	0.159
1013	0.158
1014	0.158
1014	0.158
1015	0.157
1015	0.157
1016	0.156
1016	0.156
1016	0.156
1017	0.155
1017	0.154
1018	0.154
1018	0.153
1018	0.153
1019	0.152
1019	0.152
1020	0.152
1020	0.152
1021	0.152
1021	0.152
1021	0.152
1022	0.152
1022	0.152
1023	0.153
1023	0.153
1023	0.153
1024	0.153
1024	0.153
1025	0.153
1025	0.152
1026	0.152
1026	0.151
1026	0.151
1027	0.15
1027	0.15
1028	0.15
1028	0.149
1028	0.149
1029	0.149
1029	0.148
1030	0.148
1030	0.149
1031	0.149
1031	0.149
1031	0.149
1032	0.149
1032	0.149
1033	0.149
1033	0.148
1033	0.148
1034	0.148
1034	0.148
1035	0.147
1035	0.147
1036	0.146
1036	0.146
1036	0.146
1037	0.146
1037	0.145
1038	0.145
1038	0.145
1039	0.145
1039	0.145
1039	0.145
1040	0.145
1040	0.145
1041	0.145
1041	0.145
1041	0.145
1042	0.145
1042	0.145
1043	0.145
1043	0.145
1044	0.145
1044	0.145
1044	0.145
1045	0.145
1045	0.146
1046	0.146
1046	0.146
1046	0.146
1047	0.146
1047	0.147
1048	0.147
1048	0.147
1049	0.148
1049	0.148
1049	0.148
1050	0.148
1050	0.148
1051	0.148
1051	0.148
1051	0.148
1052	0.147
1052	0.147
1053	0.146
1053	0.145
1053	0.144
1054	0.143
1054	0.143
1055	0.142
1055	0.141
1056	0.14
1056	0.14
1056	0.139
1057	0.138
1057	0.138
1058	0.137
1058	0.136
1058	0.135
1059	0.134
1059	0.134
1060	0.133
1060	0.132
1061	0.131
1061	0.131
1061	0.13
1062	0.129
1062	0.129
1063	0.129
1063	0.128
1063	0.127
1064	0.127
1064	0.127
1065	0.126
1065	0.126
1066	0.125
1066	0.125
1066	0.125
1067	0.124
1067	0.124
1068	0.124
1068	0.123
1068	0.123
1069	0.122
1069	0.122
1070	0.122
1070	0.122
1071	0.121
1071	0.12
1071	0.12
1072	0.119
1072	0.118
1073	0.117
1073	0.117
1073	0.117
1074	0.117
1074	0.117
1075	0.117
1075	0.117
1076	0.118
1076	0.118
1076	0.118
1077	0.118
1077	0.118
1078	0.118
1078	0.118
1078	0.118
1079	0.117
1079	0.118
1080	0.117
1080	0.116
1080	0.116
1081	0.116
1081	0.115
1082	0.115
1082	0.116
1083	0.116
1083	0.116
1083	0.116
1084	0.116
1084	0.116
1085	0.116
1085	0.116
1085	0.116
1086	0.116
1086	0.115
1087	0.115
1087	0.114
1088	0.113
1088	0.113
1088	0.113
1089	0.112
1089	0.111
1090	0.11
1090	0.11
1090	0.108
1091	0.108
1091	0.108
1092	0.108
1092	0.108
1092	0.108
1093	0.107
1093	0.107
1094	0.107
1094	0.107
1095	0.106
1095	0.106
1095	0.105
1096	0.105
1096	0.104
1097	0.103
1097	0.103
1097	0.102
1098	0.103
1098	0.102
1099	0.101
1099	0.101
1100	0.101
1100	0.1
1100	0.1
1101	0.099
1101	0.099
1102	0.099
1102	0.098
1102	0.096
1103	0.095
1103	0.095
1104	0.094
1104	0.093
1104	0.093
1105	0.091
1105	0.089
1106	0.087
1106	0.086
1107	0.085
1107	0.086
1107	0.085
1108	0.084
1108	0.082
1109	0.081
1109	0.08
1109	0.081
1110	0.084
1110	0.084
1111	0.083
1111	0.081
