Data from 18C-808nm-8A-cont_Absorbance__322__01751.txt Node

Date: Mon Jul 17 17:30:00 CEST 2023
User: Laser008
Spectrometer: MAYP115816
Trigger mode: 0
Integration Time (sec): 2,500000E-1
Scans to average: 10
Electric dark correction enabled: true
Nonlinearity correction enabled: true
Boxcar width: 5
XAxis mode: Wavelengths
Number of Pixels in Spectrum: 2068
>>>>>Begin Spectral Data<<<<<
198,914	-0,66
199,384	-0,45
199,855	-0,35
200,325	-0,25
200,796	-0,22
201,266	-0,17
201,737	-0,17
202,207	-0,15
202,677	-0,15
203,147	-0,13
203,618	-0,1
204,088	-0,09
204,558	-0,07
205,028	-0,06
205,498	-0,07
205,968	-0,07
206,439	-0,08
206,909	-0,07
207,379	-0,08
207,849	-0,08
208,319	-0,09
208,789	-0,1
209,258	-0,1
209,728	-0,12
210,198	-0,12
210,668	-0,12
211,138	-0,12
211,608	-0,12
212,077	-0,12
212,547	-0,12
213,017	-0,12
213,486	-0,13
213,956	-0,13
214,426	-0,14
214,895	-0,13
215,365	-0,14
215,834	-0,14
216,304	-0,15
216,773	-0,15
217,243	-0,17
217,712	-0,17
218,181	-0,17
218,651	-0,16
219,12	-0,15
219,589	-0,15
220,058	-0,13
220,528	-0,14
220,997	-0,15
221,466	-0,16
221,935	-0,16
222,404	-0,15
222,873	-0,15
223,342	-0,15
223,812	-0,15
224,281	-0,15
224,749	-0,15
225,218	-0,18
225,687	-0,18
226,156	-0,17
226,625	-0,15
227,094	-0,16
227,563	-0,16
228,031	-0,16
228,5	-0,16
228,969	-0,17
229,438	-0,17
229,906	-0,16
230,375	-0,15
230,844	-0,14
231,312	-0,14
231,781	-0,15
232,249	-0,14
232,718	-0,14
233,186	-0,13
233,655	-0,13
234,123	-0,12
234,591	-0,13
235,06	-0,13
235,528	-0,13
235,996	-0,12
236,465	-0,11
236,933	-0,11
237,401	-0,1
237,869	-0,09
238,337	-0,09
238,805	-0,08
239,274	-0,08
239,742	-0,08
240,21	-0,07
240,678	-0,07
241,146	-0,07
241,614	-0,08
242,081	-0,08
242,549	-0,08
243,017	-0,09
243,485	-0,09
243,953	-0,09
244,421	-0,08
244,888	-0,07
245,356	-0,08
245,824	-0,08
246,291	-0,09
246,759	-0,09
247,227	-0,09
247,694	-0,09
248,162	-0,08
248,629	-0,08
249,097	-0,09
249,564	-0,1
250,032	-0,11
250,499	-0,11
250,967	-0,11
251,434	-0,11
251,901	-0,1
252,369	-0,11
252,836	-0,12
253,303	-0,14
253,77	-0,15
254,237	-0,14
254,705	-0,13
255,172	-0,12
255,639	-0,13
256,106	-0,14
256,573	-0,14
257,04	-0,15
257,507	-0,15
257,974	-0,15
258,441	-0,13
258,908	-0,13
259,375	-0,15
259,841	-0,16
260,308	-0,16
260,775	-0,16
261,242	-0,16
261,709	-0,16
262,175	-0,17
262,642	-0,16
263,109	-0,16
263,575	-0,18
264,042	-0,16
264,508	-0,16
264,975	-0,18
265,441	-0,19
265,908	-0,2
266,374	-0,18
266,841	-0,19
267,307	-0,2
267,773	-0,19
268,24	-0,19
268,706	-0,19
269,172	-0,2
269,639	-0,21
270,105	-0,18
270,571	-0,18
271,037	-0,18
271,503	-0,2
271,969	-0,18
272,435	-0,18
272,902	-0,2
273,368	-0,21
273,834	-0,2
274,3	-0,2
274,765	-0,21
275,231	-0,21
275,697	-0,2
276,163	-0,19
276,629	-0,19
277,095	-0,21
277,56	-0,2
278,026	-0,21
278,492	-0,18
278,958	-0,19
279,423	-0,19
279,889	-0,18
280,354	-0,19
280,82	-0,2
281,286	-0,21
281,751	-0,21
282,217	-0,2
282,682	-0,2
283,147	-0,2
283,613	-0,21
284,078	-0,22
284,544	-0,23
285,009	-0,24
285,474	-0,23
285,939	-0,24
286,405	-0,22
286,87	-0,21
287,335	-0,21
287,8	-0,2
288,265	-0,19
288,73	-0,2
289,195	-0,22
289,66	-0,22
290,125	-0,19
290,59	-0,19
291,055	-0,19
291,52	-0,19
291,985	-0,19
292,45	-0,21
292,915	-0,2
293,38	-0,21
293,844	-0,19
294,309	-0,17
294,774	-0,16
295,239	-0,18
295,703	-0,18
296,168	-0,18
296,632	-0,16
297,097	-0,16
297,562	-0,14
298,026	-0,15
298,491	-0,15
298,955	-0,15
299,419	-0,15
299,884	-0,15
300,348	-0,13
300,813	-0,12
301,277	-0,13
301,741	-0,13
302,205	-0,13
302,67	-0,13
303,134	-0,13
303,598	-0,12
304,062	-0,12
304,526	-0,12
304,99	-0,13
305,454	-0,14
305,919	-0,14
306,383	-0,13
306,847	-0,13
307,31	-0,14
307,774	-0,14
308,238	-0,13
308,702	-0,12
309,166	-0,13
309,63	-0,13
310,094	-0,1
310,557	-0,1
311,021	-0,1
311,485	-0,09
311,948	-0,09
312,412	-0,08
312,876	-0,08
313,339	-0,09
313,803	-0,1
314,266	-0,09
314,73	-0,09
315,193	-0,09
315,657	-0,08
316,12	-0,07
316,584	-0,06
317,047	-0,06
317,51	-0,04
317,973	-0,04
318,437	-0,02
318,9	-0,01
319,363	-0,01
319,826	-0
320,29	-0
320,753	-0,01
321,216	-0,02
321,679	-0,02
322,142	-0,01
322,605	-0,03
323,068	-0,04
323,531	-0,03
323,994	-0,03
324,457	-0,03
324,92	-0,03
325,382	-0,02
325,845	-0,02
326,308	-0,01
326,771	-0,01
327,233	-0,01
327,696	0
328,159	0,02
328,622	0,02
329,084	0,02
329,547	0,02
330,009	0,03
330,472	0,04
330,934	0,04
331,397	0,05
331,859	0,06
332,322	0,07
332,784	0,06
333,246	0,06
333,709	0,06
334,171	0,06
334,633	0,08
335,096	0,07
335,558	0,07
336,02	0,08
336,482	0,07
336,944	0,08
337,406	0,09
337,868	0,09
338,331	0,1
338,793	0,11
339,255	0,12
339,717	0,12
340,178	0,14
340,64	0,14
341,102	0,15
341,564	0,16
342,026	0,17
342,488	0,18
342,949	0,19
343,411	0,22
343,873	0,25
344,335	0,28
344,796	0,31
345,258	0,35
345,719	0,4
346,181	0,45
346,643	0,49
347,104	0,53
347,566	0,56
348,027	0,59
348,488	0,61
348,95	0,63
349,411	0,65
349,873	0,68
350,334	0,7
350,795	0,72
351,256	0,73
351,718	0,73
352,179	0,74
352,64	0,74
353,101	0,75
353,562	0,75
354,023	0,75
354,484	0,75
354,945	0,76
355,406	0,76
355,867	0,76
356,328	0,76
356,789	0,76
357,25	0,77
357,711	0,77
358,172	0,77
358,633	0,77
359,093	0,78
359,554	0,78
360,015	0,78
360,476	0,78
360,936	0,78
361,397	0,78
361,858	0,78
362,318	0,78
362,779	0,78
363,239	0,78
363,7	0,79
364,16	0,79
364,621	0,79
365,081	0,79
365,541	0,79
366,002	0,78
366,462	0,78
366,922	0,78
367,383	0,78
367,843	0,78
368,303	0,78
368,763	0,79
369,223	0,79
369,684	0,79
370,144	0,79
370,604	0,79
371,064	0,79
371,524	0,79
371,984	0,79
372,444	0,78
372,904	0,78
373,363	0,78
373,823	0,78
374,283	0,78
374,743	0,78
375,203	0,78
375,663	0,78
376,122	0,78
376,582	0,78
377,042	0,78
377,501	0,78
377,961	0,78
378,42	0,78
378,88	0,78
379,34	0,78
379,799	0,78
380,259	0,78
380,718	0,78
381,177	0,78
381,637	0,78
382,096	0,78
382,555	0,78
383,015	0,78
383,474	0,78
383,933	0,78
384,393	0,78
384,852	0,78
385,311	0,78
385,77	0,78
386,229	0,78
386,688	0,78
387,147	0,77
387,606	0,77
388,065	0,77
388,524	0,77
388,983	0,77
389,442	0,77
389,901	0,77
390,36	0,77
390,819	0,77
391,277	0,77
391,736	0,77
392,195	0,77
392,654	0,77
393,112	0,77
393,571	0,77
394,03	0,77
394,488	0,77
394,947	0,77
395,405	0,77
395,864	0,77
396,322	0,77
396,781	0,77
397,239	0,77
397,698	0,77
398,156	0,77
398,614	0,77
399,073	0,77
399,531	0,77
399,989	0,77
400,447	0,77
400,905	0,77
401,364	0,76
401,822	0,76
402,28	0,76
402,738	0,76
403,196	0,76
403,654	0,76
404,112	0,76
404,57	0,76
405,028	0,76
405,486	0,76
405,944	0,76
406,402	0,76
406,859	0,76
407,317	0,76
407,775	0,76
408,233	0,76
408,691	0,76
409,148	0,76
409,606	0,76
410,064	0,76
410,521	0,76
410,979	0,76
411,436	0,76
411,894	0,76
412,351	0,76
412,809	0,76
413,266	0,76
413,724	0,76
414,181	0,76
414,638	0,76
415,096	0,76
415,553	0,76
416,01	0,76
416,467	0,76
416,925	0,76
417,382	0,76
417,839	0,76
418,296	0,76
418,753	0,76
419,21	0,76
419,667	0,76
420,124	0,76
420,581	0,76
421,038	0,76
421,495	0,75
421,952	0,75
422,409	0,75
422,866	0,75
423,322	0,75
423,779	0,75
424,236	0,75
424,693	0,75
425,149	0,75
425,606	0,76
426,063	0,76
426,519	0,75
426,976	0,75
427,433	0,75
427,889	0,75
428,346	0,75
428,802	0,75
429,258	0,75
429,715	0,75
430,171	0,75
430,628	0,75
431,084	0,75
431,54	0,75
431,997	0,75
432,453	0,75
432,909	0,75
433,365	0,75
433,821	0,75
434,277	0,75
434,734	0,75
435,19	0,75
435,646	0,75
436,102	0,75
436,558	0,75
437,014	0,75
437,47	0,75
437,925	0,75
438,381	0,75
438,837	0,75
439,293	0,75
439,749	0,75
440,205	0,75
440,66	0,75
441,116	0,75
441,572	0,75
442,027	0,75
442,483	0,75
442,939	0,75
443,394	0,75
443,85	0,75
444,305	0,75
444,761	0,75
445,216	0,75
445,672	0,75
446,127	0,75
446,582	0,75
447,038	0,75
447,493	0,76
447,948	0,76
448,403	0,76
448,859	0,76
449,314	0,76
449,769	0,76
450,224	0,76
450,679	0,76
451,134	0,76
451,589	0,76
452,044	0,76
452,499	0,76
452,954	0,76
453,409	0,76
453,864	0,76
454,319	0,76
454,774	0,76
455,229	0,76
455,684	0,76
456,138	0,76
456,593	0,76
457,048	0,76
457,503	0,76
457,957	0,76
458,412	0,76
458,866	0,76
459,321	0,76
459,776	0,76
460,23	0,76
460,685	0,76
461,139	0,76
461,593	0,77
462,048	0,77
462,502	0,77
462,957	0,77
463,411	0,77
463,865	0,77
464,319	0,77
464,774	0,77
465,228	0,77
465,682	0,77
466,136	0,77
466,59	0,78
467,044	0,78
467,499	0,78
467,953	0,78
468,407	0,78
468,861	0,78
469,315	0,78
469,768	0,78
470,222	0,78
470,676	0,78
471,13	0,78
471,584	0,78
472,038	0,78
472,491	0,79
472,945	0,79
473,399	0,79
473,852	0,79
474,306	0,79
474,76	0,79
475,213	0,79
475,667	0,79
476,12	0,79
476,574	0,8
477,027	0,8
477,481	0,8
477,934	0,8
478,388	0,8
478,841	0,8
479,294	0,81
479,748	0,81
480,201	0,81
480,654	0,81
481,107	0,81
481,561	0,81
482,014	0,82
482,467	0,82
482,92	0,82
483,373	0,82
483,826	0,82
484,279	0,82
484,732	0,83
485,185	0,83
485,638	0,83
486,091	0,83
486,544	0,83
486,997	0,84
487,449	0,84
487,902	0,84
488,355	0,84
488,808	0,85
489,26	0,85
489,713	0,85
490,166	0,85
490,618	0,86
491,071	0,86
491,523	0,86
491,976	0,86
492,429	0,87
492,881	0,87
493,333	0,87
493,786	0,88
494,238	0,88
494,691	0,88
495,143	0,89
495,595	0,89
496,048	0,89
496,5	0,9
496,952	0,9
497,404	0,9
497,856	0,91
498,309	0,91
498,761	0,91
499,213	0,92
499,665	0,92
500,117	0,93
500,569	0,93
501,021	0,93
501,473	0,94
501,925	0,94
502,377	0,95
502,828	0,95
503,28	0,95
503,732	0,96
504,184	0,96
504,636	0,96
505,087	0,97
505,539	0,97
505,991	0,98
506,442	0,98
506,894	0,98
507,345	0,99
507,797	0,99
508,249	1
508,7	1
509,151	1
509,603	1,01
510,054	1,01
510,506	1,02
510,957	1,02
511,408	1,02
511,86	1,03
512,311	1,03
512,762	1,03
513,213	1,04
513,665	1,04
514,116	1,04
514,567	1,05
515,018	1,05
515,469	1,05
515,92	1,06
516,371	1,06
516,822	1,06
517,273	1,07
517,724	1,07
518,175	1,07
518,626	1,07
519,076	1,08
519,527	1,08
519,978	1,08
520,429	1,08
520,88	1,08
521,33	1,09
521,781	1,09
522,232	1,09
522,682	1,09
523,133	1,09
523,583	1,1
524,034	1,1
524,484	1,1
524,935	1,1
525,385	1,1
525,836	1,1
526,286	1,1
526,736	1,1
527,187	1,1
527,637	1,1
528,087	1,1
528,538	1,1
528,988	1,1
529,438	1,1
529,888	1,1
530,338	1,09
530,788	1,09
531,238	1,09
531,688	1,09
532,139	1,09
532,589	1,09
533,038	1,09
533,488	1,08
533,938	1,08
534,388	1,08
534,838	1,08
535,288	1,07
535,738	1,07
536,187	1,07
536,637	1,06
537,087	1,06
537,537	1,06
537,986	1,05
538,436	1,05
538,885	1,04
539,335	1,04
539,785	1,03
540,234	1,03
540,684	1,02
541,133	1,02
541,582	1,02
542,032	1,01
542,481	1,01
542,931	1
543,38	1
543,829	0,99
544,278	0,99
544,728	0,98
545,177	0,98
545,626	0,97
546,075	0,97
546,524	0,97
546,973	0,96
547,422	0,96
547,871	0,95
548,32	0,95
548,769	0,95
549,218	0,94
549,667	0,94
550,116	0,94
550,565	0,93
551,014	0,93
551,463	0,92
551,911	0,92
552,36	0,91
552,809	0,91
553,258	0,91
553,706	0,9
554,155	0,9
554,603	0,89
555,052	0,89
555,501	0,88
555,949	0,88
556,398	0,88
556,846	0,87
557,294	0,87
557,743	0,86
558,191	0,86
558,64	0,85
559,088	0,85
559,536	0,84
559,985	0,84
560,433	0,83
560,881	0,83
561,329	0,82
561,777	0,82
562,225	0,82
562,674	0,81
563,122	0,81
563,57	0,8
564,018	0,8
564,466	0,79
564,914	0,79
565,362	0,79
565,809	0,78
566,257	0,78
566,705	0,77
567,153	0,77
567,601	0,77
568,048	0,76
568,496	0,76
568,944	0,76
569,392	0,75
569,839	0,75
570,287	0,75
570,734	0,74
571,182	0,74
571,63	0,73
572,077	0,73
572,525	0,73
572,972	0,72
573,419	0,72
573,867	0,72
574,314	0,71
574,761	0,71
575,209	0,71
575,656	0,7
576,103	0,7
576,551	0,7
576,998	0,69
577,445	0,69
577,892	0,69
578,339	0,68
578,786	0,68
579,233	0,68
579,68	0,68
580,127	0,67
580,574	0,67
581,021	0,67
581,468	0,66
581,915	0,66
582,362	0,66
582,809	0,66
583,255	0,66
583,702	0,65
584,149	0,65
584,596	0,65
585,042	0,65
585,489	0,64
585,936	0,64
586,382	0,64
586,829	0,64
587,275	0,64
587,722	0,63
588,168	0,63
588,615	0,63
589,061	0,63
589,508	0,62
589,954	0,62
590,4	0,62
590,847	0,62
591,293	0,62
591,739	0,61
592,185	0,61
592,632	0,61
593,078	0,61
593,524	0,61
593,97	0,61
594,416	0,61
594,862	0,6
595,308	0,6
595,754	0,6
596,2	0,6
596,646	0,6
597,092	0,6
597,538	0,59
597,984	0,59
598,43	0,59
598,876	0,59
599,321	0,59
599,767	0,59
600,213	0,59
600,659	0,59
601,104	0,58
601,55	0,58
601,995	0,58
602,441	0,58
602,887	0,58
603,332	0,58
603,778	0,58
604,223	0,57
604,668	0,57
605,114	0,57
605,559	0,57
606,005	0,57
606,45	0,57
606,895	0,57
607,341	0,57
607,786	0,57
608,231	0,56
608,676	0,56
609,121	0,55
609,566	0,55
610,012	0,54
610,457	0,54
610,902	0,54
611,347	0,53
611,792	0,53
612,237	0,53
612,682	0,53
613,127	0,53
613,571	0,53
614,016	0,53
614,461	0,54
614,906	0,54
615,351	0,54
615,795	0,54
616,24	0,54
616,685	0,54
617,129	0,54
617,574	0,54
618,019	0,54
618,463	0,54
618,908	0,54
619,352	0,54
619,797	0,54
620,241	0,54
620,686	0,54
621,13	0,53
621,574	0,53
622,019	0,53
622,463	0,53
622,907	0,53
623,352	0,53
623,796	0,53
624,24	0,53
624,684	0,53
625,128	0,53
625,572	0,53
626,016	0,53
626,461	0,53
626,905	0,53
627,349	0,53
627,793	0,53
628,236	0,52
628,68	0,52
629,124	0,52
629,568	0,52
630,012	0,52
630,456	0,52
630,9	0,52
631,343	0,52
631,787	0,52
632,231	0,52
632,674	0,52
633,118	0,52
633,562	0,52
634,005	0,52
634,449	0,52
634,892	0,52
635,336	0,52
635,779	0,52
636,223	0,52
636,666	0,52
637,109	0,52
637,553	0,52
637,996	0,52
638,439	0,52
638,883	0,52
639,326	0,52
639,769	0,52
640,212	0,52
640,655	0,51
641,099	0,51
641,542	0,51
641,985	0,51
642,428	0,51
642,871	0,51
643,314	0,51
643,757	0,51
644,2	0,51
644,643	0,51
645,085	0,51
645,528	0,51
645,971	0,51
646,414	0,51
646,857	0,51
647,299	0,5
647,742	0,5
648,185	0,5
648,627	0,5
649,07	0,5
649,513	0,5
649,955	0,5
650,398	0,5
650,84	0,5
651,283	0,5
651,725	0,5
652,168	0,5
652,61	0,51
653,052	0,51
653,495	0,5
653,937	0,42
654,379	0,36
654,821	0,37
655,264	0,37
655,706	0,37
656,148	0,37
656,59	0,37
657,032	0,37
657,474	0,37
657,916	0,37
658,358	0,36
658,8	0,42
659,242	0,5
659,684	0,5
660,126	0,5
660,568	0,5
661,01	0,5
661,452	0,5
661,894	0,5
662,335	0,5
662,777	0,5
663,219	0,5
663,661	0,5
664,102	0,5
664,544	0,49
664,985	0,49
665,427	0,49
665,869	0,49
666,31	0,49
666,752	0,49
667,193	0,49
667,634	0,5
668,076	0,5
668,517	0,5
668,959	0,5
669,4	0,5
669,841	0,5
670,282	0,5
670,724	0,5
671,165	0,5
671,606	0,5
672,047	0,5
672,488	0,5
672,929	0,49
673,37	0,49
673,811	0,49
674,252	0,49
674,693	0,49
675,134	0,49
675,575	0,49
676,016	0,49
676,457	0,48
676,898	0,48
677,339	0,48
677,78	0,48
678,22	0,48
678,661	0,48
679,102	0,48
679,542	0,48
679,983	0,48
680,424	0,48
680,864	0,48
681,305	0,48
681,745	0,48
682,186	0,49
682,626	0,49
683,067	0,49
683,507	0,49
683,948	0,49
684,388	0,49
684,828	0,49
685,269	0,49
685,709	0,48
686,149	0,48
686,589	0,48
687,029	0,48
687,47	0,48
687,91	0,48
688,35	0,48
688,79	0,48
689,23	0,48
689,67	0,48
690,11	0,48
690,55	0,48
690,99	0,48
691,43	0,48
691,87	0,48
692,31	0,47
692,749	0,47
693,189	0,47
693,629	0,47
694,069	0,47
694,508	0,47
694,948	0,47
695,388	0,47
695,827	0,47
696,267	0,47
696,706	0,47
697,146	0,47
697,586	0,47
698,025	0,47
698,464	0,47
698,904	0,47
699,343	0,47
699,783	0,47
700,222	0,48
700,661	0,48
701,101	0,48
701,54	0,48
701,979	0,48
702,418	0,48
702,857	0,48
703,297	0,48
703,736	0,48
704,175	0,48
704,614	0,48
705,053	0,47
705,492	0,47
705,931	0,47
706,37	0,47
706,809	0,47
707,248	0,47
707,687	0,47
708,125	0,47
708,564	0,47
709,003	0,47
709,442	0,47
709,88	0,47
710,319	0,47
710,758	0,47
711,196	0,47
711,635	0,46
712,074	0,46
712,512	0,46
712,951	0,46
713,389	0,46
713,828	0,46
714,266	0,46
714,705	0,46
715,143	0,46
715,581	0,46
716,02	0,46
716,458	0,46
716,896	0,46
717,334	0,46
717,773	0,46
718,211	0,46
718,649	0,46
719,087	0,46
719,525	0,46
719,963	0,46
720,401	0,46
720,839	0,46
721,277	0,46
721,715	0,46
722,153	0,46
722,591	0,46
723,029	0,46
723,467	0,46
723,905	0,46
724,342	0,46
724,78	0,46
725,218	0,46
725,656	0,46
726,093	0,46
726,531	0,46
726,969	0,46
727,406	0,46
727,844	0,46
728,281	0,46
728,719	0,46
729,156	0,46
729,594	0,46
730,031	0,46
730,469	0,46
730,906	0,46
731,343	0,46
731,781	0,46
732,218	0,46
732,655	0,46
733,092	0,45
733,53	0,45
733,967	0,45
734,404	0,45
734,841	0,45
735,278	0,45
735,715	0,45
736,152	0,45
736,589	0,45
737,026	0,45
737,463	0,45
737,9	0,45
738,337	0,45
738,774	0,45
739,211	0,45
739,647	0,45
740,084	0,45
740,521	0,45
740,958	0,45
741,394	0,45
741,831	0,45
742,268	0,45
742,704	0,45
743,141	0,45
743,577	0,45
744,014	0,45
744,45	0,44
744,887	0,44
745,323	0,44
745,76	0,44
746,196	0,44
746,632	0,44
747,069	0,44
747,505	0,44
747,941	0,44
748,378	0,44
748,814	0,44
749,25	0,44
749,686	0,44
750,122	0,44
750,558	0,44
750,994	0,44
751,43	0,44
751,866	0,45
752,302	0,45
752,738	0,45
753,174	0,45
753,61	0,45
754,046	0,45
754,482	0,45
754,918	0,45
755,354	0,45
755,789	0,45
756,225	0,45
756,661	0,44
757,096	0,44
757,532	0,44
757,968	0,44
758,403	0,44
758,839	0,43
759,274	0,43
759,71	0,43
760,145	0,42
760,581	0,41
761,016	0,41
761,452	0,4
761,887	0,4
762,322	0,39
762,758	0,39
763,193	0,39
763,628	0,38
764,063	0,37
764,499	0,37
764,934	0,36
765,369	0,35
765,804	0,35
766,239	0,34
766,674	0,33
767,109	0,33
767,544	0,32
767,979	0,31
768,414	0,3
768,849	0,29
769,284	0,28
769,719	0,27
770,154	0,26
770,588	0,25
771,023	0,24
771,458	0,23
771,893	0,21
772,327	0,2
772,762	0,19
773,197	0,18
773,631	0,17
774,066	0,17
774,5	0,16
774,935	0,15
775,369	0,14
775,804	0,12
776,238	0,12
776,673	0,11
777,107	0,1
777,541	0,09
777,976	0,08
778,41	0,08
778,844	0,06
779,279	0,05
779,713	0,04
780,147	0,03
780,581	0,03
781,015	0,02
781,449	0,01
781,883	0,01
782,317	-0,01
782,751	-0,02
783,185	-0,03
783,619	-0,04
784,053	-0,05
784,487	-0,06
784,921	-0,06
785,355	-0,07
785,789	-0,08
786,223	-0,09
786,656	-0,1
787,09	-0,11
787,524	-0,12
787,957	-0,13
788,391	-0,15
788,825	-0,17
789,258	-0,19
789,692	-0,2
790,125	-0,22
790,559	-0,24
790,992	-0,26
791,426	-0,28
791,859	-0,29
792,293	-0,32
792,726	-0,34
793,159	-0,36
793,593	-0,37
794,026	-0,4
794,459	-0,43
794,892	-0,45
795,326	-0,48
795,759	-0,52
796,192	-0,56
796,625	-0,61
797,058	-0,63
797,491	-0,68
797,924	-0,72
798,357	-0,77
798,79	-0,81
799,223	-0,85
799,656	-0,91
800,089	-0,96
800,522	-1
800,955	-1,04
801,387	-1,1
801,82	-1,15
802,253	-1,22
802,686	-1,3
803,118	-1,35
803,551	-1,41
803,984	-1,45
804,416	-1,49
804,849	-1,53
805,281	-1,68
805,714	-2,08
806,146	-2,49
806,579	-2,73
807,011	-2,89
807,444	-2,98
807,876	-3,06
808,308	-3,09
808,741	-3,12
809,173	-3,17
809,605	-3,19
810,037	-3,27
810,47	-3,18
810,902	-2,97
811,334	-2,82
811,766	-2,66
812,198	-2,41
812,63	-1,98
813,062	-1,78
813,494	-1,69
813,926	-1,6
814,358	-1,55
814,79	-1,47
815,222	-1,41
815,654	-1,36
816,086	-1,3
816,518	-1,24
816,949	-1,19
817,381	-1,14
817,813	-1,12
818,245	-1,09
818,676	-1,05
819,108	-1,01
819,54	-1
819,971	-0,98
820,403	-0,93
820,834	-0,91
821,266	-0,87
821,697	-0,84
822,129	-0,83
822,56	-0,8
822,991	-0,78
823,423	-0,75
823,854	-0,75
824,286	-0,72
824,717	-0,71
825,148	-0,69
825,579	-0,69
826,01	-0,68
826,442	-0,67
826,873	-0,65
827,304	-0,62
827,735	-0,61
828,166	-0,61
828,597	-0,61
829,028	-0,61
829,459	-0,61
829,89	-0,6
830,321	-0,56
830,752	-0,56
831,183	-0,55
831,613	-0,54
832,044	-0,54
832,475	-0,53
832,906	-0,55
833,336	-0,54
833,767	-0,55
834,198	-0,55
834,628	-0,53
835,059	-0,55
835,49	-0,56
835,92	-0,53
836,351	-0,53
836,781	-0,54
837,212	-0,56
837,642	-0,56
838,072	-0,54
838,503	-0,55
838,933	-0,52
839,364	-0,54
839,794	-0,52
840,224	-0,51
840,654	-0,55
841,085	-0,55
841,515	-0,52
841,945	-0,52
842,375	-0,48
842,805	-0,47
843,235	-0,45
843,665	-0,47
844,095	-0,45
844,525	-0,47
844,955	-0,47
845,385	-0,46
845,815	-0,44
846,245	-0,46
846,675	-0,48
847,105	-0,48
847,534	-0,49
847,964	-0,47
848,394	-0,45
848,824	-0,48
849,253	-0,47
849,683	-0,47
850,112	-0,48
850,542	-0,51
850,972	-0,52
851,401	-0,49
851,831	-0,48
852,26	-0,49
852,69	-0,53
853,119	-0,53
853,548	-0,53
853,978	-0,53
854,407	-0,52
854,836	-0,52
855,266	-0,52
855,695	-0,53
856,124	-0,54
856,553	-0,55
856,983	-0,57
857,412	-0,56
857,841	-0,57
858,27	-0,57
858,699	-0,58
859,128	-0,61
859,557	-0,62
859,986	-0,63
860,415	-0,61
860,844	-0,59
861,273	-0,59
861,702	-0,59
862,13	-0,57
862,559	-0,58
862,988	-0,57
863,417	-0,55
863,845	-0,54
864,274	-0,54
864,703	-0,54
865,131	-0,54
865,56	-0,55
865,989	-0,58
866,417	-0,56
866,846	-0,57
867,274	-0,56
867,703	-0,58
868,131	-0,59
868,559	-0,59
868,988	-0,61
869,416	-0,6
869,844	-0,62
870,273	-0,64
870,701	-0,61
871,129	-0,65
871,557	-0,68
871,986	-0,68
872,414	-0,69
872,842	-0,65
873,27	-0,63
873,698	-0,61
874,126	-0,65
874,554	-0,63
874,982	-0,63
875,41	-0,66
875,838	-0,6
876,266	-0,57
876,694	-0,58
877,122	-0,56
877,549	-0,62
877,977	-0,59
878,405	-0,62
878,833	-0,58
879,26	-0,56
879,688	-0,56
880,116	-0,54
880,543	-0,52
880,971	-0,52
881,399	-0,54
881,826	-0,56
882,254	-0,55
882,681	-0,58
883,109	-0,54
883,536	-0,55
883,963	-0,56
884,391	-0,54
884,818	-0,52
885,245	-0,55
885,673	-0,57
886,1	-0,54
886,527	-0,53
886,954	-0,49
887,381	-0,51
887,809	-0,53
888,236	-0,54
888,663	-0,56
889,09	-0,59
889,517	-0,62
889,944	-0,61
890,371	-0,6
890,798	-0,61
891,225	-0,61
891,652	-0,64
892,078	-0,61
892,505	-0,64
892,932	-0,6
893,359	-0,6
893,786	-0,6
894,212	-0,57
894,639	-0,59
895,066	-0,62
895,492	-0,56
895,919	-0,56
896,346	-0,56
896,772	-0,56
897,199	-0,52
897,625	-0,55
898,052	-0,51
898,478	-0,5
898,904	-0,52
899,331	-0,51
899,757	-0,53
900,183	-0,55
900,61	-0,53
901,036	-0,53
901,462	-0,52
901,888	-0,53
902,315	-0,52
902,741	-0,57
903,167	-0,56
903,593	-0,58
904,019	-0,57
904,445	-0,54
904,871	-0,57
905,297	-0,6
905,723	-0,59
906,149	-0,58
906,575	-0,59
907,001	-0,59
907,427	-0,56
907,852	-0,55
908,278	-0,55
908,704	-0,52
909,13	-0,52
909,555	-0,51
909,981	-0,5
910,407	-0,51
910,832	-0,51
911,258	-0,51
911,684	-0,51
912,109	-0,5
912,535	-0,52
912,96	-0,48
913,386	-0,53
913,811	-0,52
914,236	-0,53
914,662	-0,51
915,087	-0,54
915,512	-0,53
915,938	-0,56
916,363	-0,55
916,788	-0,56
917,213	-0,55
917,639	-0,6
918,064	-0,58
918,489	-0,59
918,914	-0,59
919,339	-0,61
919,764	-0,58
920,189	-0,58
920,614	-0,59
921,039	-0,6
921,464	-0,57
921,889	-0,59
922,314	-0,6
922,738	-0,63
923,163	-0,64
923,588	-0,64
924,013	-0,63
924,437	-0,63
924,862	-0,64
925,287	-0,6
925,711	-0,6
926,136	-0,61
926,561	-0,6
926,985	-0,58
927,41	-0,55
927,834	-0,53
928,259	-0,51
928,683	-0,5
929,108	-0,47
929,532	-0,49
929,956	-0,48
930,381	-0,47
930,805	-0,48
931,229	-0,46
931,653	-0,44
932,078	-0,44
932,502	-0,45
932,926	-0,45
933,35	-0,45
933,774	-0,44
934,198	-0,41
934,622	-0,41
935,046	-0,41
935,47	-0,41
935,894	-0,42
936,318	-0,41
936,742	-0,41
937,166	-0,41
937,59	-0,42
938,014	-0,44
938,437	-0,45
938,861	-0,47
939,285	-0,48
939,709	-0,47
940,132	-0,46
940,556	-0,47
940,98	-0,47
941,403	-0,46
941,827	-0,46
942,25	-0,47
942,674	-0,46
943,097	-0,46
943,521	-0,46
943,944	-0,47
944,368	-0,46
944,791	-0,46
945,214	-0,48
945,638	-0,49
946,061	-0,52
946,484	-0,53
946,907	-0,5
947,331	-0,5
947,754	-0,54
948,177	-0,51
948,6	-0,51
949,023	-0,51
949,446	-0,52
949,869	-0,49
950,292	-0,49
950,715	-0,45
951,138	-0,44
951,561	-0,43
951,984	-0,42
952,407	-0,41
952,83	-0,4
953,252	-0,36
953,675	-0,35
954,098	-0,36
954,521	-0,35
954,943	-0,34
955,366	-0,34
955,789	-0,33
956,211	-0,35
956,634	-0,35
957,056	-0,32
957,479	-0,33
957,902	-0,35
958,324	-0,35
958,746	-0,33
959,169	-0,34
959,591	-0,34
960,014	-0,36
960,436	-0,35
960,858	-0,35
961,281	-0,35
961,703	-0,36
962,125	-0,36
962,547	-0,35
962,969	-0,36
963,391	-0,37
963,814	-0,38
964,236	-0,37
964,658	-0,33
965,08	-0,34
965,502	-0,33
965,924	-0,3
966,346	-0,3
966,768	-0,3
967,189	-0,31
967,611	-0,3
968,033	-0,29
968,455	-0,27
968,877	-0,29
969,298	-0,31
969,72	-0,32
970,142	-0,3
970,563	-0,31
970,985	-0,29
971,407	-0,28
971,828	-0,26
972,25	-0,25
972,671	-0,24
973,093	-0,24
973,514	-0,22
973,936	-0,2
974,357	-0,19
974,778	-0,19
975,2	-0,18
975,621	-0,18
976,042	-0,16
976,464	-0,16
976,885	-0,14
977,306	-0,14
977,727	-0,14
978,148	-0,13
978,57	-0,11
978,991	-0,1
979,412	-0,08
979,833	-0,08
980,254	-0,07
980,675	-0,07
981,096	-0,06
981,517	-0,04
981,937	-0,04
982,358	-0,02
982,779	-0,02
983,2	-0,02
983,621	-0,01
984,042	0
984,462	0,02
984,883	0,03
985,304	0,04
985,724	0,05
986,145	0,06
986,565	0,07
986,986	0,08
987,407	0,1
987,827	0,11
988,248	0,13
988,668	0,14
989,088	0,15
989,509	0,17
989,929	0,18
990,35	0,19
990,77	0,21
991,19	0,22
991,61	0,23
992,031	0,24
992,451	0,25
992,871	0,26
993,291	0,27
993,711	0,28
994,131	0,28
994,551	0,29
994,971	0,3
995,391	0,31
995,811	0,31
996,231	0,32
996,651	0,33
997,071	0,34
997,491	0,34
997,911	0,35
998,331	0,36
998,75	0,36
999,17	0,37
999,59	0,38
1000,009	0,38
1000,429	0,38
1000,849	0,39
1001,268	0,4
1001,688	0,4
1002,107	0,4
1002,527	0,41
1002,946	0,41
1003,366	0,41
1003,785	0,42
1004,205	0,42
1004,624	0,42
1005,044	0,43
1005,463	0,43
1005,882	0,43
1006,301	0,43
1006,721	0,43
1007,14	0,43
1007,559	0,44
1007,978	0,44
1008,397	0,44
1008,816	0,44
1009,235	0,44
1009,655	0,44
1010,074	0,44
1010,492	0,44
1010,911	0,44
1011,33	0,44
1011,749	0,44
1012,168	0,43
1012,587	0,43
1013,006	0,43
1013,425	0,43
1013,843	0,43
1014,262	0,43
1014,681	0,43
1015,099	0,43
1015,518	0,43
1015,937	0,43
1016,355	0,43
1016,774	0,43
1017,192	0,43
1017,611	0,43
1018,029	0,43
1018,448	0,43
1018,866	0,43
1019,285	0,43
1019,703	0,42
1020,121	0,42
1020,54	0,42
1020,958	0,42
1021,376	0,42
1021,794	0,42
1022,213	0,42
1022,631	0,42
1023,049	0,42
1023,467	0,42
1023,885	0,42
1024,303	0,42
1024,721	0,42
1025,139	0,42
1025,557	0,42
1025,975	0,42
1026,393	0,41
1026,811	0,41
1027,229	0,41
1027,647	0,41
1028,065	0,41
1028,482	0,41
1028,9	0,41
1029,318	0,41
1029,735	0,41
1030,153	0,41
1030,571	0,41
1030,988	0,41
1031,406	0,41
1031,823	0,41
1032,241	0,41
1032,659	0,41
1033,076	0,41
1033,493	0,41
1033,911	0,41
1034,328	0,41
1034,746	0,41
1035,163	0,41
1035,58	0,41
1035,997	0,42
1036,415	0,42
1036,832	0,42
1037,249	0,42
1037,666	0,42
1038,083	0,41
1038,501	0,42
1038,918	0,41
1039,335	0,41
1039,752	0,41
1040,169	0,41
1040,586	0,41
1041,003	0,42
1041,419	0,42
1041,836	0,42
1042,253	0,42
1042,67	0,42
1043,087	0,42
1043,504	0,42
1043,92	0,42
1044,337	0,42
1044,754	0,41
1045,17	0,41
1045,587	0,41
1046,004	0,41
1046,42	0,41
1046,837	0,41
1047,253	0,41
1047,67	0,41
1048,086	0,41
1048,503	0,41
1048,919	0,41
1049,335	0,41
1049,752	0,41
1050,168	0,41
1050,584	0,41
1051,001	0,41
1051,417	0,41
1051,833	0,41
1052,249	0,42
1052,665	0,42
1053,081	0,42
1053,497	0,42
1053,914	0,42
1054,33	0,42
1054,746	0,42
1055,162	0,42
1055,578	0,42
1055,993	0,42
1056,409	0,42
1056,825	0,42
1057,241	0,42
1057,657	0,43
1058,073	0,42
1058,488	0,42
1058,904	0,42
1059,32	0,42
1059,736	0,42
1060,151	0,42
1060,567	0,42
1060,982	0,42
1061,398	0,42
1061,813	0,42
1062,229	0,42
1062,644	0,42
1063,06	0,42
1063,475	0,42
1063,891	0,42
1064,306	0,42
1064,721	0,42
1065,137	0,42
1065,552	0,41
1065,967	0,41
1066,382	0,41
1066,798	0,41
1067,213	0,41
1067,628	0,41
1068,043	0,42
1068,458	0,42
1068,873	0,42
1069,288	0,41
1069,703	0,41
1070,118	0,42
1070,533	0,42
1070,948	0,42
1071,363	0,41
1071,778	0,41
1072,193	0,41
1072,607	0,41
1073,022	0,41
1073,437	0,41
1073,852	0,41
1074,266	0,41
1074,681	0,41
1075,096	0,41
1075,51	0,41
1075,925	0,41
1076,339	0,41
1076,754	0,41
1077,168	0,41
1077,583	0,41
1077,997	0,41
1078,412	0,41
1078,826	0,41
1079,24	0,41
1079,655	0,41
1080,069	0,41
1080,483	0,41
1080,897	0,41
1081,312	0,41
1081,726	0,41
1082,14	0,41
1082,554	0,41
1082,968	0,41
1083,382	0,41
1083,796	0,41
1084,21	0,41
1084,624	0,41
1085,038	0,4
1085,452	0,4
1085,866	0,4
1086,28	0,4
1086,694	0,4
1087,108	0,4
1087,521	0,39
1087,935	0,39
1088,349	0,39
1088,763	0,39
1089,176	0,38
1089,59	0,38
1090,004	0,38
1090,417	0,38
1090,831	0,37
1091,244	0,37
1091,658	0,37
1092,071	0,37
1092,485	0,36
1092,898	0,36
1093,312	0,36
1093,725	0,36
1094,138	0,35
1094,552	0,35
1094,965	0,35
1095,378	0,35
1095,791	0,34
1096,205	0,34
1096,618	0,34
1097,031	0,33
1097,444	0,33
1097,857	0,32
1098,27	0,32
1098,683	0,32
1099,096	0,32
1099,509	0,31
1099,922	0,31
1100,335	0,31
1100,748	0,3
1101,161	0,29
1101,574	0,29
1101,986	0,29
1102,399	0,28
1102,812	0,28
1103,225	0,28
1103,637	0,27
1104,05	0,27
1104,463	0,27
1104,875	0,27
1105,288	0,26
1105,7	0,26
1106,113	0,25
1106,525	0,25
1106,938	0,25
1107,35	0,24
1107,763	0,24
1108,175	0,24
1108,588	0,24
1109	0,23
1109,412	0,22
1109,824	0,23
1110,237	0,23
1110,649	0,23
1111,061	0,22
