Data from 18C-808nm-8A-cont_Absorbance__429__01858.txt Node

Date: Mon Jul 17 17:34:28 CEST 2023
User: Laser008
Spectrometer: MAYP115816
Trigger mode: 0
Integration Time (sec): 2,500000E-1
Scans to average: 10
Electric dark correction enabled: true
Nonlinearity correction enabled: true
Boxcar width: 5
XAxis mode: Wavelengths
Number of Pixels in Spectrum: 2068
>>>>>Begin Spectral Data<<<<<
198,914	-0,7
199,384	-0,48
199,855	-0,38
200,325	-0,29
200,796	-0,25
201,266	-0,2
201,737	-0,19
202,207	-0,18
202,677	-0,17
203,147	-0,15
203,618	-0,12
204,088	-0,1
204,558	-0,08
205,028	-0,07
205,498	-0,08
205,968	-0,08
206,439	-0,1
206,909	-0,08
207,379	-0,1
207,849	-0,1
208,319	-0,11
208,789	-0,11
209,258	-0,11
209,728	-0,13
210,198	-0,13
210,668	-0,13
211,138	-0,12
211,608	-0,12
212,077	-0,13
212,547	-0,13
213,017	-0,13
213,486	-0,13
213,956	-0,14
214,426	-0,15
214,895	-0,14
215,365	-0,15
215,834	-0,15
216,304	-0,16
216,773	-0,16
217,243	-0,17
217,712	-0,19
218,181	-0,18
218,651	-0,18
219,12	-0,18
219,589	-0,18
220,058	-0,17
220,528	-0,19
220,997	-0,19
221,466	-0,2
221,935	-0,21
222,404	-0,19
222,873	-0,18
223,342	-0,18
223,812	-0,18
224,281	-0,18
224,749	-0,19
225,218	-0,19
225,687	-0,19
226,156	-0,18
226,625	-0,17
227,094	-0,17
227,563	-0,18
228,031	-0,19
228,5	-0,18
228,969	-0,18
229,438	-0,18
229,906	-0,17
230,375	-0,17
230,844	-0,17
231,312	-0,16
231,781	-0,17
232,249	-0,16
232,718	-0,16
233,186	-0,14
233,655	-0,16
234,123	-0,15
234,591	-0,15
235,06	-0,16
235,528	-0,17
235,996	-0,16
236,465	-0,15
236,933	-0,15
237,401	-0,15
237,869	-0,14
238,337	-0,15
238,805	-0,14
239,274	-0,13
239,742	-0,12
240,21	-0,12
240,678	-0,1
241,146	-0,1
241,614	-0,1
242,081	-0,09
242,549	-0,09
243,017	-0,09
243,485	-0,09
243,953	-0,09
244,421	-0,09
244,888	-0,09
245,356	-0,09
245,824	-0,1
246,291	-0,1
246,759	-0,1
247,227	-0,12
247,694	-0,11
248,162	-0,1
248,629	-0,09
249,097	-0,1
249,564	-0,11
250,032	-0,12
250,499	-0,11
250,967	-0,12
251,434	-0,12
251,901	-0,12
252,369	-0,12
252,836	-0,13
253,303	-0,15
253,77	-0,16
254,237	-0,15
254,705	-0,15
255,172	-0,15
255,639	-0,15
256,106	-0,18
256,573	-0,18
257,04	-0,18
257,507	-0,18
257,974	-0,18
258,441	-0,16
258,908	-0,16
259,375	-0,18
259,841	-0,18
260,308	-0,18
260,775	-0,18
261,242	-0,17
261,709	-0,18
262,175	-0,19
262,642	-0,18
263,109	-0,19
263,575	-0,2
264,042	-0,18
264,508	-0,18
264,975	-0,19
265,441	-0,2
265,908	-0,2
266,374	-0,19
266,841	-0,2
267,307	-0,19
267,773	-0,18
268,24	-0,18
268,706	-0,19
269,172	-0,21
269,639	-0,22
270,105	-0,2
270,571	-0,21
271,037	-0,21
271,503	-0,22
271,969	-0,22
272,435	-0,22
272,902	-0,23
273,368	-0,25
273,834	-0,24
274,3	-0,25
274,765	-0,25
275,231	-0,25
275,697	-0,23
276,163	-0,22
276,629	-0,22
277,095	-0,22
277,56	-0,22
278,026	-0,23
278,492	-0,21
278,958	-0,21
279,423	-0,21
279,889	-0,2
280,354	-0,21
280,82	-0,21
281,286	-0,23
281,751	-0,24
282,217	-0,23
282,682	-0,23
283,147	-0,23
283,613	-0,23
284,078	-0,23
284,544	-0,24
285,009	-0,24
285,474	-0,24
285,939	-0,25
286,405	-0,24
286,87	-0,23
287,335	-0,23
287,8	-0,22
288,265	-0,2
288,73	-0,22
289,195	-0,24
289,66	-0,24
290,125	-0,24
290,59	-0,24
291,055	-0,23
291,52	-0,24
291,985	-0,24
292,45	-0,25
292,915	-0,25
293,38	-0,25
293,844	-0,23
294,309	-0,22
294,774	-0,21
295,239	-0,22
295,703	-0,22
296,168	-0,21
296,632	-0,2
297,097	-0,18
297,562	-0,16
298,026	-0,17
298,491	-0,17
298,955	-0,16
299,419	-0,16
299,884	-0,16
300,348	-0,15
300,813	-0,14
301,277	-0,15
301,741	-0,15
302,205	-0,16
302,67	-0,15
303,134	-0,14
303,598	-0,14
304,062	-0,13
304,526	-0,13
304,99	-0,13
305,454	-0,14
305,919	-0,14
306,383	-0,13
306,847	-0,13
307,31	-0,13
307,774	-0,15
308,238	-0,14
308,702	-0,13
309,166	-0,15
309,63	-0,15
310,094	-0,12
310,557	-0,12
311,021	-0,11
311,485	-0,12
311,948	-0,12
312,412	-0,11
312,876	-0,1
313,339	-0,11
313,803	-0,12
314,266	-0,11
314,73	-0,12
315,193	-0,12
315,657	-0,11
316,12	-0,11
316,584	-0,09
317,047	-0,08
317,51	-0,07
317,973	-0,07
318,437	-0,06
318,9	-0,06
319,363	-0,04
319,826	-0,04
320,29	-0,04
320,753	-0,05
321,216	-0,05
321,679	-0,04
322,142	-0,04
322,605	-0,05
323,068	-0,05
323,531	-0,05
323,994	-0,04
324,457	-0,04
324,92	-0,03
325,382	-0,02
325,845	-0,02
326,308	-0,01
326,771	-0,02
327,233	-0,01
327,696	0
328,159	0,01
328,622	0,01
329,084	0,01
329,547	0,02
330,009	0,02
330,472	0,03
330,934	0,03
331,397	0,03
331,859	0,04
332,322	0,04
332,784	0,04
333,246	0,05
333,709	0,05
334,171	0,06
334,633	0,06
335,096	0,06
335,558	0,06
336,02	0,06
336,482	0,06
336,944	0,07
337,406	0,08
337,868	0,08
338,331	0,08
338,793	0,09
339,255	0,1
339,717	0,1
340,178	0,11
340,64	0,12
341,102	0,13
341,564	0,14
342,026	0,15
342,488	0,17
342,949	0,18
343,411	0,21
343,873	0,24
344,335	0,27
344,796	0,31
345,258	0,35
345,719	0,39
346,181	0,44
346,643	0,49
347,104	0,53
347,566	0,56
348,027	0,59
348,488	0,61
348,95	0,63
349,411	0,66
349,873	0,68
350,334	0,7
350,795	0,72
351,256	0,74
351,718	0,74
352,179	0,75
352,64	0,75
353,101	0,76
353,562	0,76
354,023	0,76
354,484	0,77
354,945	0,77
355,406	0,77
355,867	0,77
356,328	0,78
356,789	0,78
357,25	0,78
357,711	0,78
358,172	0,79
358,633	0,79
359,093	0,79
359,554	0,79
360,015	0,79
360,476	0,79
360,936	0,79
361,397	0,8
361,858	0,8
362,318	0,8
362,779	0,8
363,239	0,8
363,7	0,8
364,16	0,8
364,621	0,8
365,081	0,8
365,541	0,8
366,002	0,8
366,462	0,8
366,922	0,8
367,383	0,8
367,843	0,8
368,303	0,8
368,763	0,8
369,223	0,8
369,684	0,8
370,144	0,8
370,604	0,8
371,064	0,8
371,524	0,8
371,984	0,8
372,444	0,8
372,904	0,8
373,363	0,8
373,823	0,8
374,283	0,8
374,743	0,8
375,203	0,8
375,663	0,8
376,122	0,8
376,582	0,8
377,042	0,8
377,501	0,8
377,961	0,8
378,42	0,8
378,88	0,8
379,34	0,8
379,799	0,79
380,259	0,79
380,718	0,79
381,177	0,79
381,637	0,79
382,096	0,79
382,555	0,79
383,015	0,79
383,474	0,79
383,933	0,79
384,393	0,79
384,852	0,79
385,311	0,79
385,77	0,79
386,229	0,79
386,688	0,79
387,147	0,79
387,606	0,79
388,065	0,79
388,524	0,79
388,983	0,79
389,442	0,79
389,901	0,79
390,36	0,78
390,819	0,78
391,277	0,78
391,736	0,78
392,195	0,78
392,654	0,78
393,112	0,78
393,571	0,78
394,03	0,78
394,488	0,78
394,947	0,78
395,405	0,78
395,864	0,78
396,322	0,78
396,781	0,78
397,239	0,78
397,698	0,78
398,156	0,78
398,614	0,78
399,073	0,78
399,531	0,78
399,989	0,78
400,447	0,78
400,905	0,78
401,364	0,78
401,822	0,78
402,28	0,78
402,738	0,78
403,196	0,77
403,654	0,77
404,112	0,77
404,57	0,77
405,028	0,77
405,486	0,77
405,944	0,77
406,402	0,77
406,859	0,77
407,317	0,77
407,775	0,77
408,233	0,77
408,691	0,77
409,148	0,77
409,606	0,77
410,064	0,77
410,521	0,77
410,979	0,77
411,436	0,77
411,894	0,77
412,351	0,77
412,809	0,77
413,266	0,77
413,724	0,77
414,181	0,77
414,638	0,77
415,096	0,77
415,553	0,77
416,01	0,77
416,467	0,77
416,925	0,77
417,382	0,77
417,839	0,77
418,296	0,77
418,753	0,77
419,21	0,77
419,667	0,77
420,124	0,77
420,581	0,77
421,038	0,77
421,495	0,77
421,952	0,77
422,409	0,77
422,866	0,77
423,322	0,77
423,779	0,77
424,236	0,77
424,693	0,77
425,149	0,77
425,606	0,77
426,063	0,77
426,519	0,77
426,976	0,77
427,433	0,77
427,889	0,77
428,346	0,77
428,802	0,77
429,258	0,77
429,715	0,77
430,171	0,77
430,628	0,77
431,084	0,77
431,54	0,77
431,997	0,77
432,453	0,77
432,909	0,76
433,365	0,76
433,821	0,76
434,277	0,76
434,734	0,76
435,19	0,76
435,646	0,76
436,102	0,76
436,558	0,76
437,014	0,76
437,47	0,76
437,925	0,76
438,381	0,76
438,837	0,76
439,293	0,76
439,749	0,76
440,205	0,76
440,66	0,76
441,116	0,76
441,572	0,76
442,027	0,76
442,483	0,76
442,939	0,76
443,394	0,76
443,85	0,77
444,305	0,77
444,761	0,77
445,216	0,77
445,672	0,77
446,127	0,77
446,582	0,77
447,038	0,77
447,493	0,77
447,948	0,77
448,403	0,77
448,859	0,77
449,314	0,77
449,769	0,77
450,224	0,77
450,679	0,77
451,134	0,77
451,589	0,77
452,044	0,77
452,499	0,77
452,954	0,77
453,409	0,77
453,864	0,77
454,319	0,77
454,774	0,77
455,229	0,77
455,684	0,77
456,138	0,77
456,593	0,77
457,048	0,77
457,503	0,77
457,957	0,77
458,412	0,77
458,866	0,77
459,321	0,77
459,776	0,77
460,23	0,78
460,685	0,78
461,139	0,78
461,593	0,78
462,048	0,78
462,502	0,78
462,957	0,78
463,411	0,78
463,865	0,78
464,319	0,78
464,774	0,78
465,228	0,79
465,682	0,79
466,136	0,79
466,59	0,79
467,044	0,79
467,499	0,79
467,953	0,79
468,407	0,79
468,861	0,79
469,315	0,79
469,768	0,79
470,222	0,79
470,676	0,8
471,13	0,8
471,584	0,8
472,038	0,8
472,491	0,8
472,945	0,8
473,399	0,8
473,852	0,8
474,306	0,8
474,76	0,8
475,213	0,81
475,667	0,81
476,12	0,81
476,574	0,81
477,027	0,81
477,481	0,81
477,934	0,82
478,388	0,82
478,841	0,82
479,294	0,82
479,748	0,82
480,201	0,82
480,654	0,83
481,107	0,83
481,561	0,83
482,014	0,83
482,467	0,83
482,92	0,84
483,373	0,84
483,826	0,84
484,279	0,84
484,732	0,84
485,185	0,85
485,638	0,85
486,091	0,85
486,544	0,85
486,997	0,85
487,449	0,86
487,902	0,86
488,355	0,86
488,808	0,87
489,26	0,87
489,713	0,87
490,166	0,87
490,618	0,88
491,071	0,88
491,523	0,88
491,976	0,88
492,429	0,89
492,881	0,89
493,333	0,89
493,786	0,9
494,238	0,9
494,691	0,9
495,143	0,91
495,595	0,91
496,048	0,92
496,5	0,92
496,952	0,92
497,404	0,93
497,856	0,93
498,309	0,93
498,761	0,94
499,213	0,94
499,665	0,95
500,117	0,95
500,569	0,96
501,021	0,96
501,473	0,96
501,925	0,97
502,377	0,97
502,828	0,98
503,28	0,98
503,732	0,99
504,184	0,99
504,636	0,99
505,087	1
505,539	1
505,991	1,01
506,442	1,01
506,894	1,01
507,345	1,02
507,797	1,02
508,249	1,03
508,7	1,03
509,151	1,03
509,603	1,04
510,054	1,04
510,506	1,05
510,957	1,05
511,408	1,06
511,86	1,06
512,311	1,06
512,762	1,07
513,213	1,07
513,665	1,07
514,116	1,08
514,567	1,08
515,018	1,09
515,469	1,09
515,92	1,09
516,371	1,09
516,822	1,1
517,273	1,1
517,724	1,1
518,175	1,11
518,626	1,11
519,076	1,11
519,527	1,11
519,978	1,12
520,429	1,12
520,88	1,12
521,33	1,12
521,781	1,13
522,232	1,13
522,682	1,13
523,133	1,13
523,583	1,13
524,034	1,13
524,484	1,14
524,935	1,14
525,385	1,14
525,836	1,14
526,286	1,14
526,736	1,14
527,187	1,14
527,637	1,14
528,087	1,13
528,538	1,13
528,988	1,13
529,438	1,13
529,888	1,13
530,338	1,13
530,788	1,13
531,238	1,13
531,688	1,13
532,139	1,12
532,589	1,12
533,038	1,12
533,488	1,12
533,938	1,12
534,388	1,11
534,838	1,11
535,288	1,11
535,738	1,1
536,187	1,1
536,637	1,1
537,087	1,09
537,537	1,09
537,986	1,08
538,436	1,08
538,885	1,07
539,335	1,07
539,785	1,06
540,234	1,06
540,684	1,05
541,133	1,05
541,582	1,05
542,032	1,04
542,481	1,04
542,931	1,03
543,38	1,02
543,829	1,02
544,278	1,01
544,728	1,01
545,177	1
545,626	1
546,075	1
546,524	0,99
546,973	0,99
547,422	0,98
547,871	0,98
548,32	0,97
548,769	0,97
549,218	0,97
549,667	0,96
550,116	0,96
550,565	0,95
551,014	0,95
551,463	0,94
551,911	0,94
552,36	0,93
552,809	0,93
553,258	0,92
553,706	0,92
554,155	0,91
554,603	0,91
555,052	0,9
555,501	0,9
555,949	0,89
556,398	0,89
556,846	0,88
557,294	0,88
557,743	0,87
558,191	0,87
558,64	0,86
559,088	0,85
559,536	0,85
559,985	0,84
560,433	0,84
560,881	0,84
561,329	0,83
561,777	0,83
562,225	0,82
562,674	0,82
563,122	0,81
563,57	0,81
564,018	0,8
564,466	0,8
564,914	0,79
565,362	0,79
565,809	0,79
566,257	0,78
566,705	0,78
567,153	0,77
567,601	0,77
568,048	0,76
568,496	0,76
568,944	0,75
569,392	0,75
569,839	0,75
570,287	0,74
570,734	0,74
571,182	0,74
571,63	0,73
572,077	0,73
572,525	0,72
572,972	0,72
573,419	0,72
573,867	0,71
574,314	0,71
574,761	0,71
575,209	0,7
575,656	0,7
576,103	0,69
576,551	0,69
576,998	0,69
577,445	0,68
577,892	0,68
578,339	0,68
578,786	0,67
579,233	0,67
579,68	0,67
580,127	0,66
580,574	0,66
581,021	0,66
581,468	0,65
581,915	0,65
582,362	0,65
582,809	0,65
583,255	0,64
583,702	0,64
584,149	0,64
584,596	0,64
585,042	0,63
585,489	0,63
585,936	0,63
586,382	0,63
586,829	0,62
587,275	0,62
587,722	0,62
588,168	0,62
588,615	0,61
589,061	0,61
589,508	0,61
589,954	0,61
590,4	0,61
590,847	0,6
591,293	0,6
591,739	0,6
592,185	0,6
592,632	0,59
593,078	0,59
593,524	0,59
593,97	0,59
594,416	0,59
594,862	0,59
595,308	0,59
595,754	0,58
596,2	0,58
596,646	0,58
597,092	0,58
597,538	0,58
597,984	0,57
598,43	0,57
598,876	0,57
599,321	0,57
599,767	0,57
600,213	0,57
600,659	0,57
601,104	0,56
601,55	0,56
601,995	0,56
602,441	0,56
602,887	0,56
603,332	0,56
603,778	0,56
604,223	0,55
604,668	0,55
605,114	0,55
605,559	0,55
606,005	0,55
606,45	0,55
606,895	0,55
607,341	0,55
607,786	0,55
608,231	0,54
608,676	0,54
609,121	0,53
609,566	0,53
610,012	0,52
610,457	0,52
610,902	0,51
611,347	0,51
611,792	0,51
612,237	0,51
612,682	0,51
613,127	0,51
613,571	0,51
614,016	0,51
614,461	0,51
614,906	0,51
615,351	0,51
615,795	0,52
616,24	0,52
616,685	0,52
617,129	0,52
617,574	0,52
618,019	0,52
618,463	0,52
618,908	0,52
619,352	0,52
619,797	0,51
620,241	0,51
620,686	0,51
621,13	0,51
621,574	0,51
622,019	0,51
622,463	0,51
622,907	0,51
623,352	0,5
623,796	0,5
624,24	0,5
624,684	0,5
625,128	0,5
625,572	0,5
626,016	0,5
626,461	0,5
626,905	0,5
627,349	0,5
627,793	0,5
628,236	0,5
628,68	0,5
629,124	0,5
629,568	0,5
630,012	0,5
630,456	0,5
630,9	0,5
631,343	0,5
631,787	0,5
632,231	0,5
632,674	0,5
633,118	0,5
633,562	0,5
634,005	0,5
634,449	0,49
634,892	0,49
635,336	0,49
635,779	0,49
636,223	0,49
636,666	0,49
637,109	0,49
637,553	0,49
637,996	0,49
638,439	0,49
638,883	0,49
639,326	0,49
639,769	0,49
640,212	0,49
640,655	0,49
641,099	0,49
641,542	0,48
641,985	0,48
642,428	0,48
642,871	0,48
643,314	0,48
643,757	0,48
644,2	0,48
644,643	0,48
645,085	0,48
645,528	0,48
645,971	0,48
646,414	0,48
646,857	0,48
647,299	0,48
647,742	0,48
648,185	0,48
648,627	0,48
649,07	0,47
649,513	0,47
649,955	0,47
650,398	0,47
650,84	0,48
651,283	0,48
651,725	0,48
652,168	0,48
652,61	0,48
653,052	0,48
653,495	0,47
653,937	0,39
654,379	0,33
654,821	0,34
655,264	0,34
655,706	0,34
656,148	0,34
656,59	0,34
657,032	0,34
657,474	0,34
657,916	0,34
658,358	0,33
658,8	0,39
659,242	0,47
659,684	0,47
660,126	0,47
660,568	0,47
661,01	0,47
661,452	0,47
661,894	0,47
662,335	0,47
662,777	0,47
663,219	0,47
663,661	0,47
664,102	0,47
664,544	0,47
664,985	0,47
665,427	0,47
665,869	0,47
666,31	0,47
666,752	0,47
667,193	0,47
667,634	0,47
668,076	0,47
668,517	0,47
668,959	0,47
669,4	0,47
669,841	0,47
670,282	0,47
670,724	0,47
671,165	0,47
671,606	0,47
672,047	0,47
672,488	0,46
672,929	0,46
673,37	0,46
673,811	0,46
674,252	0,46
674,693	0,46
675,134	0,46
675,575	0,46
676,016	0,46
676,457	0,46
676,898	0,46
677,339	0,46
677,78	0,45
678,22	0,45
678,661	0,45
679,102	0,45
679,542	0,46
679,983	0,46
680,424	0,46
680,864	0,46
681,305	0,46
681,745	0,46
682,186	0,46
682,626	0,46
683,067	0,46
683,507	0,46
683,948	0,46
684,388	0,46
684,828	0,46
685,269	0,46
685,709	0,46
686,149	0,45
686,589	0,45
687,029	0,45
687,47	0,45
687,91	0,45
688,35	0,45
688,79	0,45
689,23	0,45
689,67	0,45
690,11	0,45
690,55	0,45
690,99	0,45
691,43	0,45
691,87	0,45
692,31	0,44
692,749	0,44
693,189	0,44
693,629	0,44
694,069	0,44
694,508	0,44
694,948	0,44
695,388	0,44
695,827	0,44
696,267	0,44
696,706	0,44
697,146	0,44
697,586	0,44
698,025	0,44
698,464	0,44
698,904	0,44
699,343	0,44
699,783	0,44
700,222	0,44
700,661	0,44
701,101	0,45
701,54	0,45
701,979	0,45
702,418	0,45
702,857	0,45
703,297	0,45
703,736	0,45
704,175	0,45
704,614	0,45
705,053	0,44
705,492	0,44
705,931	0,44
706,37	0,44
706,809	0,44
707,248	0,44
707,687	0,44
708,125	0,44
708,564	0,44
709,003	0,44
709,442	0,44
709,88	0,44
710,319	0,44
710,758	0,44
711,196	0,44
711,635	0,44
712,074	0,44
712,512	0,44
712,951	0,43
713,389	0,43
713,828	0,43
714,266	0,43
714,705	0,43
715,143	0,43
715,581	0,43
716,02	0,43
716,458	0,43
716,896	0,43
717,334	0,43
717,773	0,43
718,211	0,43
718,649	0,43
719,087	0,43
719,525	0,43
719,963	0,43
720,401	0,43
720,839	0,43
721,277	0,44
721,715	0,44
722,153	0,44
722,591	0,44
723,029	0,43
723,467	0,43
723,905	0,43
724,342	0,43
724,78	0,43
725,218	0,43
725,656	0,43
726,093	0,43
726,531	0,43
726,969	0,43
727,406	0,43
727,844	0,43
728,281	0,43
728,719	0,43
729,156	0,43
729,594	0,43
730,031	0,43
730,469	0,43
730,906	0,43
731,343	0,43
731,781	0,43
732,218	0,43
732,655	0,43
733,092	0,43
733,53	0,42
733,967	0,42
734,404	0,42
734,841	0,42
735,278	0,42
735,715	0,42
736,152	0,42
736,589	0,42
737,026	0,42
737,463	0,42
737,9	0,42
738,337	0,42
738,774	0,42
739,211	0,42
739,647	0,42
740,084	0,42
740,521	0,42
740,958	0,42
741,394	0,42
741,831	0,42
742,268	0,42
742,704	0,42
743,141	0,42
743,577	0,42
744,014	0,42
744,45	0,42
744,887	0,42
745,323	0,42
745,76	0,42
746,196	0,42
746,632	0,41
747,069	0,41
747,505	0,41
747,941	0,41
748,378	0,41
748,814	0,41
749,25	0,41
749,686	0,42
750,122	0,42
750,558	0,42
750,994	0,42
751,43	0,42
751,866	0,42
752,302	0,42
752,738	0,42
753,174	0,42
753,61	0,42
754,046	0,42
754,482	0,42
754,918	0,42
755,354	0,42
755,789	0,42
756,225	0,42
756,661	0,42
757,096	0,42
757,532	0,42
757,968	0,41
758,403	0,41
758,839	0,41
759,274	0,41
759,71	0,4
760,145	0,4
760,581	0,39
761,016	0,38
761,452	0,38
761,887	0,38
762,322	0,37
762,758	0,37
763,193	0,37
763,628	0,36
764,063	0,35
764,499	0,35
764,934	0,34
765,369	0,33
765,804	0,33
766,239	0,32
766,674	0,31
767,109	0,3
767,544	0,3
767,979	0,28
768,414	0,27
768,849	0,27
769,284	0,26
769,719	0,25
770,154	0,24
770,588	0,24
771,023	0,23
771,458	0,22
771,893	0,2
772,327	0,19
772,762	0,18
773,197	0,17
773,631	0,16
774,066	0,15
774,5	0,14
774,935	0,12
775,369	0,11
775,804	0,1
776,238	0,09
776,673	0,08
777,107	0,07
777,541	0,06
777,976	0,05
778,41	0,05
778,844	0,04
779,279	0,03
779,713	0,03
780,147	0,02
780,581	0,01
781,015	-0
781,449	-0,01
781,883	-0,02
782,317	-0,03
782,751	-0,03
783,185	-0,05
783,619	-0,05
784,053	-0,06
784,487	-0,07
784,921	-0,08
785,355	-0,08
785,789	-0,09
786,223	-0,11
786,656	-0,12
787,09	-0,14
787,524	-0,14
787,957	-0,15
788,391	-0,17
788,825	-0,19
789,258	-0,2
789,692	-0,21
790,125	-0,23
790,559	-0,25
790,992	-0,26
791,426	-0,29
791,859	-0,3
792,293	-0,33
792,726	-0,34
793,159	-0,36
793,593	-0,38
794,026	-0,4
794,459	-0,43
794,892	-0,46
795,326	-0,48
795,759	-0,52
796,192	-0,56
796,625	-0,6
797,058	-0,63
797,491	-0,67
797,924	-0,71
798,357	-0,76
798,79	-0,79
799,223	-0,84
799,656	-0,89
800,089	-0,94
800,522	-0,98
800,955	-1,02
801,387	-1,08
801,82	-1,13
802,253	-1,2
802,686	-1,27
803,118	-1,33
803,551	-1,38
803,984	-1,43
804,416	-1,46
804,849	-1,49
805,281	-1,6
805,714	-1,98
806,146	-2,44
806,579	-2,71
807,011	-2,87
807,444	-2,96
807,876	-3,04
808,308	-3,08
808,741	-3,1
809,173	-3,16
809,605	-3,18
810,037	-3,25
810,47	-3,17
810,902	-2,97
811,334	-2,82
811,766	-2,65
812,198	-2,4
812,63	-1,97
813,062	-1,76
813,494	-1,67
813,926	-1,58
814,358	-1,53
814,79	-1,45
815,222	-1,39
815,654	-1,34
816,086	-1,28
816,518	-1,23
816,949	-1,18
817,381	-1,13
817,813	-1,12
818,245	-1,08
818,676	-1,04
819,108	-1,01
819,54	-0,99
819,971	-0,97
820,403	-0,92
820,834	-0,91
821,266	-0,87
821,697	-0,84
822,129	-0,83
822,56	-0,8
822,991	-0,78
823,423	-0,75
823,854	-0,74
824,286	-0,72
824,717	-0,71
825,148	-0,69
825,579	-0,68
826,01	-0,67
826,442	-0,66
826,873	-0,65
827,304	-0,62
827,735	-0,61
828,166	-0,62
828,597	-0,62
829,028	-0,61
829,459	-0,62
829,89	-0,62
830,321	-0,58
830,752	-0,59
831,183	-0,59
831,613	-0,57
832,044	-0,57
832,475	-0,56
832,906	-0,58
833,336	-0,57
833,767	-0,57
834,198	-0,57
834,628	-0,55
835,059	-0,58
835,49	-0,58
835,92	-0,55
836,351	-0,56
836,781	-0,57
837,212	-0,58
837,642	-0,58
838,072	-0,56
838,503	-0,57
838,933	-0,55
839,364	-0,56
839,794	-0,53
840,224	-0,53
840,654	-0,57
841,085	-0,57
841,515	-0,53
841,945	-0,54
842,375	-0,5
842,805	-0,49
843,235	-0,47
843,665	-0,49
844,095	-0,48
844,525	-0,5
844,955	-0,51
845,385	-0,48
845,815	-0,46
846,245	-0,5
846,675	-0,5
847,105	-0,52
847,534	-0,51
847,964	-0,5
848,394	-0,48
848,824	-0,51
849,253	-0,5
849,683	-0,5
850,112	-0,51
850,542	-0,54
850,972	-0,54
851,401	-0,52
851,831	-0,5
852,26	-0,51
852,69	-0,54
853,119	-0,54
853,548	-0,54
853,978	-0,55
854,407	-0,54
854,836	-0,54
855,266	-0,53
855,695	-0,54
856,124	-0,55
856,553	-0,56
856,983	-0,57
857,412	-0,57
857,841	-0,58
858,27	-0,59
858,699	-0,59
859,128	-0,63
859,557	-0,63
859,986	-0,65
860,415	-0,63
860,844	-0,61
861,273	-0,61
861,702	-0,63
862,13	-0,61
862,559	-0,61
862,988	-0,59
863,417	-0,57
863,845	-0,56
864,274	-0,57
864,703	-0,57
865,131	-0,57
865,56	-0,58
865,989	-0,61
866,417	-0,58
866,846	-0,58
867,274	-0,58
867,703	-0,6
868,131	-0,61
868,559	-0,61
868,988	-0,62
869,416	-0,61
869,844	-0,62
870,273	-0,65
870,701	-0,63
871,129	-0,66
871,557	-0,68
871,986	-0,69
872,414	-0,7
872,842	-0,67
873,27	-0,66
873,698	-0,63
874,126	-0,68
874,554	-0,65
874,982	-0,65
875,41	-0,67
875,838	-0,62
876,266	-0,6
876,694	-0,6
877,122	-0,59
877,549	-0,65
877,977	-0,62
878,405	-0,64
878,833	-0,61
879,26	-0,6
879,688	-0,59
880,116	-0,57
880,543	-0,55
880,971	-0,54
881,399	-0,57
881,826	-0,58
882,254	-0,55
882,681	-0,59
883,109	-0,56
883,536	-0,57
883,963	-0,58
884,391	-0,57
884,818	-0,56
885,245	-0,61
885,673	-0,62
886,1	-0,59
886,527	-0,59
886,954	-0,55
887,381	-0,57
887,809	-0,58
888,236	-0,6
888,663	-0,61
889,09	-0,65
889,517	-0,67
889,944	-0,66
890,371	-0,66
890,798	-0,67
891,225	-0,66
891,652	-0,7
892,078	-0,67
892,505	-0,7
892,932	-0,66
893,359	-0,67
893,786	-0,66
894,212	-0,63
894,639	-0,65
895,066	-0,66
895,492	-0,6
895,919	-0,6
896,346	-0,59
896,772	-0,6
897,199	-0,57
897,625	-0,59
898,052	-0,55
898,478	-0,53
898,904	-0,54
899,331	-0,54
899,757	-0,56
900,183	-0,57
900,61	-0,56
901,036	-0,56
901,462	-0,56
901,888	-0,56
902,315	-0,54
902,741	-0,59
903,167	-0,58
903,593	-0,62
904,019	-0,59
904,445	-0,56
904,871	-0,6
905,297	-0,62
905,723	-0,62
906,149	-0,61
906,575	-0,61
907,001	-0,61
907,427	-0,58
907,852	-0,58
908,278	-0,57
908,704	-0,56
909,13	-0,54
909,555	-0,54
909,981	-0,53
910,407	-0,53
910,832	-0,53
911,258	-0,53
911,684	-0,53
912,109	-0,53
912,535	-0,55
912,96	-0,51
913,386	-0,55
913,811	-0,55
914,236	-0,56
914,662	-0,55
915,087	-0,58
915,512	-0,58
915,938	-0,6
916,363	-0,58
916,788	-0,59
917,213	-0,57
917,639	-0,62
918,064	-0,59
918,489	-0,59
918,914	-0,6
919,339	-0,61
919,764	-0,58
920,189	-0,59
920,614	-0,61
921,039	-0,61
921,464	-0,57
921,889	-0,6
922,314	-0,61
922,738	-0,64
923,163	-0,65
923,588	-0,65
924,013	-0,65
924,437	-0,65
924,862	-0,66
925,287	-0,62
925,711	-0,63
926,136	-0,64
926,561	-0,62
926,985	-0,61
927,41	-0,59
927,834	-0,56
928,259	-0,53
928,683	-0,51
929,108	-0,48
929,532	-0,49
929,956	-0,48
930,381	-0,48
930,805	-0,49
931,229	-0,48
931,653	-0,47
932,078	-0,46
932,502	-0,48
932,926	-0,49
933,35	-0,48
933,774	-0,48
934,198	-0,46
934,622	-0,46
935,046	-0,47
935,47	-0,46
935,894	-0,46
936,318	-0,45
936,742	-0,46
937,166	-0,46
937,59	-0,45
938,014	-0,47
938,437	-0,48
938,861	-0,49
939,285	-0,49
939,709	-0,48
940,132	-0,49
940,556	-0,49
940,98	-0,49
941,403	-0,47
941,827	-0,48
942,25	-0,5
942,674	-0,49
943,097	-0,48
943,521	-0,49
943,944	-0,5
944,368	-0,49
944,791	-0,48
945,214	-0,51
945,638	-0,51
946,061	-0,55
946,484	-0,56
946,907	-0,53
947,331	-0,53
947,754	-0,58
948,177	-0,55
948,6	-0,55
949,023	-0,54
949,446	-0,54
949,869	-0,51
950,292	-0,51
950,715	-0,48
951,138	-0,46
951,561	-0,44
951,984	-0,45
952,407	-0,44
952,83	-0,42
953,252	-0,39
953,675	-0,38
954,098	-0,39
954,521	-0,38
954,943	-0,37
955,366	-0,38
955,789	-0,36
956,211	-0,38
956,634	-0,38
957,056	-0,36
957,479	-0,36
957,902	-0,39
958,324	-0,39
958,746	-0,37
959,169	-0,39
959,591	-0,39
960,014	-0,41
960,436	-0,4
960,858	-0,4
961,281	-0,4
961,703	-0,41
962,125	-0,41
962,547	-0,39
962,969	-0,41
963,391	-0,41
963,814	-0,42
964,236	-0,41
964,658	-0,38
965,08	-0,39
965,502	-0,37
965,924	-0,35
966,346	-0,34
966,768	-0,33
967,189	-0,35
967,611	-0,34
968,033	-0,34
968,455	-0,31
968,877	-0,32
969,298	-0,33
969,72	-0,34
970,142	-0,33
970,563	-0,33
970,985	-0,32
971,407	-0,31
971,828	-0,29
972,25	-0,28
972,671	-0,26
973,093	-0,26
973,514	-0,25
973,936	-0,23
974,357	-0,21
974,778	-0,22
975,2	-0,22
975,621	-0,21
976,042	-0,19
976,464	-0,19
976,885	-0,18
977,306	-0,18
977,727	-0,17
978,148	-0,16
978,57	-0,14
978,991	-0,13
979,412	-0,11
979,833	-0,1
980,254	-0,11
980,675	-0,11
981,096	-0,09
981,517	-0,07
981,937	-0,07
982,358	-0,06
982,779	-0,04
983,2	-0,04
983,621	-0,04
984,042	-0,02
984,462	-0,01
984,883	0,01
985,304	0,03
985,724	0,04
986,145	0,04
986,565	0,06
986,986	0,07
987,407	0,08
987,827	0,09
988,248	0,1
988,668	0,11
989,088	0,12
989,509	0,14
989,929	0,14
990,35	0,16
990,77	0,17
991,19	0,18
991,61	0,2
992,031	0,21
992,451	0,22
992,871	0,23
993,291	0,24
993,711	0,25
994,131	0,26
994,551	0,26
994,971	0,27
995,391	0,28
995,811	0,29
996,231	0,29
996,651	0,3
997,071	0,31
997,491	0,31
997,911	0,32
998,331	0,33
998,75	0,34
999,17	0,34
999,59	0,35
1000,009	0,35
1000,429	0,36
1000,849	0,37
1001,268	0,37
1001,688	0,37
1002,107	0,38
1002,527	0,38
1002,946	0,39
1003,366	0,39
1003,785	0,39
1004,205	0,4
1004,624	0,4
1005,044	0,4
1005,463	0,4
1005,882	0,41
1006,301	0,41
1006,721	0,41
1007,14	0,41
1007,559	0,41
1007,978	0,41
1008,397	0,42
1008,816	0,42
1009,235	0,42
1009,655	0,42
1010,074	0,42
1010,492	0,42
1010,911	0,42
1011,33	0,41
1011,749	0,41
1012,168	0,41
1012,587	0,41
1013,006	0,41
1013,425	0,41
1013,843	0,41
1014,262	0,41
1014,681	0,41
1015,099	0,41
1015,518	0,41
1015,937	0,41
1016,355	0,41
1016,774	0,41
1017,192	0,41
1017,611	0,4
1018,029	0,4
1018,448	0,4
1018,866	0,4
1019,285	0,4
1019,703	0,4
1020,121	0,4
1020,54	0,4
1020,958	0,4
1021,376	0,4
1021,794	0,4
1022,213	0,4
1022,631	0,4
1023,049	0,4
1023,467	0,4
1023,885	0,4
1024,303	0,4
1024,721	0,4
1025,139	0,4
1025,557	0,4
1025,975	0,4
1026,393	0,39
1026,811	0,39
1027,229	0,39
1027,647	0,39
1028,065	0,39
1028,482	0,39
1028,9	0,39
1029,318	0,39
1029,735	0,39
1030,153	0,39
1030,571	0,39
1030,988	0,39
1031,406	0,39
1031,823	0,39
1032,241	0,39
1032,659	0,39
1033,076	0,39
1033,493	0,39
1033,911	0,39
1034,328	0,39
1034,746	0,4
1035,163	0,4
1035,58	0,4
1035,997	0,4
1036,415	0,4
1036,832	0,4
1037,249	0,4
1037,666	0,4
1038,083	0,4
1038,501	0,4
1038,918	0,4
1039,335	0,4
1039,752	0,4
1040,169	0,4
1040,586	0,4
1041,003	0,4
1041,419	0,4
1041,836	0,39
1042,253	0,39
1042,67	0,39
1043,087	0,39
1043,504	0,39
1043,92	0,39
1044,337	0,39
1044,754	0,39
1045,17	0,39
1045,587	0,39
1046,004	0,39
1046,42	0,39
1046,837	0,39
1047,253	0,39
1047,67	0,39
1048,086	0,39
1048,503	0,39
1048,919	0,39
1049,335	0,39
1049,752	0,39
1050,168	0,39
1050,584	0,39
1051,001	0,39
1051,417	0,39
1051,833	0,39
1052,249	0,39
1052,665	0,39
1053,081	0,39
1053,497	0,39
1053,914	0,4
1054,33	0,4
1054,746	0,4
1055,162	0,4
1055,578	0,4
1055,993	0,4
1056,409	0,4
1056,825	0,4
1057,241	0,4
1057,657	0,4
1058,073	0,4
1058,488	0,4
1058,904	0,4
1059,32	0,4
1059,736	0,4
1060,151	0,4
1060,567	0,4
1060,982	0,4
1061,398	0,4
1061,813	0,4
1062,229	0,4
1062,644	0,4
1063,06	0,4
1063,475	0,4
1063,891	0,4
1064,306	0,4
1064,721	0,4
1065,137	0,39
1065,552	0,39
1065,967	0,39
1066,382	0,39
1066,798	0,39
1067,213	0,39
1067,628	0,4
1068,043	0,4
1068,458	0,4
1068,873	0,4
1069,288	0,4
1069,703	0,4
1070,118	0,4
1070,533	0,4
1070,948	0,4
1071,363	0,4
1071,778	0,4
1072,193	0,4
1072,607	0,4
1073,022	0,4
1073,437	0,4
1073,852	0,4
1074,266	0,4
1074,681	0,4
1075,096	0,4
1075,51	0,4
1075,925	0,4
1076,339	0,4
1076,754	0,4
1077,168	0,4
1077,583	0,39
1077,997	0,39
1078,412	0,39
1078,826	0,39
1079,24	0,39
1079,655	0,39
1080,069	0,39
1080,483	0,39
1080,897	0,39
1081,312	0,39
1081,726	0,39
1082,14	0,39
1082,554	0,39
1082,968	0,39
1083,382	0,39
1083,796	0,38
1084,21	0,38
1084,624	0,38
1085,038	0,38
1085,452	0,38
1085,866	0,38
1086,28	0,38
1086,694	0,38
1087,108	0,38
1087,521	0,38
1087,935	0,37
1088,349	0,37
1088,763	0,37
1089,176	0,37
1089,59	0,36
1090,004	0,36
1090,417	0,36
1090,831	0,35
1091,244	0,35
1091,658	0,35
1092,071	0,35
1092,485	0,34
1092,898	0,34
1093,312	0,34
1093,725	0,34
1094,138	0,33
1094,552	0,33
1094,965	0,33
1095,378	0,33
1095,791	0,32
1096,205	0,32
1096,618	0,32
1097,031	0,32
1097,444	0,31
1097,857	0,31
1098,27	0,31
1098,683	0,3
1099,096	0,3
1099,509	0,3
1099,922	0,29
1100,335	0,28
1100,748	0,28
1101,161	0,27
1101,574	0,27
1101,986	0,26
1102,399	0,26
1102,812	0,26
1103,225	0,25
1103,637	0,25
1104,05	0,25
1104,463	0,25
1104,875	0,24
1105,288	0,24
1105,7	0,24
1106,113	0,23
1106,525	0,23
1106,938	0,22
1107,35	0,22
1107,763	0,22
1108,175	0,22
1108,588	0,21
1109	0,2
1109,412	0,2
1109,824	0,2
1110,237	0,2
1110,649	0,2
1111,061	0,21
