Data from 18C-808nm-8A-cont_Absorbance__257__01686.txt Node

Date: Mon Jul 17 17:27:18 CEST 2023
User: Laser008
Spectrometer: MAYP115816
Trigger mode: 0
Integration Time (sec): 2,500000E-1
Scans to average: 10
Electric dark correction enabled: true
Nonlinearity correction enabled: true
Boxcar width: 5
XAxis mode: Wavelengths
Number of Pixels in Spectrum: 2068
>>>>>Begin Spectral Data<<<<<
198,914	-0,67
199,384	-0,45
199,855	-0,34
200,325	-0,26
200,796	-0,22
201,266	-0,18
201,737	-0,16
202,207	-0,15
202,677	-0,14
203,147	-0,13
203,618	-0,1
204,088	-0,09
204,558	-0,09
205,028	-0,07
205,498	-0,08
205,968	-0,08
206,439	-0,1
206,909	-0,09
207,379	-0,11
207,849	-0,11
208,319	-0,11
208,789	-0,12
209,258	-0,11
209,728	-0,12
210,198	-0,12
210,668	-0,12
211,138	-0,11
211,608	-0,11
212,077	-0,11
212,547	-0,1
213,017	-0,1
213,486	-0,11
213,956	-0,12
214,426	-0,13
214,895	-0,13
215,365	-0,14
215,834	-0,14
216,304	-0,15
216,773	-0,15
217,243	-0,17
217,712	-0,18
218,181	-0,19
218,651	-0,19
219,12	-0,19
219,589	-0,19
220,058	-0,18
220,528	-0,19
220,997	-0,19
221,466	-0,2
221,935	-0,21
222,404	-0,2
222,873	-0,18
223,342	-0,18
223,812	-0,17
224,281	-0,17
224,749	-0,17
225,218	-0,18
225,687	-0,18
226,156	-0,17
226,625	-0,16
227,094	-0,16
227,563	-0,16
228,031	-0,18
228,5	-0,18
228,969	-0,2
229,438	-0,19
229,906	-0,18
230,375	-0,17
230,844	-0,16
231,312	-0,17
231,781	-0,17
232,249	-0,16
232,718	-0,16
233,186	-0,14
233,655	-0,14
234,123	-0,13
234,591	-0,13
235,06	-0,14
235,528	-0,15
235,996	-0,15
236,465	-0,15
236,933	-0,14
237,401	-0,14
237,869	-0,13
238,337	-0,14
238,805	-0,13
239,274	-0,12
239,742	-0,12
240,21	-0,11
240,678	-0,11
241,146	-0,1
241,614	-0,1
242,081	-0,1
242,549	-0,1
243,017	-0,1
243,485	-0,11
243,953	-0,11
244,421	-0,11
244,888	-0,11
245,356	-0,11
245,824	-0,1
246,291	-0,11
246,759	-0,12
247,227	-0,12
247,694	-0,11
248,162	-0,1
248,629	-0,08
249,097	-0,09
249,564	-0,1
250,032	-0,1
250,499	-0,1
250,967	-0,11
251,434	-0,11
251,901	-0,11
252,369	-0,12
252,836	-0,13
253,303	-0,15
253,77	-0,16
254,237	-0,15
254,705	-0,15
255,172	-0,14
255,639	-0,15
256,106	-0,17
256,573	-0,18
257,04	-0,18
257,507	-0,17
257,974	-0,18
258,441	-0,16
258,908	-0,16
259,375	-0,18
259,841	-0,18
260,308	-0,18
260,775	-0,18
261,242	-0,16
261,709	-0,17
262,175	-0,17
262,642	-0,17
263,109	-0,17
263,575	-0,19
264,042	-0,17
264,508	-0,17
264,975	-0,18
265,441	-0,19
265,908	-0,19
266,374	-0,18
266,841	-0,2
267,307	-0,2
267,773	-0,19
268,24	-0,19
268,706	-0,19
269,172	-0,21
269,639	-0,22
270,105	-0,19
270,571	-0,21
271,037	-0,21
271,503	-0,23
271,969	-0,22
272,435	-0,22
272,902	-0,24
273,368	-0,25
273,834	-0,24
274,3	-0,24
274,765	-0,25
275,231	-0,25
275,697	-0,24
276,163	-0,23
276,629	-0,23
277,095	-0,23
277,56	-0,22
278,026	-0,23
278,492	-0,21
278,958	-0,21
279,423	-0,21
279,889	-0,2
280,354	-0,19
280,82	-0,2
281,286	-0,21
281,751	-0,21
282,217	-0,2
282,682	-0,19
283,147	-0,19
283,613	-0,21
284,078	-0,21
284,544	-0,22
285,009	-0,23
285,474	-0,23
285,939	-0,24
286,405	-0,22
286,87	-0,22
287,335	-0,22
287,8	-0,22
288,265	-0,21
288,73	-0,23
289,195	-0,24
289,66	-0,23
290,125	-0,22
290,59	-0,22
291,055	-0,22
291,52	-0,22
291,985	-0,22
292,45	-0,23
292,915	-0,23
293,38	-0,23
293,844	-0,21
294,309	-0,19
294,774	-0,19
295,239	-0,2
295,703	-0,21
296,168	-0,19
296,632	-0,19
297,097	-0,17
297,562	-0,16
298,026	-0,16
298,491	-0,16
298,955	-0,16
299,419	-0,15
299,884	-0,15
300,348	-0,14
300,813	-0,14
301,277	-0,16
301,741	-0,16
302,205	-0,17
302,67	-0,16
303,134	-0,16
303,598	-0,16
304,062	-0,15
304,526	-0,15
304,99	-0,16
305,454	-0,16
305,919	-0,14
306,383	-0,14
306,847	-0,13
307,31	-0,13
307,774	-0,15
308,238	-0,14
308,702	-0,14
309,166	-0,16
309,63	-0,16
310,094	-0,14
310,557	-0,13
311,021	-0,13
311,485	-0,14
311,948	-0,13
312,412	-0,13
312,876	-0,12
313,339	-0,12
313,803	-0,13
314,266	-0,12
314,73	-0,12
315,193	-0,12
315,657	-0,11
316,12	-0,1
316,584	-0,08
317,047	-0,08
317,51	-0,07
317,973	-0,07
318,437	-0,06
318,9	-0,05
319,363	-0,04
319,826	-0,04
320,29	-0,05
320,753	-0,05
321,216	-0,04
321,679	-0,05
322,142	-0,04
322,605	-0,06
323,068	-0,06
323,531	-0,05
323,994	-0,05
324,457	-0,06
324,92	-0,05
325,382	-0,04
325,845	-0,03
326,308	-0,03
326,771	-0,03
327,233	-0,02
327,696	-0
328,159	0
328,622	0,01
329,084	0,01
329,547	0,02
330,009	0,03
330,472	0,03
330,934	0,04
331,397	0,04
331,859	0,04
332,322	0,05
332,784	0,04
333,246	0,05
333,709	0,06
334,171	0,07
334,633	0,06
335,096	0,06
335,558	0,07
336,02	0,07
336,482	0,07
336,944	0,08
337,406	0,07
337,868	0,07
338,331	0,08
338,793	0,08
339,255	0,09
339,717	0,1
340,178	0,1
340,64	0,11
341,102	0,12
341,564	0,13
342,026	0,14
342,488	0,15
342,949	0,17
343,411	0,2
343,873	0,22
344,335	0,25
344,796	0,29
345,258	0,33
345,719	0,37
346,181	0,42
346,643	0,46
347,104	0,48
347,566	0,52
348,027	0,54
348,488	0,56
348,95	0,58
349,411	0,6
349,873	0,62
350,334	0,63
350,795	0,65
351,256	0,66
351,718	0,66
352,179	0,67
352,64	0,67
353,101	0,68
353,562	0,68
354,023	0,68
354,484	0,68
354,945	0,69
355,406	0,69
355,867	0,69
356,328	0,69
356,789	0,69
357,25	0,7
357,711	0,7
358,172	0,7
358,633	0,7
359,093	0,7
359,554	0,7
360,015	0,71
360,476	0,71
360,936	0,71
361,397	0,71
361,858	0,71
362,318	0,71
362,779	0,71
363,239	0,71
363,7	0,71
364,16	0,71
364,621	0,71
365,081	0,71
365,541	0,71
366,002	0,71
366,462	0,71
366,922	0,71
367,383	0,71
367,843	0,71
368,303	0,71
368,763	0,71
369,223	0,71
369,684	0,71
370,144	0,71
370,604	0,71
371,064	0,71
371,524	0,71
371,984	0,71
372,444	0,71
372,904	0,71
373,363	0,71
373,823	0,71
374,283	0,71
374,743	0,71
375,203	0,71
375,663	0,71
376,122	0,71
376,582	0,71
377,042	0,71
377,501	0,71
377,961	0,71
378,42	0,71
378,88	0,71
379,34	0,71
379,799	0,71
380,259	0,7
380,718	0,7
381,177	0,7
381,637	0,7
382,096	0,7
382,555	0,7
383,015	0,7
383,474	0,7
383,933	0,7
384,393	0,7
384,852	0,7
385,311	0,7
385,77	0,7
386,229	0,7
386,688	0,7
387,147	0,7
387,606	0,7
388,065	0,7
388,524	0,7
388,983	0,7
389,442	0,7
389,901	0,7
390,36	0,7
390,819	0,7
391,277	0,7
391,736	0,7
392,195	0,7
392,654	0,7
393,112	0,7
393,571	0,69
394,03	0,69
394,488	0,69
394,947	0,69
395,405	0,69
395,864	0,69
396,322	0,69
396,781	0,69
397,239	0,69
397,698	0,69
398,156	0,69
398,614	0,69
399,073	0,69
399,531	0,69
399,989	0,69
400,447	0,69
400,905	0,69
401,364	0,69
401,822	0,69
402,28	0,69
402,738	0,69
403,196	0,69
403,654	0,69
404,112	0,69
404,57	0,69
405,028	0,69
405,486	0,69
405,944	0,69
406,402	0,69
406,859	0,69
407,317	0,69
407,775	0,69
408,233	0,69
408,691	0,69
409,148	0,69
409,606	0,69
410,064	0,69
410,521	0,69
410,979	0,69
411,436	0,69
411,894	0,68
412,351	0,68
412,809	0,68
413,266	0,68
413,724	0,68
414,181	0,68
414,638	0,68
415,096	0,68
415,553	0,68
416,01	0,68
416,467	0,68
416,925	0,68
417,382	0,68
417,839	0,68
418,296	0,68
418,753	0,68
419,21	0,68
419,667	0,68
420,124	0,68
420,581	0,68
421,038	0,68
421,495	0,68
421,952	0,68
422,409	0,68
422,866	0,68
423,322	0,68
423,779	0,68
424,236	0,68
424,693	0,68
425,149	0,68
425,606	0,68
426,063	0,68
426,519	0,68
426,976	0,68
427,433	0,68
427,889	0,68
428,346	0,68
428,802	0,68
429,258	0,68
429,715	0,68
430,171	0,68
430,628	0,68
431,084	0,68
431,54	0,68
431,997	0,68
432,453	0,68
432,909	0,68
433,365	0,68
433,821	0,68
434,277	0,68
434,734	0,68
435,19	0,68
435,646	0,68
436,102	0,68
436,558	0,68
437,014	0,68
437,47	0,68
437,925	0,68
438,381	0,68
438,837	0,68
439,293	0,68
439,749	0,68
440,205	0,68
440,66	0,68
441,116	0,68
441,572	0,68
442,027	0,68
442,483	0,68
442,939	0,68
443,394	0,68
443,85	0,68
444,305	0,68
444,761	0,68
445,216	0,68
445,672	0,68
446,127	0,68
446,582	0,68
447,038	0,68
447,493	0,68
447,948	0,68
448,403	0,68
448,859	0,68
449,314	0,68
449,769	0,68
450,224	0,68
450,679	0,68
451,134	0,68
451,589	0,68
452,044	0,68
452,499	0,68
452,954	0,68
453,409	0,68
453,864	0,68
454,319	0,68
454,774	0,68
455,229	0,68
455,684	0,68
456,138	0,68
456,593	0,68
457,048	0,68
457,503	0,68
457,957	0,68
458,412	0,68
458,866	0,68
459,321	0,68
459,776	0,69
460,23	0,69
460,685	0,69
461,139	0,69
461,593	0,69
462,048	0,69
462,502	0,69
462,957	0,69
463,411	0,69
463,865	0,69
464,319	0,69
464,774	0,69
465,228	0,7
465,682	0,7
466,136	0,7
466,59	0,7
467,044	0,7
467,499	0,7
467,953	0,7
468,407	0,7
468,861	0,7
469,315	0,7
469,768	0,7
470,222	0,7
470,676	0,7
471,13	0,7
471,584	0,71
472,038	0,71
472,491	0,71
472,945	0,71
473,399	0,71
473,852	0,71
474,306	0,71
474,76	0,71
475,213	0,71
475,667	0,71
476,12	0,71
476,574	0,72
477,027	0,72
477,481	0,72
477,934	0,72
478,388	0,72
478,841	0,72
479,294	0,73
479,748	0,73
480,201	0,73
480,654	0,73
481,107	0,73
481,561	0,73
482,014	0,74
482,467	0,74
482,92	0,74
483,373	0,74
483,826	0,74
484,279	0,74
484,732	0,74
485,185	0,75
485,638	0,75
486,091	0,75
486,544	0,75
486,997	0,75
487,449	0,76
487,902	0,76
488,355	0,76
488,808	0,76
489,26	0,77
489,713	0,77
490,166	0,77
490,618	0,77
491,071	0,77
491,523	0,78
491,976	0,78
492,429	0,78
492,881	0,78
493,333	0,79
493,786	0,79
494,238	0,79
494,691	0,8
495,143	0,8
495,595	0,8
496,048	0,81
496,5	0,81
496,952	0,81
497,404	0,82
497,856	0,82
498,309	0,82
498,761	0,83
499,213	0,83
499,665	0,83
500,117	0,84
500,569	0,84
501,021	0,84
501,473	0,85
501,925	0,85
502,377	0,86
502,828	0,86
503,28	0,86
503,732	0,87
504,184	0,87
504,636	0,87
505,087	0,88
505,539	0,88
505,991	0,88
506,442	0,89
506,894	0,89
507,345	0,9
507,797	0,9
508,249	0,9
508,7	0,91
509,151	0,91
509,603	0,91
510,054	0,92
510,506	0,92
510,957	0,92
511,408	0,93
511,86	0,93
512,311	0,93
512,762	0,94
513,213	0,94
513,665	0,94
514,116	0,95
514,567	0,95
515,018	0,95
515,469	0,96
515,92	0,96
516,371	0,96
516,822	0,97
517,273	0,97
517,724	0,97
518,175	0,97
518,626	0,98
519,076	0,98
519,527	0,98
519,978	0,98
520,429	0,98
520,88	0,99
521,33	0,99
521,781	0,99
522,232	0,99
522,682	0,99
523,133	1
523,583	1
524,034	1
524,484	1
524,935	1
525,385	1
525,836	1
526,286	1
526,736	1
527,187	1
527,637	1
528,087	1
528,538	1
528,988	1
529,438	1
529,888	1
530,338	1
530,788	0,99
531,238	0,99
531,688	0,99
532,139	0,99
532,589	0,99
533,038	0,99
533,488	0,99
533,938	0,98
534,388	0,98
534,838	0,98
535,288	0,98
535,738	0,97
536,187	0,97
536,637	0,97
537,087	0,96
537,537	0,96
537,986	0,96
538,436	0,95
538,885	0,95
539,335	0,94
539,785	0,94
540,234	0,94
540,684	0,93
541,133	0,93
541,582	0,92
542,032	0,92
542,481	0,92
542,931	0,91
543,38	0,91
543,829	0,9
544,278	0,9
544,728	0,89
545,177	0,89
545,626	0,89
546,075	0,88
546,524	0,88
546,973	0,88
547,422	0,87
547,871	0,87
548,32	0,87
548,769	0,86
549,218	0,86
549,667	0,86
550,116	0,85
550,565	0,85
551,014	0,84
551,463	0,84
551,911	0,84
552,36	0,83
552,809	0,83
553,258	0,82
553,706	0,82
554,155	0,81
554,603	0,81
555,052	0,81
555,501	0,8
555,949	0,8
556,398	0,79
556,846	0,79
557,294	0,79
557,743	0,78
558,191	0,78
558,64	0,77
559,088	0,77
559,536	0,76
559,985	0,76
560,433	0,75
560,881	0,75
561,329	0,75
561,777	0,74
562,225	0,74
562,674	0,74
563,122	0,73
563,57	0,73
564,018	0,73
564,466	0,72
564,914	0,72
565,362	0,71
565,809	0,71
566,257	0,71
566,705	0,7
567,153	0,7
567,601	0,7
568,048	0,69
568,496	0,69
568,944	0,69
569,392	0,68
569,839	0,68
570,287	0,68
570,734	0,67
571,182	0,67
571,63	0,67
572,077	0,66
572,525	0,66
572,972	0,66
573,419	0,65
573,867	0,65
574,314	0,65
574,761	0,64
575,209	0,64
575,656	0,64
576,103	0,63
576,551	0,63
576,998	0,63
577,445	0,63
577,892	0,62
578,339	0,62
578,786	0,62
579,233	0,62
579,68	0,61
580,127	0,61
580,574	0,61
581,021	0,6
581,468	0,6
581,915	0,6
582,362	0,6
582,809	0,6
583,255	0,59
583,702	0,59
584,149	0,59
584,596	0,59
585,042	0,59
585,489	0,58
585,936	0,58
586,382	0,58
586,829	0,58
587,275	0,58
587,722	0,57
588,168	0,57
588,615	0,57
589,061	0,57
589,508	0,57
589,954	0,56
590,4	0,56
590,847	0,56
591,293	0,56
591,739	0,56
592,185	0,56
592,632	0,55
593,078	0,55
593,524	0,55
593,97	0,55
594,416	0,55
594,862	0,55
595,308	0,55
595,754	0,55
596,2	0,54
596,646	0,54
597,092	0,54
597,538	0,54
597,984	0,54
598,43	0,54
598,876	0,54
599,321	0,53
599,767	0,53
600,213	0,53
600,659	0,53
601,104	0,53
601,55	0,53
601,995	0,53
602,441	0,52
602,887	0,52
603,332	0,52
603,778	0,52
604,223	0,52
604,668	0,52
605,114	0,52
605,559	0,52
606,005	0,52
606,45	0,52
606,895	0,51
607,341	0,51
607,786	0,51
608,231	0,51
608,676	0,51
609,121	0,5
609,566	0,5
610,012	0,49
610,457	0,49
610,902	0,49
611,347	0,48
611,792	0,48
612,237	0,48
612,682	0,48
613,127	0,48
613,571	0,48
614,016	0,48
614,461	0,48
614,906	0,49
615,351	0,49
615,795	0,49
616,24	0,49
616,685	0,49
617,129	0,49
617,574	0,49
618,019	0,49
618,463	0,49
618,908	0,49
619,352	0,49
619,797	0,49
620,241	0,49
620,686	0,48
621,13	0,48
621,574	0,48
622,019	0,48
622,463	0,48
622,907	0,48
623,352	0,48
623,796	0,48
624,24	0,48
624,684	0,48
625,128	0,48
625,572	0,48
626,016	0,48
626,461	0,48
626,905	0,48
627,349	0,48
627,793	0,48
628,236	0,48
628,68	0,47
629,124	0,47
629,568	0,47
630,012	0,47
630,456	0,47
630,9	0,47
631,343	0,47
631,787	0,47
632,231	0,47
632,674	0,47
633,118	0,47
633,562	0,47
634,005	0,47
634,449	0,47
634,892	0,47
635,336	0,47
635,779	0,47
636,223	0,47
636,666	0,47
637,109	0,47
637,553	0,47
637,996	0,47
638,439	0,47
638,883	0,47
639,326	0,47
639,769	0,47
640,212	0,47
640,655	0,46
641,099	0,46
641,542	0,46
641,985	0,46
642,428	0,46
642,871	0,46
643,314	0,46
643,757	0,46
644,2	0,46
644,643	0,46
645,085	0,46
645,528	0,46
645,971	0,46
646,414	0,46
646,857	0,46
647,299	0,45
647,742	0,45
648,185	0,45
648,627	0,45
649,07	0,45
649,513	0,45
649,955	0,45
650,398	0,45
650,84	0,45
651,283	0,45
651,725	0,45
652,168	0,46
652,61	0,46
653,052	0,46
653,495	0,46
653,937	0,37
654,379	0,31
654,821	0,32
655,264	0,32
655,706	0,32
656,148	0,32
656,59	0,32
657,032	0,32
657,474	0,32
657,916	0,32
658,358	0,31
658,8	0,37
659,242	0,45
659,684	0,45
660,126	0,45
660,568	0,45
661,01	0,45
661,452	0,45
661,894	0,45
662,335	0,45
662,777	0,45
663,219	0,45
663,661	0,45
664,102	0,44
664,544	0,44
664,985	0,44
665,427	0,44
665,869	0,44
666,31	0,44
666,752	0,44
667,193	0,44
667,634	0,45
668,076	0,45
668,517	0,45
668,959	0,45
669,4	0,45
669,841	0,45
670,282	0,45
670,724	0,45
671,165	0,45
671,606	0,45
672,047	0,45
672,488	0,45
672,929	0,45
673,37	0,44
673,811	0,44
674,252	0,44
674,693	0,44
675,134	0,44
675,575	0,44
676,016	0,44
676,457	0,44
676,898	0,44
677,339	0,44
677,78	0,43
678,22	0,43
678,661	0,43
679,102	0,43
679,542	0,43
679,983	0,43
680,424	0,44
680,864	0,44
681,305	0,44
681,745	0,44
682,186	0,44
682,626	0,44
683,067	0,44
683,507	0,44
683,948	0,44
684,388	0,44
684,828	0,44
685,269	0,44
685,709	0,44
686,149	0,43
686,589	0,43
687,029	0,43
687,47	0,43
687,91	0,43
688,35	0,43
688,79	0,43
689,23	0,43
689,67	0,43
690,11	0,43
690,55	0,43
690,99	0,43
691,43	0,43
691,87	0,43
692,31	0,43
692,749	0,42
693,189	0,42
693,629	0,42
694,069	0,42
694,508	0,42
694,948	0,42
695,388	0,42
695,827	0,42
696,267	0,42
696,706	0,42
697,146	0,42
697,586	0,42
698,025	0,43
698,464	0,43
698,904	0,43
699,343	0,43
699,783	0,43
700,222	0,43
700,661	0,43
701,101	0,43
701,54	0,43
701,979	0,43
702,418	0,43
702,857	0,43
703,297	0,43
703,736	0,43
704,175	0,43
704,614	0,43
705,053	0,43
705,492	0,43
705,931	0,43
706,37	0,43
706,809	0,42
707,248	0,42
707,687	0,42
708,125	0,42
708,564	0,42
709,003	0,42
709,442	0,42
709,88	0,42
710,319	0,42
710,758	0,42
711,196	0,42
711,635	0,42
712,074	0,42
712,512	0,42
712,951	0,42
713,389	0,41
713,828	0,41
714,266	0,41
714,705	0,41
715,143	0,41
715,581	0,41
716,02	0,41
716,458	0,41
716,896	0,41
717,334	0,41
717,773	0,41
718,211	0,41
718,649	0,41
719,087	0,41
719,525	0,41
719,963	0,41
720,401	0,42
720,839	0,42
721,277	0,42
721,715	0,42
722,153	0,42
722,591	0,42
723,029	0,41
723,467	0,41
723,905	0,41
724,342	0,41
724,78	0,41
725,218	0,41
725,656	0,41
726,093	0,41
726,531	0,41
726,969	0,41
727,406	0,41
727,844	0,41
728,281	0,41
728,719	0,41
729,156	0,41
729,594	0,41
730,031	0,41
730,469	0,41
730,906	0,41
731,343	0,41
731,781	0,41
732,218	0,41
732,655	0,41
733,092	0,41
733,53	0,41
733,967	0,41
734,404	0,4
734,841	0,4
735,278	0,4
735,715	0,4
736,152	0,4
736,589	0,4
737,026	0,4
737,463	0,4
737,9	0,4
738,337	0,4
738,774	0,4
739,211	0,4
739,647	0,4
740,084	0,4
740,521	0,4
740,958	0,4
741,394	0,4
741,831	0,4
742,268	0,4
742,704	0,4
743,141	0,4
743,577	0,4
744,014	0,4
744,45	0,4
744,887	0,4
745,323	0,39
745,76	0,39
746,196	0,39
746,632	0,39
747,069	0,39
747,505	0,39
747,941	0,39
748,378	0,39
748,814	0,39
749,25	0,39
749,686	0,39
750,122	0,39
750,558	0,39
750,994	0,4
751,43	0,4
751,866	0,4
752,302	0,4
752,738	0,4
753,174	0,4
753,61	0,4
754,046	0,4
754,482	0,4
754,918	0,4
755,354	0,4
755,789	0,4
756,225	0,4
756,661	0,4
757,096	0,4
757,532	0,4
757,968	0,39
758,403	0,39
758,839	0,39
759,274	0,39
759,71	0,38
760,145	0,38
760,581	0,37
761,016	0,37
761,452	0,36
761,887	0,36
762,322	0,35
762,758	0,35
763,193	0,34
763,628	0,34
764,063	0,33
764,499	0,33
764,934	0,32
765,369	0,31
765,804	0,31
766,239	0,31
766,674	0,3
767,109	0,29
767,544	0,29
767,979	0,28
768,414	0,27
768,849	0,26
769,284	0,25
769,719	0,24
770,154	0,23
770,588	0,23
771,023	0,22
771,458	0,2
771,893	0,19
772,327	0,18
772,762	0,17
773,197	0,17
773,631	0,16
774,066	0,15
774,5	0,14
774,935	0,13
775,369	0,11
775,804	0,1
776,238	0,09
776,673	0,07
777,107	0,07
777,541	0,06
777,976	0,05
778,41	0,04
778,844	0,03
779,279	0,03
779,713	0,02
780,147	0,01
780,581	0,01
781,015	0
781,449	-0,01
781,883	-0,01
782,317	-0,03
782,751	-0,04
783,185	-0,04
783,619	-0,05
784,053	-0,06
784,487	-0,07
784,921	-0,07
785,355	-0,08
785,789	-0,09
786,223	-0,1
786,656	-0,12
787,09	-0,13
787,524	-0,13
787,957	-0,14
788,391	-0,16
788,825	-0,17
789,258	-0,19
789,692	-0,2
790,125	-0,22
790,559	-0,24
790,992	-0,26
791,426	-0,28
791,859	-0,3
792,293	-0,33
792,726	-0,35
793,159	-0,37
793,593	-0,39
794,026	-0,42
794,459	-0,44
794,892	-0,47
795,326	-0,49
795,759	-0,53
796,192	-0,57
796,625	-0,61
797,058	-0,64
797,491	-0,68
797,924	-0,72
798,357	-0,77
798,79	-0,81
799,223	-0,85
799,656	-0,9
800,089	-0,95
800,522	-0,99
800,955	-1,03
801,387	-1,09
801,82	-1,14
802,253	-1,21
802,686	-1,29
803,118	-1,34
803,551	-1,39
803,984	-1,44
804,416	-1,48
804,849	-1,51
805,281	-1,62
805,714	-1,96
806,146	-2,43
806,579	-2,7
807,011	-2,86
807,444	-2,96
807,876	-3,05
808,308	-3,08
808,741	-3,11
809,173	-3,16
809,605	-3,19
810,037	-3,26
810,47	-3,19
810,902	-2,99
811,334	-2,84
811,766	-2,69
812,198	-2,46
812,63	-2,02
813,062	-1,8
813,494	-1,7
813,926	-1,61
814,358	-1,56
814,79	-1,48
815,222	-1,42
815,654	-1,37
816,086	-1,3
816,518	-1,25
816,949	-1,2
817,381	-1,15
817,813	-1,14
818,245	-1,09
818,676	-1,05
819,108	-1,02
819,54	-1
819,971	-0,98
820,403	-0,93
820,834	-0,91
821,266	-0,87
821,697	-0,85
822,129	-0,83
822,56	-0,81
822,991	-0,78
823,423	-0,76
823,854	-0,76
824,286	-0,73
824,717	-0,72
825,148	-0,7
825,579	-0,69
826,01	-0,67
826,442	-0,67
826,873	-0,64
827,304	-0,61
827,735	-0,6
828,166	-0,6
828,597	-0,6
829,028	-0,59
829,459	-0,6
829,89	-0,6
830,321	-0,55
830,752	-0,57
831,183	-0,56
831,613	-0,55
832,044	-0,55
832,475	-0,55
832,906	-0,57
833,336	-0,57
833,767	-0,57
834,198	-0,56
834,628	-0,55
835,059	-0,58
835,49	-0,59
835,92	-0,55
836,351	-0,55
836,781	-0,56
837,212	-0,56
837,642	-0,55
838,072	-0,54
838,503	-0,56
838,933	-0,53
839,364	-0,53
839,794	-0,51
840,224	-0,5
840,654	-0,55
841,085	-0,55
841,515	-0,53
841,945	-0,54
842,375	-0,49
842,805	-0,47
843,235	-0,46
843,665	-0,47
844,095	-0,47
844,525	-0,48
844,955	-0,49
845,385	-0,46
845,815	-0,45
846,245	-0,47
846,675	-0,47
847,105	-0,5
847,534	-0,5
847,964	-0,48
848,394	-0,47
848,824	-0,5
849,253	-0,49
849,683	-0,49
850,112	-0,5
850,542	-0,52
850,972	-0,52
851,401	-0,5
851,831	-0,49
852,26	-0,5
852,69	-0,53
853,119	-0,52
853,548	-0,51
853,978	-0,52
854,407	-0,5
854,836	-0,5
855,266	-0,49
855,695	-0,5
856,124	-0,52
856,553	-0,53
856,983	-0,55
857,412	-0,54
857,841	-0,56
858,27	-0,56
858,699	-0,57
859,128	-0,61
859,557	-0,62
859,986	-0,64
860,415	-0,62
860,844	-0,6
861,273	-0,6
861,702	-0,6
862,13	-0,58
862,559	-0,6
862,988	-0,58
863,417	-0,56
863,845	-0,54
864,274	-0,55
864,703	-0,54
865,131	-0,55
865,56	-0,56
865,989	-0,57
866,417	-0,54
866,846	-0,55
867,274	-0,54
867,703	-0,56
868,131	-0,58
868,559	-0,59
868,988	-0,61
869,416	-0,6
869,844	-0,61
870,273	-0,63
870,701	-0,62
871,129	-0,65
871,557	-0,68
871,986	-0,68
872,414	-0,7
872,842	-0,67
873,27	-0,64
873,698	-0,61
874,126	-0,65
874,554	-0,62
874,982	-0,62
875,41	-0,65
875,838	-0,6
876,266	-0,58
876,694	-0,58
877,122	-0,56
877,549	-0,61
877,977	-0,59
878,405	-0,62
878,833	-0,58
879,26	-0,58
879,688	-0,58
880,116	-0,56
880,543	-0,54
880,971	-0,54
881,399	-0,56
881,826	-0,58
882,254	-0,55
882,681	-0,58
883,109	-0,54
883,536	-0,55
883,963	-0,57
884,391	-0,55
884,818	-0,53
885,245	-0,57
885,673	-0,58
886,1	-0,55
886,527	-0,55
886,954	-0,53
887,381	-0,55
887,809	-0,56
888,236	-0,57
888,663	-0,57
889,09	-0,62
889,517	-0,64
889,944	-0,63
890,371	-0,62
890,798	-0,62
891,225	-0,62
891,652	-0,64
892,078	-0,61
892,505	-0,65
892,932	-0,61
893,359	-0,62
893,786	-0,61
894,212	-0,59
894,639	-0,61
895,066	-0,63
895,492	-0,57
895,919	-0,58
896,346	-0,58
896,772	-0,58
897,199	-0,55
897,625	-0,58
898,052	-0,54
898,478	-0,52
898,904	-0,53
899,331	-0,52
899,757	-0,54
900,183	-0,56
900,61	-0,54
901,036	-0,54
901,462	-0,54
901,888	-0,53
902,315	-0,52
902,741	-0,57
903,167	-0,55
903,593	-0,58
904,019	-0,57
904,445	-0,54
904,871	-0,56
905,297	-0,59
905,723	-0,59
906,149	-0,58
906,575	-0,58
907,001	-0,58
907,427	-0,55
907,852	-0,55
908,278	-0,55
908,704	-0,53
909,13	-0,52
909,555	-0,52
909,981	-0,51
910,407	-0,52
910,832	-0,51
911,258	-0,51
911,684	-0,52
912,109	-0,52
912,535	-0,54
912,96	-0,5
913,386	-0,54
913,811	-0,53
914,236	-0,55
914,662	-0,53
915,087	-0,56
915,512	-0,56
915,938	-0,58
916,363	-0,57
916,788	-0,59
917,213	-0,56
917,639	-0,61
918,064	-0,59
918,489	-0,59
918,914	-0,6
919,339	-0,61
919,764	-0,58
920,189	-0,58
920,614	-0,6
921,039	-0,6
921,464	-0,56
921,889	-0,59
922,314	-0,61
922,738	-0,63
923,163	-0,65
923,588	-0,65
924,013	-0,65
924,437	-0,64
924,862	-0,66
925,287	-0,62
925,711	-0,63
926,136	-0,64
926,561	-0,63
926,985	-0,62
927,41	-0,59
927,834	-0,57
928,259	-0,53
928,683	-0,51
929,108	-0,5
929,532	-0,5
929,956	-0,49
930,381	-0,48
930,805	-0,48
931,229	-0,47
931,653	-0,46
932,078	-0,45
932,502	-0,46
932,926	-0,47
933,35	-0,47
933,774	-0,46
934,198	-0,45
934,622	-0,44
935,046	-0,44
935,47	-0,44
935,894	-0,44
936,318	-0,43
936,742	-0,43
937,166	-0,44
937,59	-0,43
938,014	-0,45
938,437	-0,46
938,861	-0,48
939,285	-0,5
939,709	-0,5
940,132	-0,5
940,556	-0,51
940,98	-0,51
941,403	-0,49
941,827	-0,49
942,25	-0,51
942,674	-0,5
943,097	-0,49
943,521	-0,48
943,944	-0,5
944,368	-0,49
944,791	-0,47
945,214	-0,49
945,638	-0,49
946,061	-0,53
946,484	-0,53
946,907	-0,51
947,331	-0,51
947,754	-0,55
948,177	-0,53
948,6	-0,52
949,023	-0,52
949,446	-0,52
949,869	-0,5
950,292	-0,5
950,715	-0,47
951,138	-0,45
951,561	-0,43
951,984	-0,43
952,407	-0,41
952,83	-0,4
953,252	-0,36
953,675	-0,36
954,098	-0,37
954,521	-0,35
954,943	-0,34
955,366	-0,36
955,789	-0,34
956,211	-0,35
956,634	-0,36
957,056	-0,33
957,479	-0,35
957,902	-0,37
958,324	-0,37
958,746	-0,35
959,169	-0,36
959,591	-0,36
960,014	-0,37
960,436	-0,36
960,858	-0,36
961,281	-0,37
961,703	-0,38
962,125	-0,38
962,547	-0,36
962,969	-0,37
963,391	-0,38
963,814	-0,39
964,236	-0,38
964,658	-0,36
965,08	-0,38
965,502	-0,37
965,924	-0,34
966,346	-0,34
966,768	-0,32
967,189	-0,34
967,611	-0,33
968,033	-0,33
968,455	-0,3
968,877	-0,32
969,298	-0,33
969,72	-0,33
970,142	-0,32
970,563	-0,33
970,985	-0,32
971,407	-0,31
971,828	-0,29
972,25	-0,28
972,671	-0,27
973,093	-0,27
973,514	-0,25
973,936	-0,22
974,357	-0,22
974,778	-0,22
975,2	-0,21
975,621	-0,21
976,042	-0,2
976,464	-0,19
976,885	-0,18
977,306	-0,18
977,727	-0,17
978,148	-0,17
978,57	-0,15
978,991	-0,13
979,412	-0,12
979,833	-0,11
980,254	-0,1
980,675	-0,1
981,096	-0,09
981,517	-0,07
981,937	-0,07
982,358	-0,05
982,779	-0,03
983,2	-0,02
983,621	-0,02
984,042	-0,01
984,462	0,01
984,883	0,02
985,304	0,03
985,724	0,05
986,145	0,05
986,565	0,07
986,986	0,07
987,407	0,08
987,827	0,09
988,248	0,11
988,668	0,12
989,088	0,13
989,509	0,14
989,929	0,15
990,35	0,16
990,77	0,18
991,19	0,19
991,61	0,21
992,031	0,22
992,451	0,22
992,871	0,23
993,291	0,24
993,711	0,24
994,131	0,25
994,551	0,26
994,971	0,26
995,391	0,27
995,811	0,27
996,231	0,28
996,651	0,28
997,071	0,29
997,491	0,29
997,911	0,3
998,331	0,31
998,75	0,31
999,17	0,32
999,59	0,33
1000,009	0,33
1000,429	0,34
1000,849	0,34
1001,268	0,35
1001,688	0,35
1002,107	0,36
1002,527	0,36
1002,946	0,36
1003,366	0,37
1003,785	0,37
1004,205	0,37
1004,624	0,38
1005,044	0,38
1005,463	0,38
1005,882	0,38
1006,301	0,38
1006,721	0,38
1007,14	0,38
1007,559	0,38
1007,978	0,39
1008,397	0,39
1008,816	0,39
1009,235	0,39
1009,655	0,39
1010,074	0,39
1010,492	0,39
1010,911	0,38
1011,33	0,38
1011,749	0,38
1012,168	0,38
1012,587	0,38
1013,006	0,38
1013,425	0,38
1013,843	0,38
1014,262	0,38
1014,681	0,38
1015,099	0,38
1015,518	0,37
1015,937	0,37
1016,355	0,37
1016,774	0,37
1017,192	0,37
1017,611	0,37
1018,029	0,37
1018,448	0,37
1018,866	0,37
1019,285	0,37
1019,703	0,37
1020,121	0,37
1020,54	0,37
1020,958	0,37
1021,376	0,37
1021,794	0,37
1022,213	0,37
1022,631	0,37
1023,049	0,37
1023,467	0,37
1023,885	0,37
1024,303	0,37
1024,721	0,37
1025,139	0,37
1025,557	0,37
1025,975	0,37
1026,393	0,36
1026,811	0,36
1027,229	0,36
1027,647	0,36
1028,065	0,36
1028,482	0,36
1028,9	0,36
1029,318	0,36
1029,735	0,36
1030,153	0,36
1030,571	0,36
1030,988	0,36
1031,406	0,36
1031,823	0,36
1032,241	0,36
1032,659	0,36
1033,076	0,36
1033,493	0,36
1033,911	0,36
1034,328	0,36
1034,746	0,36
1035,163	0,36
1035,58	0,36
1035,997	0,36
1036,415	0,36
1036,832	0,36
1037,249	0,36
1037,666	0,36
1038,083	0,36
1038,501	0,36
1038,918	0,36
1039,335	0,36
1039,752	0,36
1040,169	0,36
1040,586	0,36
1041,003	0,36
1041,419	0,36
1041,836	0,36
1042,253	0,36
1042,67	0,36
1043,087	0,36
1043,504	0,36
1043,92	0,36
1044,337	0,36
1044,754	0,36
1045,17	0,36
1045,587	0,36
1046,004	0,36
1046,42	0,36
1046,837	0,36
1047,253	0,36
1047,67	0,36
1048,086	0,36
1048,503	0,36
1048,919	0,36
1049,335	0,36
1049,752	0,36
1050,168	0,36
1050,584	0,36
1051,001	0,36
1051,417	0,36
1051,833	0,36
1052,249	0,36
1052,665	0,36
1053,081	0,36
1053,497	0,36
1053,914	0,36
1054,33	0,37
1054,746	0,37
1055,162	0,37
1055,578	0,37
1055,993	0,37
1056,409	0,37
1056,825	0,37
1057,241	0,37
1057,657	0,37
1058,073	0,37
1058,488	0,37
1058,904	0,37
1059,32	0,37
1059,736	0,37
1060,151	0,37
1060,567	0,37
1060,982	0,37
1061,398	0,37
1061,813	0,37
1062,229	0,37
1062,644	0,37
1063,06	0,37
1063,475	0,37
1063,891	0,37
1064,306	0,36
1064,721	0,36
1065,137	0,36
1065,552	0,36
1065,967	0,36
1066,382	0,36
1066,798	0,36
1067,213	0,36
1067,628	0,36
1068,043	0,36
1068,458	0,37
1068,873	0,37
1069,288	0,37
1069,703	0,37
1070,118	0,37
1070,533	0,37
1070,948	0,37
1071,363	0,37
1071,778	0,37
1072,193	0,36
1072,607	0,36
1073,022	0,36
1073,437	0,36
1073,852	0,36
1074,266	0,36
1074,681	0,36
1075,096	0,36
1075,51	0,36
1075,925	0,36
1076,339	0,36
1076,754	0,36
1077,168	0,36
1077,583	0,36
1077,997	0,36
1078,412	0,36
1078,826	0,36
1079,24	0,36
1079,655	0,36
1080,069	0,36
1080,483	0,36
1080,897	0,36
1081,312	0,36
1081,726	0,36
1082,14	0,36
1082,554	0,36
1082,968	0,36
1083,382	0,36
1083,796	0,35
1084,21	0,35
1084,624	0,35
1085,038	0,35
1085,452	0,35
1085,866	0,35
1086,28	0,35
1086,694	0,35
1087,108	0,35
1087,521	0,34
1087,935	0,34
1088,349	0,34
1088,763	0,34
1089,176	0,34
1089,59	0,33
1090,004	0,33
1090,417	0,32
1090,831	0,32
1091,244	0,32
1091,658	0,32
1092,071	0,31
1092,485	0,31
1092,898	0,31
1093,312	0,31
1093,725	0,3
1094,138	0,3
1094,552	0,3
1094,965	0,3
1095,378	0,3
1095,791	0,29
1096,205	0,29
1096,618	0,29
1097,031	0,29
1097,444	0,29
1097,857	0,28
1098,27	0,28
1098,683	0,28
1099,096	0,27
1099,509	0,27
1099,922	0,27
1100,335	0,26
1100,748	0,26
1101,161	0,25
1101,574	0,25
1101,986	0,25
1102,399	0,24
1102,812	0,24
1103,225	0,24
1103,637	0,23
1104,05	0,23
1104,463	0,23
1104,875	0,23
1105,288	0,22
1105,7	0,22
1106,113	0,21
1106,525	0,21
1106,938	0,2
1107,35	0,2
1107,763	0,2
1108,175	0,2
1108,588	0,19
1109	0,19
1109,412	0,18
1109,824	0,18
1110,237	0,18
1110,649	0,17
1111,061	0,15
