Data from 18C-808nm-8A-cont_Absorbance__579__02008.txt Node

Date: Mon Jul 17 17:40:43 CEST 2023
User: Laser008
Spectrometer: MAYP115816
Trigger mode: 0
Integration Time (sec): 2,500000E-1
Scans to average: 10
Electric dark correction enabled: true
Nonlinearity correction enabled: true
Boxcar width: 5
XAxis mode: Wavelengths
Number of Pixels in Spectrum: 2068
>>>>>Begin Spectral Data<<<<<
198,914	-0,65
199,384	-0,46
199,855	-0,34
200,325	-0,26
200,796	-0,24
201,266	-0,2
201,737	-0,18
202,207	-0,17
202,677	-0,16
203,147	-0,15
203,618	-0,12
204,088	-0,1
204,558	-0,09
205,028	-0,07
205,498	-0,08
205,968	-0,08
206,439	-0,09
206,909	-0,08
207,379	-0,09
207,849	-0,1
208,319	-0,11
208,789	-0,12
209,258	-0,12
209,728	-0,14
210,198	-0,15
210,668	-0,15
211,138	-0,14
211,608	-0,14
212,077	-0,14
212,547	-0,14
213,017	-0,14
213,486	-0,14
213,956	-0,14
214,426	-0,14
214,895	-0,13
215,365	-0,14
215,834	-0,15
216,304	-0,16
216,773	-0,16
217,243	-0,18
217,712	-0,19
218,181	-0,19
218,651	-0,19
219,12	-0,19
219,589	-0,19
220,058	-0,19
220,528	-0,19
220,997	-0,2
221,466	-0,21
221,935	-0,21
222,404	-0,2
222,873	-0,19
223,342	-0,19
223,812	-0,19
224,281	-0,19
224,749	-0,19
225,218	-0,21
225,687	-0,21
226,156	-0,2
226,625	-0,18
227,094	-0,18
227,563	-0,18
228,031	-0,2
228,5	-0,2
228,969	-0,21
229,438	-0,2
229,906	-0,19
230,375	-0,18
230,844	-0,18
231,312	-0,18
231,781	-0,19
232,249	-0,19
232,718	-0,19
233,186	-0,16
233,655	-0,16
234,123	-0,16
234,591	-0,15
235,06	-0,15
235,528	-0,16
235,996	-0,15
236,465	-0,14
236,933	-0,14
237,401	-0,14
237,869	-0,14
238,337	-0,14
238,805	-0,14
239,274	-0,13
239,742	-0,13
240,21	-0,13
240,678	-0,12
241,146	-0,12
241,614	-0,12
242,081	-0,12
242,549	-0,12
243,017	-0,11
243,485	-0,11
243,953	-0,11
244,421	-0,11
244,888	-0,11
245,356	-0,11
245,824	-0,1
246,291	-0,11
246,759	-0,12
247,227	-0,12
247,694	-0,11
248,162	-0,1
248,629	-0,09
249,097	-0,1
249,564	-0,11
250,032	-0,12
250,499	-0,12
250,967	-0,13
251,434	-0,13
251,901	-0,13
252,369	-0,14
252,836	-0,14
253,303	-0,17
253,77	-0,18
254,237	-0,17
254,705	-0,17
255,172	-0,16
255,639	-0,16
256,106	-0,18
256,573	-0,18
257,04	-0,19
257,507	-0,19
257,974	-0,19
258,441	-0,17
258,908	-0,17
259,375	-0,19
259,841	-0,19
260,308	-0,19
260,775	-0,2
261,242	-0,18
261,709	-0,19
262,175	-0,2
262,642	-0,19
263,109	-0,18
263,575	-0,2
264,042	-0,19
264,508	-0,18
264,975	-0,2
265,441	-0,21
265,908	-0,21
266,374	-0,2
266,841	-0,2
267,307	-0,2
267,773	-0,2
268,24	-0,2
268,706	-0,2
269,172	-0,2
269,639	-0,22
270,105	-0,19
270,571	-0,2
271,037	-0,2
271,503	-0,21
271,969	-0,21
272,435	-0,21
272,902	-0,23
273,368	-0,24
273,834	-0,24
274,3	-0,24
274,765	-0,23
275,231	-0,24
275,697	-0,23
276,163	-0,22
276,629	-0,21
277,095	-0,22
277,56	-0,21
278,026	-0,22
278,492	-0,2
278,958	-0,2
279,423	-0,21
279,889	-0,21
280,354	-0,22
280,82	-0,22
281,286	-0,24
281,751	-0,24
282,217	-0,24
282,682	-0,24
283,147	-0,24
283,613	-0,25
284,078	-0,25
284,544	-0,27
285,009	-0,27
285,474	-0,26
285,939	-0,27
286,405	-0,26
286,87	-0,24
287,335	-0,24
287,8	-0,23
288,265	-0,21
288,73	-0,23
289,195	-0,25
289,66	-0,23
290,125	-0,22
290,59	-0,22
291,055	-0,22
291,52	-0,21
291,985	-0,23
292,45	-0,24
292,915	-0,24
293,38	-0,25
293,844	-0,23
294,309	-0,22
294,774	-0,22
295,239	-0,23
295,703	-0,22
296,168	-0,21
296,632	-0,21
297,097	-0,19
297,562	-0,17
298,026	-0,18
298,491	-0,17
298,955	-0,17
299,419	-0,16
299,884	-0,16
300,348	-0,16
300,813	-0,15
301,277	-0,17
301,741	-0,18
302,205	-0,18
302,67	-0,17
303,134	-0,17
303,598	-0,17
304,062	-0,15
304,526	-0,15
304,99	-0,17
305,454	-0,16
305,919	-0,16
306,383	-0,15
306,847	-0,13
307,31	-0,14
307,774	-0,15
308,238	-0,14
308,702	-0,14
309,166	-0,16
309,63	-0,16
310,094	-0,13
310,557	-0,13
311,021	-0,12
311,485	-0,13
311,948	-0,12
312,412	-0,12
312,876	-0,11
313,339	-0,12
313,803	-0,12
314,266	-0,11
314,73	-0,11
315,193	-0,12
315,657	-0,11
316,12	-0,11
316,584	-0,09
317,047	-0,09
317,51	-0,09
317,973	-0,09
318,437	-0,08
318,9	-0,07
319,363	-0,06
319,826	-0,05
320,29	-0,05
320,753	-0,05
321,216	-0,04
321,679	-0,05
322,142	-0,05
322,605	-0,05
323,068	-0,05
323,531	-0,05
323,994	-0,03
324,457	-0,03
324,92	-0,03
325,382	-0,03
325,845	-0,04
326,308	-0,03
326,771	-0,03
327,233	-0,02
327,696	-0,02
328,159	-0,01
328,622	-0,01
329,084	-0,01
329,547	-0
330,009	0,01
330,472	0,02
330,934	0,03
331,397	0,04
331,859	0,05
332,322	0,05
332,784	0,05
333,246	0,05
333,709	0,05
334,171	0,05
334,633	0,05
335,096	0,05
335,558	0,05
336,02	0,05
336,482	0,05
336,944	0,06
337,406	0,07
337,868	0,08
338,331	0,09
338,793	0,1
339,255	0,11
339,717	0,11
340,178	0,11
340,64	0,12
341,102	0,13
341,564	0,14
342,026	0,15
342,488	0,16
342,949	0,17
343,411	0,2
343,873	0,23
344,335	0,26
344,796	0,31
345,258	0,35
345,719	0,4
346,181	0,45
346,643	0,49
347,104	0,53
347,566	0,57
348,027	0,6
348,488	0,62
348,95	0,64
349,411	0,67
349,873	0,69
350,334	0,72
350,795	0,74
351,256	0,75
351,718	0,76
352,179	0,77
352,64	0,77
353,101	0,78
353,562	0,78
354,023	0,78
354,484	0,78
354,945	0,79
355,406	0,79
355,867	0,79
356,328	0,8
356,789	0,8
357,25	0,8
357,711	0,8
358,172	0,8
358,633	0,81
359,093	0,81
359,554	0,81
360,015	0,81
360,476	0,81
360,936	0,81
361,397	0,82
361,858	0,82
362,318	0,82
362,779	0,82
363,239	0,82
363,7	0,82
364,16	0,82
364,621	0,82
365,081	0,82
365,541	0,82
366,002	0,82
366,462	0,82
366,922	0,82
367,383	0,82
367,843	0,82
368,303	0,82
368,763	0,82
369,223	0,82
369,684	0,82
370,144	0,82
370,604	0,82
371,064	0,82
371,524	0,82
371,984	0,82
372,444	0,82
372,904	0,82
373,363	0,82
373,823	0,82
374,283	0,82
374,743	0,82
375,203	0,82
375,663	0,82
376,122	0,82
376,582	0,82
377,042	0,82
377,501	0,82
377,961	0,82
378,42	0,82
378,88	0,82
379,34	0,81
379,799	0,81
380,259	0,81
380,718	0,81
381,177	0,81
381,637	0,81
382,096	0,81
382,555	0,81
383,015	0,81
383,474	0,81
383,933	0,81
384,393	0,81
384,852	0,81
385,311	0,81
385,77	0,81
386,229	0,81
386,688	0,81
387,147	0,81
387,606	0,81
388,065	0,81
388,524	0,81
388,983	0,81
389,442	0,8
389,901	0,8
390,36	0,8
390,819	0,8
391,277	0,8
391,736	0,8
392,195	0,8
392,654	0,8
393,112	0,8
393,571	0,8
394,03	0,8
394,488	0,8
394,947	0,8
395,405	0,8
395,864	0,8
396,322	0,8
396,781	0,8
397,239	0,8
397,698	0,8
398,156	0,8
398,614	0,8
399,073	0,8
399,531	0,8
399,989	0,8
400,447	0,8
400,905	0,8
401,364	0,8
401,822	0,8
402,28	0,79
402,738	0,79
403,196	0,79
403,654	0,79
404,112	0,79
404,57	0,79
405,028	0,79
405,486	0,79
405,944	0,79
406,402	0,79
406,859	0,79
407,317	0,79
407,775	0,79
408,233	0,79
408,691	0,79
409,148	0,79
409,606	0,79
410,064	0,79
410,521	0,79
410,979	0,79
411,436	0,79
411,894	0,79
412,351	0,79
412,809	0,79
413,266	0,79
413,724	0,79
414,181	0,79
414,638	0,79
415,096	0,79
415,553	0,79
416,01	0,79
416,467	0,78
416,925	0,78
417,382	0,78
417,839	0,78
418,296	0,78
418,753	0,78
419,21	0,78
419,667	0,78
420,124	0,78
420,581	0,78
421,038	0,78
421,495	0,78
421,952	0,78
422,409	0,78
422,866	0,78
423,322	0,78
423,779	0,78
424,236	0,78
424,693	0,78
425,149	0,78
425,606	0,78
426,063	0,78
426,519	0,78
426,976	0,78
427,433	0,78
427,889	0,78
428,346	0,78
428,802	0,78
429,258	0,78
429,715	0,78
430,171	0,78
430,628	0,78
431,084	0,78
431,54	0,78
431,997	0,78
432,453	0,78
432,909	0,78
433,365	0,78
433,821	0,78
434,277	0,78
434,734	0,78
435,19	0,78
435,646	0,78
436,102	0,78
436,558	0,78
437,014	0,78
437,47	0,78
437,925	0,78
438,381	0,78
438,837	0,78
439,293	0,78
439,749	0,78
440,205	0,78
440,66	0,78
441,116	0,78
441,572	0,78
442,027	0,78
442,483	0,78
442,939	0,78
443,394	0,78
443,85	0,78
444,305	0,78
444,761	0,78
445,216	0,78
445,672	0,78
446,127	0,78
446,582	0,78
447,038	0,78
447,493	0,78
447,948	0,78
448,403	0,78
448,859	0,79
449,314	0,79
449,769	0,79
450,224	0,79
450,679	0,79
451,134	0,79
451,589	0,79
452,044	0,79
452,499	0,79
452,954	0,79
453,409	0,79
453,864	0,79
454,319	0,79
454,774	0,79
455,229	0,79
455,684	0,79
456,138	0,79
456,593	0,79
457,048	0,79
457,503	0,79
457,957	0,79
458,412	0,79
458,866	0,79
459,321	0,79
459,776	0,79
460,23	0,79
460,685	0,79
461,139	0,8
461,593	0,8
462,048	0,8
462,502	0,8
462,957	0,8
463,411	0,8
463,865	0,8
464,319	0,8
464,774	0,8
465,228	0,8
465,682	0,8
466,136	0,8
466,59	0,81
467,044	0,81
467,499	0,81
467,953	0,81
468,407	0,81
468,861	0,81
469,315	0,81
469,768	0,81
470,222	0,81
470,676	0,81
471,13	0,81
471,584	0,82
472,038	0,82
472,491	0,82
472,945	0,82
473,399	0,82
473,852	0,82
474,306	0,82
474,76	0,82
475,213	0,82
475,667	0,83
476,12	0,83
476,574	0,83
477,027	0,83
477,481	0,83
477,934	0,84
478,388	0,84
478,841	0,84
479,294	0,84
479,748	0,84
480,201	0,85
480,654	0,85
481,107	0,85
481,561	0,85
482,014	0,85
482,467	0,85
482,92	0,86
483,373	0,86
483,826	0,86
484,279	0,86
484,732	0,87
485,185	0,87
485,638	0,87
486,091	0,87
486,544	0,87
486,997	0,88
487,449	0,88
487,902	0,88
488,355	0,88
488,808	0,89
489,26	0,89
489,713	0,89
490,166	0,9
490,618	0,9
491,071	0,9
491,523	0,91
491,976	0,91
492,429	0,91
492,881	0,92
493,333	0,92
493,786	0,92
494,238	0,93
494,691	0,93
495,143	0,93
495,595	0,94
496,048	0,94
496,5	0,95
496,952	0,95
497,404	0,95
497,856	0,96
498,309	0,96
498,761	0,97
499,213	0,97
499,665	0,97
500,117	0,98
500,569	0,98
501,021	0,99
501,473	0,99
501,925	1
502,377	1
502,828	1
503,28	1,01
503,732	1,01
504,184	1,02
504,636	1,02
505,087	1,03
505,539	1,03
505,991	1,03
506,442	1,04
506,894	1,04
507,345	1,05
507,797	1,05
508,249	1,06
508,7	1,06
509,151	1,07
509,603	1,07
510,054	1,08
510,506	1,08
510,957	1,08
511,408	1,09
511,86	1,09
512,311	1,1
512,762	1,1
513,213	1,1
513,665	1,11
514,116	1,11
514,567	1,12
515,018	1,12
515,469	1,12
515,92	1,13
516,371	1,13
516,822	1,13
517,273	1,14
517,724	1,14
518,175	1,14
518,626	1,14
519,076	1,15
519,527	1,15
519,978	1,15
520,429	1,15
520,88	1,16
521,33	1,16
521,781	1,16
522,232	1,16
522,682	1,16
523,133	1,16
523,583	1,16
524,034	1,17
524,484	1,17
524,935	1,17
525,385	1,17
525,836	1,17
526,286	1,17
526,736	1,17
527,187	1,17
527,637	1,17
528,087	1,17
528,538	1,17
528,988	1,17
529,438	1,17
529,888	1,17
530,338	1,16
530,788	1,16
531,238	1,16
531,688	1,16
532,139	1,16
532,589	1,16
533,038	1,15
533,488	1,15
533,938	1,15
534,388	1,15
534,838	1,14
535,288	1,14
535,738	1,14
536,187	1,13
536,637	1,13
537,087	1,12
537,537	1,12
537,986	1,12
538,436	1,11
538,885	1,11
539,335	1,1
539,785	1,09
540,234	1,09
540,684	1,08
541,133	1,08
541,582	1,07
542,032	1,07
542,481	1,06
542,931	1,06
543,38	1,05
543,829	1,05
544,278	1,04
544,728	1,03
545,177	1,03
545,626	1,02
546,075	1,02
546,524	1,01
546,973	1,01
547,422	1
547,871	1
548,32	0,99
548,769	0,99
549,218	0,99
549,667	0,98
550,116	0,98
550,565	0,97
551,014	0,97
551,463	0,96
551,911	0,96
552,36	0,95
552,809	0,95
553,258	0,94
553,706	0,94
554,155	0,93
554,603	0,93
555,052	0,92
555,501	0,92
555,949	0,91
556,398	0,91
556,846	0,9
557,294	0,89
557,743	0,89
558,191	0,88
558,64	0,88
559,088	0,87
559,536	0,86
559,985	0,86
560,433	0,85
560,881	0,85
561,329	0,84
561,777	0,84
562,225	0,84
562,674	0,83
563,122	0,83
563,57	0,82
564,018	0,82
564,466	0,81
564,914	0,81
565,362	0,8
565,809	0,8
566,257	0,79
566,705	0,79
567,153	0,78
567,601	0,78
568,048	0,77
568,496	0,77
568,944	0,76
569,392	0,76
569,839	0,75
570,287	0,75
570,734	0,75
571,182	0,74
571,63	0,74
572,077	0,73
572,525	0,73
572,972	0,73
573,419	0,72
573,867	0,72
574,314	0,71
574,761	0,71
575,209	0,7
575,656	0,7
576,103	0,7
576,551	0,69
576,998	0,69
577,445	0,69
577,892	0,68
578,339	0,68
578,786	0,68
579,233	0,67
579,68	0,67
580,127	0,67
580,574	0,66
581,021	0,66
581,468	0,66
581,915	0,65
582,362	0,65
582,809	0,65
583,255	0,64
583,702	0,64
584,149	0,64
584,596	0,64
585,042	0,63
585,489	0,63
585,936	0,63
586,382	0,62
586,829	0,62
587,275	0,62
587,722	0,62
588,168	0,61
588,615	0,61
589,061	0,61
589,508	0,61
589,954	0,6
590,4	0,6
590,847	0,6
591,293	0,6
591,739	0,6
592,185	0,59
592,632	0,59
593,078	0,59
593,524	0,59
593,97	0,59
594,416	0,59
594,862	0,59
595,308	0,58
595,754	0,58
596,2	0,58
596,646	0,58
597,092	0,57
597,538	0,57
597,984	0,57
598,43	0,57
598,876	0,57
599,321	0,56
599,767	0,56
600,213	0,56
600,659	0,56
601,104	0,56
601,55	0,56
601,995	0,55
602,441	0,55
602,887	0,55
603,332	0,55
603,778	0,55
604,223	0,55
604,668	0,55
605,114	0,54
605,559	0,54
606,005	0,54
606,45	0,54
606,895	0,54
607,341	0,54
607,786	0,54
608,231	0,53
608,676	0,53
609,121	0,52
609,566	0,52
610,012	0,51
610,457	0,51
610,902	0,51
611,347	0,5
611,792	0,5
612,237	0,5
612,682	0,5
613,127	0,5
613,571	0,5
614,016	0,5
614,461	0,5
614,906	0,5
615,351	0,5
615,795	0,5
616,24	0,5
616,685	0,5
617,129	0,51
617,574	0,51
618,019	0,51
618,463	0,51
618,908	0,51
619,352	0,5
619,797	0,5
620,241	0,5
620,686	0,5
621,13	0,5
621,574	0,5
622,019	0,5
622,463	0,5
622,907	0,5
623,352	0,5
623,796	0,49
624,24	0,49
624,684	0,49
625,128	0,49
625,572	0,49
626,016	0,49
626,461	0,49
626,905	0,49
627,349	0,49
627,793	0,49
628,236	0,49
628,68	0,49
629,124	0,49
629,568	0,49
630,012	0,49
630,456	0,49
630,9	0,49
631,343	0,49
631,787	0,48
632,231	0,48
632,674	0,48
633,118	0,48
633,562	0,48
634,005	0,48
634,449	0,48
634,892	0,48
635,336	0,48
635,779	0,48
636,223	0,48
636,666	0,48
637,109	0,48
637,553	0,48
637,996	0,48
638,439	0,48
638,883	0,48
639,326	0,48
639,769	0,48
640,212	0,47
640,655	0,47
641,099	0,47
641,542	0,47
641,985	0,47
642,428	0,47
642,871	0,47
643,314	0,47
643,757	0,47
644,2	0,47
644,643	0,47
645,085	0,47
645,528	0,47
645,971	0,47
646,414	0,47
646,857	0,47
647,299	0,46
647,742	0,46
648,185	0,46
648,627	0,46
649,07	0,46
649,513	0,46
649,955	0,46
650,398	0,46
650,84	0,46
651,283	0,46
651,725	0,46
652,168	0,46
652,61	0,46
653,052	0,46
653,495	0,46
653,937	0,37
654,379	0,31
654,821	0,32
655,264	0,32
655,706	0,32
656,148	0,32
656,59	0,32
657,032	0,32
657,474	0,32
657,916	0,32
658,358	0,31
658,8	0,38
659,242	0,46
659,684	0,46
660,126	0,46
660,568	0,46
661,01	0,46
661,452	0,46
661,894	0,46
662,335	0,46
662,777	0,45
663,219	0,45
663,661	0,45
664,102	0,45
664,544	0,45
664,985	0,45
665,427	0,45
665,869	0,45
666,31	0,45
666,752	0,45
667,193	0,45
667,634	0,45
668,076	0,45
668,517	0,45
668,959	0,45
669,4	0,45
669,841	0,45
670,282	0,45
670,724	0,45
671,165	0,45
671,606	0,45
672,047	0,45
672,488	0,45
672,929	0,45
673,37	0,45
673,811	0,45
674,252	0,45
674,693	0,45
675,134	0,45
675,575	0,44
676,016	0,44
676,457	0,44
676,898	0,44
677,339	0,44
677,78	0,44
678,22	0,44
678,661	0,44
679,102	0,44
679,542	0,44
679,983	0,45
680,424	0,45
680,864	0,45
681,305	0,45
681,745	0,45
682,186	0,45
682,626	0,45
683,067	0,45
683,507	0,45
683,948	0,45
684,388	0,45
684,828	0,45
685,269	0,45
685,709	0,44
686,149	0,44
686,589	0,44
687,029	0,44
687,47	0,44
687,91	0,44
688,35	0,44
688,79	0,44
689,23	0,44
689,67	0,44
690,11	0,44
690,55	0,44
690,99	0,44
691,43	0,43
691,87	0,43
692,31	0,43
692,749	0,43
693,189	0,43
693,629	0,43
694,069	0,43
694,508	0,43
694,948	0,43
695,388	0,43
695,827	0,43
696,267	0,43
696,706	0,43
697,146	0,43
697,586	0,43
698,025	0,43
698,464	0,43
698,904	0,43
699,343	0,43
699,783	0,44
700,222	0,44
700,661	0,44
701,101	0,44
701,54	0,43
701,979	0,43
702,418	0,43
702,857	0,43
703,297	0,43
703,736	0,43
704,175	0,43
704,614	0,43
705,053	0,43
705,492	0,43
705,931	0,43
706,37	0,43
706,809	0,43
707,248	0,43
707,687	0,43
708,125	0,43
708,564	0,43
709,003	0,43
709,442	0,43
709,88	0,43
710,319	0,43
710,758	0,43
711,196	0,43
711,635	0,43
712,074	0,43
712,512	0,43
712,951	0,42
713,389	0,42
713,828	0,42
714,266	0,42
714,705	0,42
715,143	0,42
715,581	0,42
716,02	0,42
716,458	0,42
716,896	0,42
717,334	0,42
717,773	0,42
718,211	0,42
718,649	0,42
719,087	0,42
719,525	0,42
719,963	0,42
720,401	0,42
720,839	0,42
721,277	0,42
721,715	0,42
722,153	0,42
722,591	0,42
723,029	0,42
723,467	0,42
723,905	0,42
724,342	0,42
724,78	0,42
725,218	0,42
725,656	0,42
726,093	0,42
726,531	0,42
726,969	0,42
727,406	0,42
727,844	0,42
728,281	0,42
728,719	0,42
729,156	0,42
729,594	0,42
730,031	0,42
730,469	0,42
730,906	0,42
731,343	0,42
731,781	0,42
732,218	0,41
732,655	0,41
733,092	0,41
733,53	0,41
733,967	0,41
734,404	0,41
734,841	0,41
735,278	0,41
735,715	0,41
736,152	0,41
736,589	0,41
737,026	0,41
737,463	0,41
737,9	0,41
738,337	0,41
738,774	0,41
739,211	0,41
739,647	0,41
740,084	0,41
740,521	0,41
740,958	0,41
741,394	0,41
741,831	0,42
742,268	0,42
742,704	0,42
743,141	0,41
743,577	0,41
744,014	0,41
744,45	0,41
744,887	0,41
745,323	0,41
745,76	0,41
746,196	0,41
746,632	0,41
747,069	0,41
747,505	0,41
747,941	0,41
748,378	0,41
748,814	0,41
749,25	0,41
749,686	0,41
750,122	0,41
750,558	0,41
750,994	0,41
751,43	0,41
751,866	0,41
752,302	0,41
752,738	0,41
753,174	0,41
753,61	0,41
754,046	0,41
754,482	0,41
754,918	0,41
755,354	0,41
755,789	0,41
756,225	0,41
756,661	0,41
757,096	0,41
757,532	0,41
757,968	0,4
758,403	0,4
758,839	0,4
759,274	0,4
759,71	0,39
760,145	0,39
760,581	0,38
761,016	0,38
761,452	0,38
761,887	0,37
762,322	0,37
762,758	0,36
763,193	0,36
763,628	0,35
764,063	0,34
764,499	0,34
764,934	0,33
765,369	0,33
765,804	0,32
766,239	0,31
766,674	0,31
767,109	0,3
767,544	0,29
767,979	0,28
768,414	0,27
768,849	0,26
769,284	0,26
769,719	0,25
770,154	0,24
770,588	0,23
771,023	0,22
771,458	0,21
771,893	0,2
772,327	0,18
772,762	0,17
773,197	0,16
773,631	0,16
774,066	0,15
774,5	0,14
774,935	0,13
775,369	0,12
775,804	0,11
776,238	0,1
776,673	0,09
777,107	0,08
777,541	0,08
777,976	0,07
778,41	0,06
778,844	0,05
779,279	0,04
779,713	0,03
780,147	0,02
780,581	0,01
781,015	0
781,449	-0
781,883	-0,01
782,317	-0,03
782,751	-0,04
783,185	-0,05
783,619	-0,05
784,053	-0,06
784,487	-0,07
784,921	-0,07
785,355	-0,08
785,789	-0,1
786,223	-0,11
786,656	-0,12
787,09	-0,13
787,524	-0,13
787,957	-0,14
788,391	-0,16
788,825	-0,18
789,258	-0,19
789,692	-0,21
790,125	-0,22
790,559	-0,23
790,992	-0,25
791,426	-0,27
791,859	-0,28
792,293	-0,31
792,726	-0,33
793,159	-0,34
793,593	-0,36
794,026	-0,39
794,459	-0,41
794,892	-0,44
795,326	-0,46
795,759	-0,5
796,192	-0,54
796,625	-0,59
797,058	-0,61
797,491	-0,66
797,924	-0,69
798,357	-0,74
798,79	-0,78
799,223	-0,82
799,656	-0,87
800,089	-0,92
800,522	-0,96
800,955	-1
801,387	-1,06
801,82	-1,11
802,253	-1,17
802,686	-1,25
803,118	-1,31
803,551	-1,36
803,984	-1,4
804,416	-1,43
804,849	-1,46
805,281	-1,57
805,714	-1,91
806,146	-2,38
806,579	-2,67
807,011	-2,84
807,444	-2,94
807,876	-3,03
808,308	-3,07
808,741	-3,09
809,173	-3,15
809,605	-3,17
810,037	-3,25
810,47	-3,17
810,902	-2,98
811,334	-2,83
811,766	-2,67
812,198	-2,43
812,63	-1,99
813,062	-1,76
813,494	-1,67
813,926	-1,58
814,358	-1,53
814,79	-1,45
815,222	-1,39
815,654	-1,34
816,086	-1,27
816,518	-1,22
816,949	-1,17
817,381	-1,12
817,813	-1,11
818,245	-1,07
818,676	-1,03
819,108	-1
819,54	-0,98
819,971	-0,96
820,403	-0,92
820,834	-0,9
821,266	-0,86
821,697	-0,84
822,129	-0,83
822,56	-0,8
822,991	-0,78
823,423	-0,76
823,854	-0,75
824,286	-0,73
824,717	-0,71
825,148	-0,7
825,579	-0,69
826,01	-0,68
826,442	-0,67
826,873	-0,65
827,304	-0,62
827,735	-0,6
828,166	-0,6
828,597	-0,6
829,028	-0,59
829,459	-0,6
829,89	-0,6
830,321	-0,56
830,752	-0,57
831,183	-0,56
831,613	-0,56
832,044	-0,55
832,475	-0,55
832,906	-0,56
833,336	-0,56
833,767	-0,56
834,198	-0,55
834,628	-0,53
835,059	-0,56
835,49	-0,56
835,92	-0,54
836,351	-0,54
836,781	-0,54
837,212	-0,56
837,642	-0,56
838,072	-0,54
838,503	-0,56
838,933	-0,53
839,364	-0,54
839,794	-0,52
840,224	-0,52
840,654	-0,56
841,085	-0,57
841,515	-0,55
841,945	-0,54
842,375	-0,5
842,805	-0,48
843,235	-0,47
843,665	-0,49
844,095	-0,47
844,525	-0,49
844,955	-0,49
845,385	-0,47
845,815	-0,47
846,245	-0,49
846,675	-0,5
847,105	-0,52
847,534	-0,52
847,964	-0,51
848,394	-0,5
848,824	-0,54
849,253	-0,53
849,683	-0,53
850,112	-0,55
850,542	-0,57
850,972	-0,57
851,401	-0,54
851,831	-0,53
852,26	-0,53
852,69	-0,56
853,119	-0,55
853,548	-0,55
853,978	-0,55
854,407	-0,53
854,836	-0,52
855,266	-0,51
855,695	-0,54
856,124	-0,55
856,553	-0,56
856,983	-0,58
857,412	-0,57
857,841	-0,59
858,27	-0,6
858,699	-0,6
859,128	-0,64
859,557	-0,65
859,986	-0,67
860,415	-0,64
860,844	-0,61
861,273	-0,62
861,702	-0,62
862,13	-0,61
862,559	-0,62
862,988	-0,59
863,417	-0,58
863,845	-0,57
864,274	-0,58
864,703	-0,57
865,131	-0,57
865,56	-0,58
865,989	-0,6
866,417	-0,57
866,846	-0,58
867,274	-0,57
867,703	-0,59
868,131	-0,61
868,559	-0,61
868,988	-0,63
869,416	-0,62
869,844	-0,63
870,273	-0,66
870,701	-0,64
871,129	-0,68
871,557	-0,71
871,986	-0,71
872,414	-0,72
872,842	-0,69
873,27	-0,67
873,698	-0,64
874,126	-0,67
874,554	-0,65
874,982	-0,65
875,41	-0,67
875,838	-0,62
876,266	-0,59
876,694	-0,59
877,122	-0,58
877,549	-0,64
877,977	-0,61
878,405	-0,64
878,833	-0,6
879,26	-0,59
879,688	-0,59
880,116	-0,58
880,543	-0,56
880,971	-0,56
881,399	-0,59
881,826	-0,59
882,254	-0,57
882,681	-0,61
883,109	-0,57
883,536	-0,59
883,963	-0,61
884,391	-0,59
884,818	-0,57
885,245	-0,62
885,673	-0,64
886,1	-0,61
886,527	-0,6
886,954	-0,56
887,381	-0,58
887,809	-0,59
888,236	-0,6
888,663	-0,6
889,09	-0,65
889,517	-0,66
889,944	-0,65
890,371	-0,64
890,798	-0,65
891,225	-0,65
891,652	-0,68
892,078	-0,66
892,505	-0,69
892,932	-0,64
893,359	-0,65
893,786	-0,64
894,212	-0,61
894,639	-0,63
895,066	-0,65
895,492	-0,59
895,919	-0,59
896,346	-0,59
896,772	-0,59
897,199	-0,55
897,625	-0,59
898,052	-0,55
898,478	-0,54
898,904	-0,56
899,331	-0,55
899,757	-0,57
900,183	-0,58
900,61	-0,56
901,036	-0,57
901,462	-0,57
901,888	-0,57
902,315	-0,56
902,741	-0,61
903,167	-0,6
903,593	-0,63
904,019	-0,61
904,445	-0,58
904,871	-0,61
905,297	-0,63
905,723	-0,62
906,149	-0,6
906,575	-0,61
907,001	-0,61
907,427	-0,58
907,852	-0,58
908,278	-0,59
908,704	-0,58
909,13	-0,56
909,555	-0,56
909,981	-0,55
910,407	-0,56
910,832	-0,56
911,258	-0,57
911,684	-0,56
912,109	-0,57
912,535	-0,58
912,96	-0,53
913,386	-0,56
913,811	-0,57
914,236	-0,59
914,662	-0,56
915,087	-0,59
915,512	-0,59
915,938	-0,6
916,363	-0,6
916,788	-0,61
917,213	-0,59
917,639	-0,64
918,064	-0,61
918,489	-0,62
918,914	-0,61
919,339	-0,63
919,764	-0,6
920,189	-0,6
920,614	-0,62
921,039	-0,63
921,464	-0,58
921,889	-0,61
922,314	-0,62
922,738	-0,65
923,163	-0,66
923,588	-0,66
924,013	-0,65
924,437	-0,65
924,862	-0,66
925,287	-0,62
925,711	-0,63
926,136	-0,64
926,561	-0,62
926,985	-0,61
927,41	-0,58
927,834	-0,56
928,259	-0,53
928,683	-0,51
929,108	-0,48
929,532	-0,49
929,956	-0,49
930,381	-0,48
930,805	-0,48
931,229	-0,48
931,653	-0,46
932,078	-0,46
932,502	-0,48
932,926	-0,49
933,35	-0,49
933,774	-0,48
934,198	-0,45
934,622	-0,44
935,046	-0,46
935,47	-0,46
935,894	-0,46
936,318	-0,47
936,742	-0,47
937,166	-0,48
937,59	-0,47
938,014	-0,49
938,437	-0,5
938,861	-0,52
939,285	-0,53
939,709	-0,51
940,132	-0,51
940,556	-0,51
940,98	-0,5
941,403	-0,48
941,827	-0,48
942,25	-0,5
942,674	-0,48
943,097	-0,48
943,521	-0,49
943,944	-0,5
944,368	-0,49
944,791	-0,47
945,214	-0,5
945,638	-0,5
946,061	-0,54
946,484	-0,54
946,907	-0,53
947,331	-0,52
947,754	-0,56
948,177	-0,53
948,6	-0,53
949,023	-0,53
949,446	-0,53
949,869	-0,51
950,292	-0,51
950,715	-0,48
951,138	-0,47
951,561	-0,45
951,984	-0,45
952,407	-0,44
952,83	-0,43
953,252	-0,38
953,675	-0,38
954,098	-0,39
954,521	-0,38
954,943	-0,38
955,366	-0,39
955,789	-0,36
956,211	-0,38
956,634	-0,39
957,056	-0,36
957,479	-0,37
957,902	-0,4
958,324	-0,41
958,746	-0,39
959,169	-0,4
959,591	-0,41
960,014	-0,41
960,436	-0,41
960,858	-0,41
961,281	-0,4
961,703	-0,42
962,125	-0,42
962,547	-0,39
962,969	-0,39
963,391	-0,4
963,814	-0,4
964,236	-0,39
964,658	-0,36
965,08	-0,37
965,502	-0,37
965,924	-0,34
966,346	-0,34
966,768	-0,32
967,189	-0,35
967,611	-0,34
968,033	-0,34
968,455	-0,33
968,877	-0,33
969,298	-0,35
969,72	-0,35
970,142	-0,34
970,563	-0,35
970,985	-0,34
971,407	-0,33
971,828	-0,31
972,25	-0,31
972,671	-0,29
973,093	-0,29
973,514	-0,29
973,936	-0,27
974,357	-0,25
974,778	-0,26
975,2	-0,25
975,621	-0,24
976,042	-0,22
976,464	-0,21
976,885	-0,2
977,306	-0,19
977,727	-0,18
978,148	-0,16
978,57	-0,15
978,991	-0,13
979,412	-0,12
979,833	-0,11
980,254	-0,1
980,675	-0,11
981,096	-0,09
981,517	-0,07
981,937	-0,07
982,358	-0,06
982,779	-0,05
983,2	-0,05
983,621	-0,04
984,042	-0,02
984,462	-0,01
984,883	0
985,304	0,02
985,724	0,03
986,145	0,04
986,565	0,06
986,986	0,07
987,407	0,08
987,827	0,1
988,248	0,11
988,668	0,12
989,088	0,13
989,509	0,14
989,929	0,15
990,35	0,16
990,77	0,18
991,19	0,19
991,61	0,2
992,031	0,21
992,451	0,22
992,871	0,23
993,291	0,24
993,711	0,25
994,131	0,26
994,551	0,27
994,971	0,27
995,391	0,28
995,811	0,29
996,231	0,29
996,651	0,3
997,071	0,31
997,491	0,31
997,911	0,32
998,331	0,33
998,75	0,34
999,17	0,34
999,59	0,35
1000,009	0,35
1000,429	0,36
1000,849	0,36
1001,268	0,37
1001,688	0,37
1002,107	0,38
1002,527	0,38
1002,946	0,38
1003,366	0,39
1003,785	0,39
1004,205	0,39
1004,624	0,4
1005,044	0,4
1005,463	0,4
1005,882	0,4
1006,301	0,4
1006,721	0,41
1007,14	0,41
1007,559	0,41
1007,978	0,41
1008,397	0,41
1008,816	0,41
1009,235	0,41
1009,655	0,41
1010,074	0,41
1010,492	0,41
1010,911	0,41
1011,33	0,41
1011,749	0,41
1012,168	0,41
1012,587	0,41
1013,006	0,4
1013,425	0,4
1013,843	0,4
1014,262	0,4
1014,681	0,4
1015,099	0,4
1015,518	0,4
1015,937	0,4
1016,355	0,4
1016,774	0,4
1017,192	0,4
1017,611	0,4
1018,029	0,4
1018,448	0,4
1018,866	0,4
1019,285	0,4
1019,703	0,4
1020,121	0,4
1020,54	0,4
1020,958	0,4
1021,376	0,4
1021,794	0,4
1022,213	0,4
1022,631	0,4
1023,049	0,4
1023,467	0,4
1023,885	0,4
1024,303	0,4
1024,721	0,4
1025,139	0,39
1025,557	0,39
1025,975	0,39
1026,393	0,39
1026,811	0,39
1027,229	0,39
1027,647	0,39
1028,065	0,39
1028,482	0,39
1028,9	0,39
1029,318	0,39
1029,735	0,39
1030,153	0,39
1030,571	0,39
1030,988	0,39
1031,406	0,38
1031,823	0,39
1032,241	0,39
1032,659	0,39
1033,076	0,39
1033,493	0,39
1033,911	0,39
1034,328	0,39
1034,746	0,39
1035,163	0,39
1035,58	0,39
1035,997	0,39
1036,415	0,39
1036,832	0,39
1037,249	0,39
1037,666	0,39
1038,083	0,39
1038,501	0,39
1038,918	0,39
1039,335	0,39
1039,752	0,39
1040,169	0,39
1040,586	0,39
1041,003	0,39
1041,419	0,39
1041,836	0,39
1042,253	0,39
1042,67	0,39
1043,087	0,39
1043,504	0,38
1043,92	0,38
1044,337	0,38
1044,754	0,38
1045,17	0,38
1045,587	0,38
1046,004	0,38
1046,42	0,38
1046,837	0,38
1047,253	0,38
1047,67	0,38
1048,086	0,38
1048,503	0,38
1048,919	0,38
1049,335	0,38
1049,752	0,38
1050,168	0,38
1050,584	0,38
1051,001	0,38
1051,417	0,38
1051,833	0,38
1052,249	0,38
1052,665	0,39
1053,081	0,39
1053,497	0,39
1053,914	0,39
1054,33	0,39
1054,746	0,39
1055,162	0,39
1055,578	0,39
1055,993	0,4
1056,409	0,4
1056,825	0,4
1057,241	0,4
1057,657	0,4
1058,073	0,4
1058,488	0,4
1058,904	0,4
1059,32	0,4
1059,736	0,4
1060,151	0,4
1060,567	0,4
1060,982	0,4
1061,398	0,4
1061,813	0,4
1062,229	0,39
1062,644	0,39
1063,06	0,39
1063,475	0,39
1063,891	0,39
1064,306	0,39
1064,721	0,39
1065,137	0,39
1065,552	0,39
1065,967	0,39
1066,382	0,39
1066,798	0,39
1067,213	0,39
1067,628	0,39
1068,043	0,39
1068,458	0,39
1068,873	0,39
1069,288	0,39
1069,703	0,39
1070,118	0,39
1070,533	0,39
1070,948	0,39
1071,363	0,39
1071,778	0,39
1072,193	0,4
1072,607	0,4
1073,022	0,4
1073,437	0,4
1073,852	0,4
1074,266	0,4
1074,681	0,4
1075,096	0,4
1075,51	0,4
1075,925	0,4
1076,339	0,4
1076,754	0,4
1077,168	0,4
1077,583	0,39
1077,997	0,39
1078,412	0,39
1078,826	0,39
1079,24	0,39
1079,655	0,39
1080,069	0,39
1080,483	0,39
1080,897	0,39
1081,312	0,39
1081,726	0,39
1082,14	0,38
1082,554	0,38
1082,968	0,38
1083,382	0,38
1083,796	0,38
1084,21	0,38
1084,624	0,38
1085,038	0,38
1085,452	0,38
1085,866	0,37
1086,28	0,37
1086,694	0,37
1087,108	0,37
1087,521	0,37
1087,935	0,37
1088,349	0,37
1088,763	0,36
1089,176	0,36
1089,59	0,36
1090,004	0,36
1090,417	0,35
1090,831	0,35
1091,244	0,35
1091,658	0,34
1092,071	0,34
1092,485	0,34
1092,898	0,33
1093,312	0,33
1093,725	0,33
1094,138	0,33
1094,552	0,33
1094,965	0,32
1095,378	0,32
1095,791	0,32
1096,205	0,32
1096,618	0,32
1097,031	0,31
1097,444	0,31
1097,857	0,31
1098,27	0,3
1098,683	0,3
1099,096	0,3
1099,509	0,29
1099,922	0,29
1100,335	0,28
1100,748	0,28
1101,161	0,27
1101,574	0,27
1101,986	0,27
1102,399	0,26
1102,812	0,26
1103,225	0,25
1103,637	0,25
1104,05	0,25
1104,463	0,25
1104,875	0,24
1105,288	0,24
1105,7	0,24
1106,113	0,23
1106,525	0,23
1106,938	0,23
1107,35	0,22
1107,763	0,22
1108,175	0,22
1108,588	0,21
1109	0,21
1109,412	0,2
1109,824	0,2
1110,237	0,2
1110,649	0,2
1111,061	0,17
