Data from 18C-808nm-8A-cont_Absorbance__331__01760.txt Node

Date: Mon Jul 17 17:30:23 CEST 2023
User: Laser008
Spectrometer: MAYP115816
Trigger mode: 0
Integration Time (sec): 2,500000E-1
Scans to average: 10
Electric dark correction enabled: true
Nonlinearity correction enabled: true
Boxcar width: 5
XAxis mode: Wavelengths
Number of Pixels in Spectrum: 2068
>>>>>Begin Spectral Data<<<<<
198,914	-0,7
199,384	-0,45
199,855	-0,34
200,325	-0,24
200,796	-0,21
201,266	-0,18
201,737	-0,16
202,207	-0,14
202,677	-0,14
203,147	-0,12
203,618	-0,09
204,088	-0,07
204,558	-0,07
205,028	-0,06
205,498	-0,08
205,968	-0,08
206,439	-0,09
206,909	-0,09
207,379	-0,09
207,849	-0,09
208,319	-0,1
208,789	-0,11
209,258	-0,11
209,728	-0,12
210,198	-0,12
210,668	-0,11
211,138	-0,11
211,608	-0,11
212,077	-0,11
212,547	-0,1
213,017	-0,11
213,486	-0,11
213,956	-0,11
214,426	-0,11
214,895	-0,11
215,365	-0,12
215,834	-0,12
216,304	-0,13
216,773	-0,13
217,243	-0,14
217,712	-0,16
218,181	-0,16
218,651	-0,15
219,12	-0,16
219,589	-0,16
220,058	-0,15
220,528	-0,16
220,997	-0,16
221,466	-0,17
221,935	-0,18
222,404	-0,18
222,873	-0,17
223,342	-0,18
223,812	-0,18
224,281	-0,18
224,749	-0,18
225,218	-0,2
225,687	-0,2
226,156	-0,19
226,625	-0,17
227,094	-0,17
227,563	-0,17
228,031	-0,19
228,5	-0,19
228,969	-0,2
229,438	-0,19
229,906	-0,17
230,375	-0,16
230,844	-0,16
231,312	-0,16
231,781	-0,17
232,249	-0,16
232,718	-0,16
233,186	-0,14
233,655	-0,14
234,123	-0,13
234,591	-0,13
235,06	-0,14
235,528	-0,14
235,996	-0,15
236,465	-0,14
236,933	-0,14
237,401	-0,14
237,869	-0,12
238,337	-0,12
238,805	-0,11
239,274	-0,11
239,742	-0,11
240,21	-0,11
240,678	-0,1
241,146	-0,09
241,614	-0,09
242,081	-0,09
242,549	-0,08
243,017	-0,1
243,485	-0,1
243,953	-0,1
244,421	-0,09
244,888	-0,09
245,356	-0,09
245,824	-0,1
246,291	-0,09
246,759	-0,1
247,227	-0,11
247,694	-0,1
248,162	-0,09
248,629	-0,08
249,097	-0,09
249,564	-0,11
250,032	-0,12
250,499	-0,11
250,967	-0,12
251,434	-0,13
251,901	-0,12
252,369	-0,12
252,836	-0,13
253,303	-0,15
253,77	-0,16
254,237	-0,15
254,705	-0,15
255,172	-0,14
255,639	-0,14
256,106	-0,16
256,573	-0,15
257,04	-0,16
257,507	-0,16
257,974	-0,17
258,441	-0,15
258,908	-0,15
259,375	-0,16
259,841	-0,16
260,308	-0,16
260,775	-0,15
261,242	-0,15
261,709	-0,16
262,175	-0,17
262,642	-0,16
263,109	-0,16
263,575	-0,18
264,042	-0,16
264,508	-0,16
264,975	-0,18
265,441	-0,2
265,908	-0,21
266,374	-0,2
266,841	-0,2
267,307	-0,2
267,773	-0,19
268,24	-0,2
268,706	-0,19
269,172	-0,19
269,639	-0,2
270,105	-0,18
270,571	-0,18
271,037	-0,19
271,503	-0,2
271,969	-0,2
272,435	-0,19
272,902	-0,22
273,368	-0,22
273,834	-0,22
274,3	-0,23
274,765	-0,22
275,231	-0,23
275,697	-0,22
276,163	-0,21
276,629	-0,21
277,095	-0,2
277,56	-0,2
278,026	-0,2
278,492	-0,18
278,958	-0,18
279,423	-0,18
279,889	-0,19
280,354	-0,19
280,82	-0,19
281,286	-0,2
281,751	-0,21
282,217	-0,21
282,682	-0,22
283,147	-0,21
283,613	-0,21
284,078	-0,22
284,544	-0,23
285,009	-0,23
285,474	-0,22
285,939	-0,24
286,405	-0,22
286,87	-0,21
287,335	-0,2
287,8	-0,2
288,265	-0,19
288,73	-0,2
289,195	-0,22
289,66	-0,23
290,125	-0,22
290,59	-0,22
291,055	-0,21
291,52	-0,22
291,985	-0,23
292,45	-0,23
292,915	-0,24
293,38	-0,24
293,844	-0,22
294,309	-0,2
294,774	-0,19
295,239	-0,19
295,703	-0,2
296,168	-0,2
296,632	-0,18
297,097	-0,17
297,562	-0,17
298,026	-0,17
298,491	-0,17
298,955	-0,17
299,419	-0,17
299,884	-0,17
300,348	-0,16
300,813	-0,14
301,277	-0,15
301,741	-0,16
302,205	-0,15
302,67	-0,15
303,134	-0,15
303,598	-0,15
304,062	-0,13
304,526	-0,13
304,99	-0,15
305,454	-0,14
305,919	-0,15
306,383	-0,13
306,847	-0,13
307,31	-0,14
307,774	-0,14
308,238	-0,13
308,702	-0,13
309,166	-0,15
309,63	-0,15
310,094	-0,12
310,557	-0,11
311,021	-0,11
311,485	-0,12
311,948	-0,11
312,412	-0,1
312,876	-0,09
313,339	-0,1
313,803	-0,11
314,266	-0,1
314,73	-0,11
315,193	-0,11
315,657	-0,1
316,12	-0,1
316,584	-0,09
317,047	-0,08
317,51	-0,08
317,973	-0,07
318,437	-0,05
318,9	-0,05
319,363	-0,05
319,826	-0,04
320,29	-0,04
320,753	-0,04
321,216	-0,05
321,679	-0,06
322,142	-0,05
322,605	-0,06
323,068	-0,06
323,531	-0,07
323,994	-0,06
324,457	-0,05
324,92	-0,04
325,382	-0,04
325,845	-0,03
326,308	-0,02
326,771	-0,01
327,233	-0,01
327,696	0
328,159	0,01
328,622	0,01
329,084	0,02
329,547	0,02
330,009	0,02
330,472	0,02
330,934	0,03
331,397	0,04
331,859	0,04
332,322	0,04
332,784	0,04
333,246	0,04
333,709	0,04
334,171	0,05
334,633	0,05
335,096	0,05
335,558	0,05
336,02	0,05
336,482	0,04
336,944	0,06
337,406	0,06
337,868	0,07
338,331	0,08
338,793	0,09
339,255	0,09
339,717	0,1
340,178	0,11
340,64	0,12
341,102	0,13
341,564	0,14
342,026	0,15
342,488	0,16
342,949	0,18
343,411	0,2
343,873	0,23
344,335	0,26
344,796	0,3
345,258	0,35
345,719	0,4
346,181	0,44
346,643	0,48
347,104	0,52
347,566	0,55
348,027	0,58
348,488	0,61
348,95	0,63
349,411	0,65
349,873	0,68
350,334	0,7
350,795	0,71
351,256	0,73
351,718	0,74
352,179	0,74
352,64	0,75
353,101	0,75
353,562	0,75
354,023	0,75
354,484	0,76
354,945	0,76
355,406	0,76
355,867	0,77
356,328	0,77
356,789	0,77
357,25	0,77
357,711	0,77
358,172	0,77
358,633	0,78
359,093	0,78
359,554	0,78
360,015	0,78
360,476	0,78
360,936	0,78
361,397	0,79
361,858	0,79
362,318	0,79
362,779	0,79
363,239	0,79
363,7	0,79
364,16	0,79
364,621	0,79
365,081	0,79
365,541	0,79
366,002	0,79
366,462	0,79
366,922	0,79
367,383	0,79
367,843	0,79
368,303	0,79
368,763	0,79
369,223	0,79
369,684	0,79
370,144	0,79
370,604	0,79
371,064	0,79
371,524	0,79
371,984	0,79
372,444	0,79
372,904	0,79
373,363	0,79
373,823	0,79
374,283	0,79
374,743	0,79
375,203	0,79
375,663	0,79
376,122	0,79
376,582	0,79
377,042	0,79
377,501	0,79
377,961	0,79
378,42	0,79
378,88	0,79
379,34	0,79
379,799	0,79
380,259	0,78
380,718	0,78
381,177	0,78
381,637	0,78
382,096	0,78
382,555	0,78
383,015	0,78
383,474	0,78
383,933	0,78
384,393	0,78
384,852	0,78
385,311	0,78
385,77	0,78
386,229	0,78
386,688	0,78
387,147	0,78
387,606	0,78
388,065	0,78
388,524	0,78
388,983	0,78
389,442	0,78
389,901	0,78
390,36	0,78
390,819	0,78
391,277	0,78
391,736	0,78
392,195	0,78
392,654	0,78
393,112	0,78
393,571	0,77
394,03	0,77
394,488	0,77
394,947	0,77
395,405	0,77
395,864	0,77
396,322	0,77
396,781	0,77
397,239	0,77
397,698	0,77
398,156	0,77
398,614	0,77
399,073	0,77
399,531	0,77
399,989	0,77
400,447	0,77
400,905	0,77
401,364	0,77
401,822	0,77
402,28	0,77
402,738	0,77
403,196	0,77
403,654	0,77
404,112	0,77
404,57	0,77
405,028	0,77
405,486	0,77
405,944	0,77
406,402	0,77
406,859	0,77
407,317	0,77
407,775	0,77
408,233	0,77
408,691	0,77
409,148	0,77
409,606	0,77
410,064	0,77
410,521	0,77
410,979	0,77
411,436	0,77
411,894	0,77
412,351	0,76
412,809	0,76
413,266	0,76
413,724	0,76
414,181	0,76
414,638	0,76
415,096	0,76
415,553	0,76
416,01	0,76
416,467	0,76
416,925	0,76
417,382	0,76
417,839	0,76
418,296	0,76
418,753	0,76
419,21	0,76
419,667	0,76
420,124	0,76
420,581	0,76
421,038	0,76
421,495	0,76
421,952	0,76
422,409	0,76
422,866	0,76
423,322	0,76
423,779	0,76
424,236	0,76
424,693	0,76
425,149	0,76
425,606	0,76
426,063	0,76
426,519	0,76
426,976	0,76
427,433	0,76
427,889	0,76
428,346	0,76
428,802	0,76
429,258	0,76
429,715	0,76
430,171	0,76
430,628	0,76
431,084	0,76
431,54	0,76
431,997	0,76
432,453	0,76
432,909	0,76
433,365	0,76
433,821	0,76
434,277	0,75
434,734	0,75
435,19	0,75
435,646	0,75
436,102	0,75
436,558	0,75
437,014	0,75
437,47	0,76
437,925	0,76
438,381	0,76
438,837	0,76
439,293	0,76
439,749	0,76
440,205	0,76
440,66	0,76
441,116	0,76
441,572	0,76
442,027	0,76
442,483	0,76
442,939	0,76
443,394	0,76
443,85	0,76
444,305	0,76
444,761	0,76
445,216	0,76
445,672	0,76
446,127	0,76
446,582	0,76
447,038	0,76
447,493	0,76
447,948	0,76
448,403	0,76
448,859	0,76
449,314	0,76
449,769	0,76
450,224	0,76
450,679	0,76
451,134	0,76
451,589	0,76
452,044	0,77
452,499	0,77
452,954	0,77
453,409	0,77
453,864	0,77
454,319	0,77
454,774	0,77
455,229	0,77
455,684	0,77
456,138	0,77
456,593	0,77
457,048	0,77
457,503	0,77
457,957	0,77
458,412	0,77
458,866	0,77
459,321	0,77
459,776	0,77
460,23	0,77
460,685	0,77
461,139	0,77
461,593	0,77
462,048	0,77
462,502	0,77
462,957	0,77
463,411	0,78
463,865	0,78
464,319	0,78
464,774	0,78
465,228	0,78
465,682	0,78
466,136	0,78
466,59	0,78
467,044	0,78
467,499	0,78
467,953	0,78
468,407	0,78
468,861	0,79
469,315	0,79
469,768	0,79
470,222	0,79
470,676	0,79
471,13	0,79
471,584	0,79
472,038	0,79
472,491	0,79
472,945	0,79
473,399	0,79
473,852	0,79
474,306	0,8
474,76	0,8
475,213	0,8
475,667	0,8
476,12	0,8
476,574	0,8
477,027	0,8
477,481	0,81
477,934	0,81
478,388	0,81
478,841	0,81
479,294	0,81
479,748	0,81
480,201	0,82
480,654	0,82
481,107	0,82
481,561	0,82
482,014	0,82
482,467	0,82
482,92	0,83
483,373	0,83
483,826	0,83
484,279	0,83
484,732	0,83
485,185	0,84
485,638	0,84
486,091	0,84
486,544	0,84
486,997	0,84
487,449	0,85
487,902	0,85
488,355	0,85
488,808	0,85
489,26	0,86
489,713	0,86
490,166	0,86
490,618	0,86
491,071	0,87
491,523	0,87
491,976	0,87
492,429	0,87
492,881	0,88
493,333	0,88
493,786	0,88
494,238	0,89
494,691	0,89
495,143	0,89
495,595	0,9
496,048	0,9
496,5	0,9
496,952	0,91
497,404	0,91
497,856	0,91
498,309	0,92
498,761	0,92
499,213	0,93
499,665	0,93
500,117	0,93
500,569	0,94
501,021	0,94
501,473	0,94
501,925	0,95
502,377	0,95
502,828	0,96
503,28	0,96
503,732	0,96
504,184	0,97
504,636	0,97
505,087	0,98
505,539	0,98
505,991	0,98
506,442	0,99
506,894	0,99
507,345	1
507,797	1
508,249	1
508,7	1,01
509,151	1,01
509,603	1,02
510,054	1,02
510,506	1,02
510,957	1,03
511,408	1,03
511,86	1,04
512,311	1,04
512,762	1,04
513,213	1,05
513,665	1,05
514,116	1,05
514,567	1,06
515,018	1,06
515,469	1,06
515,92	1,06
516,371	1,07
516,822	1,07
517,273	1,07
517,724	1,08
518,175	1,08
518,626	1,08
519,076	1,08
519,527	1,09
519,978	1,09
520,429	1,09
520,88	1,09
521,33	1,09
521,781	1,1
522,232	1,1
522,682	1,1
523,133	1,1
523,583	1,1
524,034	1,11
524,484	1,11
524,935	1,11
525,385	1,11
525,836	1,11
526,286	1,11
526,736	1,11
527,187	1,11
527,637	1,11
528,087	1,11
528,538	1,1
528,988	1,1
529,438	1,1
529,888	1,1
530,338	1,1
530,788	1,1
531,238	1,1
531,688	1,1
532,139	1,1
532,589	1,1
533,038	1,09
533,488	1,09
533,938	1,09
534,388	1,09
534,838	1,09
535,288	1,08
535,738	1,08
536,187	1,08
536,637	1,07
537,087	1,07
537,537	1,06
537,986	1,06
538,436	1,06
538,885	1,05
539,335	1,05
539,785	1,04
540,234	1,04
540,684	1,03
541,133	1,03
541,582	1,02
542,032	1,02
542,481	1,01
542,931	1,01
543,38	1
543,829	1
544,278	0,99
544,728	0,99
545,177	0,99
545,626	0,98
546,075	0,98
546,524	0,97
546,973	0,97
547,422	0,97
547,871	0,96
548,32	0,96
548,769	0,96
549,218	0,95
549,667	0,95
550,116	0,94
550,565	0,94
551,014	0,93
551,463	0,93
551,911	0,93
552,36	0,92
552,809	0,92
553,258	0,91
553,706	0,91
554,155	0,9
554,603	0,9
555,052	0,9
555,501	0,89
555,949	0,89
556,398	0,88
556,846	0,88
557,294	0,87
557,743	0,87
558,191	0,86
558,64	0,86
559,088	0,85
559,536	0,85
559,985	0,84
560,433	0,84
560,881	0,83
561,329	0,83
561,777	0,82
562,225	0,82
562,674	0,82
563,122	0,81
563,57	0,81
564,018	0,8
564,466	0,8
564,914	0,8
565,362	0,79
565,809	0,79
566,257	0,78
566,705	0,78
567,153	0,78
567,601	0,77
568,048	0,77
568,496	0,76
568,944	0,76
569,392	0,76
569,839	0,75
570,287	0,75
570,734	0,75
571,182	0,74
571,63	0,74
572,077	0,74
572,525	0,73
572,972	0,73
573,419	0,73
573,867	0,72
574,314	0,72
574,761	0,71
575,209	0,71
575,656	0,71
576,103	0,7
576,551	0,7
576,998	0,7
577,445	0,7
577,892	0,69
578,339	0,69
578,786	0,69
579,233	0,68
579,68	0,68
580,127	0,68
580,574	0,67
581,021	0,67
581,468	0,67
581,915	0,67
582,362	0,66
582,809	0,66
583,255	0,66
583,702	0,66
584,149	0,66
584,596	0,65
585,042	0,65
585,489	0,65
585,936	0,64
586,382	0,64
586,829	0,64
587,275	0,64
587,722	0,64
588,168	0,63
588,615	0,63
589,061	0,63
589,508	0,63
589,954	0,63
590,4	0,62
590,847	0,62
591,293	0,62
591,739	0,62
592,185	0,62
592,632	0,61
593,078	0,61
593,524	0,61
593,97	0,61
594,416	0,61
594,862	0,61
595,308	0,61
595,754	0,6
596,2	0,6
596,646	0,6
597,092	0,6
597,538	0,6
597,984	0,6
598,43	0,59
598,876	0,59
599,321	0,59
599,767	0,59
600,213	0,59
600,659	0,59
601,104	0,59
601,55	0,59
601,995	0,58
602,441	0,58
602,887	0,58
603,332	0,58
603,778	0,58
604,223	0,58
604,668	0,58
605,114	0,57
605,559	0,57
606,005	0,57
606,45	0,57
606,895	0,57
607,341	0,57
607,786	0,57
608,231	0,57
608,676	0,56
609,121	0,56
609,566	0,55
610,012	0,55
610,457	0,54
610,902	0,54
611,347	0,54
611,792	0,53
612,237	0,53
612,682	0,53
613,127	0,53
613,571	0,53
614,016	0,54
614,461	0,54
614,906	0,54
615,351	0,54
615,795	0,54
616,24	0,54
616,685	0,54
617,129	0,54
617,574	0,54
618,019	0,54
618,463	0,54
618,908	0,54
619,352	0,54
619,797	0,54
620,241	0,54
620,686	0,54
621,13	0,54
621,574	0,54
622,019	0,53
622,463	0,53
622,907	0,53
623,352	0,53
623,796	0,53
624,24	0,53
624,684	0,53
625,128	0,53
625,572	0,53
626,016	0,53
626,461	0,53
626,905	0,53
627,349	0,53
627,793	0,53
628,236	0,53
628,68	0,53
629,124	0,53
629,568	0,53
630,012	0,52
630,456	0,52
630,9	0,52
631,343	0,52
631,787	0,52
632,231	0,52
632,674	0,52
633,118	0,52
633,562	0,52
634,005	0,52
634,449	0,52
634,892	0,52
635,336	0,52
635,779	0,52
636,223	0,52
636,666	0,52
637,109	0,52
637,553	0,52
637,996	0,52
638,439	0,52
638,883	0,52
639,326	0,52
639,769	0,52
640,212	0,52
640,655	0,52
641,099	0,52
641,542	0,51
641,985	0,51
642,428	0,51
642,871	0,51
643,314	0,51
643,757	0,51
644,2	0,51
644,643	0,51
645,085	0,51
645,528	0,51
645,971	0,51
646,414	0,51
646,857	0,51
647,299	0,51
647,742	0,51
648,185	0,51
648,627	0,51
649,07	0,51
649,513	0,5
649,955	0,5
650,398	0,5
650,84	0,51
651,283	0,51
651,725	0,51
652,168	0,51
652,61	0,51
653,052	0,51
653,495	0,51
653,937	0,42
654,379	0,36
654,821	0,37
655,264	0,37
655,706	0,37
656,148	0,37
656,59	0,37
657,032	0,37
657,474	0,37
657,916	0,37
658,358	0,36
658,8	0,42
659,242	0,5
659,684	0,5
660,126	0,5
660,568	0,5
661,01	0,5
661,452	0,5
661,894	0,5
662,335	0,5
662,777	0,5
663,219	0,5
663,661	0,5
664,102	0,5
664,544	0,5
664,985	0,5
665,427	0,5
665,869	0,5
666,31	0,5
666,752	0,5
667,193	0,5
667,634	0,5
668,076	0,5
668,517	0,5
668,959	0,5
669,4	0,5
669,841	0,5
670,282	0,5
670,724	0,5
671,165	0,5
671,606	0,5
672,047	0,5
672,488	0,5
672,929	0,5
673,37	0,5
673,811	0,5
674,252	0,49
674,693	0,49
675,134	0,49
675,575	0,49
676,016	0,49
676,457	0,49
676,898	0,49
677,339	0,49
677,78	0,49
678,22	0,48
678,661	0,48
679,102	0,48
679,542	0,49
679,983	0,49
680,424	0,49
680,864	0,49
681,305	0,49
681,745	0,49
682,186	0,49
682,626	0,49
683,067	0,49
683,507	0,49
683,948	0,49
684,388	0,49
684,828	0,49
685,269	0,49
685,709	0,49
686,149	0,49
686,589	0,48
687,029	0,48
687,47	0,48
687,91	0,48
688,35	0,48
688,79	0,48
689,23	0,48
689,67	0,48
690,11	0,48
690,55	0,48
690,99	0,48
691,43	0,48
691,87	0,48
692,31	0,48
692,749	0,47
693,189	0,47
693,629	0,47
694,069	0,47
694,508	0,47
694,948	0,47
695,388	0,47
695,827	0,47
696,267	0,47
696,706	0,47
697,146	0,47
697,586	0,47
698,025	0,47
698,464	0,48
698,904	0,48
699,343	0,48
699,783	0,48
700,222	0,48
700,661	0,48
701,101	0,48
701,54	0,48
701,979	0,48
702,418	0,48
702,857	0,48
703,297	0,48
703,736	0,48
704,175	0,48
704,614	0,48
705,053	0,48
705,492	0,48
705,931	0,48
706,37	0,47
706,809	0,47
707,248	0,47
707,687	0,47
708,125	0,47
708,564	0,47
709,003	0,47
709,442	0,47
709,88	0,47
710,319	0,47
710,758	0,47
711,196	0,47
711,635	0,47
712,074	0,47
712,512	0,47
712,951	0,46
713,389	0,46
713,828	0,46
714,266	0,46
714,705	0,46
715,143	0,46
715,581	0,46
716,02	0,46
716,458	0,46
716,896	0,46
717,334	0,46
717,773	0,46
718,211	0,46
718,649	0,46
719,087	0,47
719,525	0,47
719,963	0,47
720,401	0,47
720,839	0,47
721,277	0,47
721,715	0,47
722,153	0,47
722,591	0,47
723,029	0,47
723,467	0,47
723,905	0,47
724,342	0,47
724,78	0,47
725,218	0,47
725,656	0,47
726,093	0,47
726,531	0,47
726,969	0,47
727,406	0,47
727,844	0,47
728,281	0,47
728,719	0,47
729,156	0,46
729,594	0,46
730,031	0,46
730,469	0,46
730,906	0,46
731,343	0,46
731,781	0,46
732,218	0,46
732,655	0,46
733,092	0,46
733,53	0,46
733,967	0,45
734,404	0,45
734,841	0,45
735,278	0,45
735,715	0,45
736,152	0,45
736,589	0,45
737,026	0,45
737,463	0,45
737,9	0,45
738,337	0,45
738,774	0,45
739,211	0,45
739,647	0,45
740,084	0,45
740,521	0,45
740,958	0,45
741,394	0,45
741,831	0,45
742,268	0,45
742,704	0,45
743,141	0,45
743,577	0,45
744,014	0,45
744,45	0,45
744,887	0,45
745,323	0,45
745,76	0,44
746,196	0,44
746,632	0,44
747,069	0,44
747,505	0,44
747,941	0,44
748,378	0,44
748,814	0,44
749,25	0,44
749,686	0,44
750,122	0,44
750,558	0,44
750,994	0,45
751,43	0,45
751,866	0,45
752,302	0,45
752,738	0,45
753,174	0,45
753,61	0,45
754,046	0,45
754,482	0,45
754,918	0,45
755,354	0,45
755,789	0,45
756,225	0,45
756,661	0,44
757,096	0,44
757,532	0,44
757,968	0,44
758,403	0,44
758,839	0,43
759,274	0,43
759,71	0,43
760,145	0,42
760,581	0,42
761,016	0,41
761,452	0,41
761,887	0,4
762,322	0,4
762,758	0,39
763,193	0,39
763,628	0,38
764,063	0,37
764,499	0,36
764,934	0,36
765,369	0,35
765,804	0,34
766,239	0,34
766,674	0,33
767,109	0,32
767,544	0,32
767,979	0,3
768,414	0,29
768,849	0,28
769,284	0,28
769,719	0,27
770,154	0,26
770,588	0,26
771,023	0,25
771,458	0,23
771,893	0,22
772,327	0,21
772,762	0,2
773,197	0,19
773,631	0,18
774,066	0,17
774,5	0,16
774,935	0,15
775,369	0,14
775,804	0,12
776,238	0,11
776,673	0,1
777,107	0,09
777,541	0,08
777,976	0,07
778,41	0,07
778,844	0,06
779,279	0,06
779,713	0,05
780,147	0,04
780,581	0,03
781,015	0,02
781,449	0
781,883	-0
782,317	-0,02
782,751	-0,03
783,185	-0,04
783,619	-0,05
784,053	-0,06
784,487	-0,07
784,921	-0,08
785,355	-0,09
785,789	-0,1
786,223	-0,1
786,656	-0,11
787,09	-0,12
787,524	-0,13
787,957	-0,14
788,391	-0,16
788,825	-0,18
789,258	-0,2
789,692	-0,21
790,125	-0,22
790,559	-0,24
790,992	-0,26
791,426	-0,28
791,859	-0,3
792,293	-0,33
792,726	-0,35
793,159	-0,37
793,593	-0,39
794,026	-0,4
794,459	-0,44
794,892	-0,47
795,326	-0,49
795,759	-0,53
796,192	-0,57
796,625	-0,62
797,058	-0,64
797,491	-0,68
797,924	-0,72
798,357	-0,77
798,79	-0,82
799,223	-0,86
799,656	-0,91
800,089	-0,96
800,522	-1
800,955	-1,04
801,387	-1,1
801,82	-1,16
802,253	-1,22
802,686	-1,3
803,118	-1,36
803,551	-1,41
803,984	-1,45
804,416	-1,49
804,849	-1,53
805,281	-1,68
805,714	-2,08
806,146	-2,49
806,579	-2,73
807,011	-2,89
807,444	-2,98
807,876	-3,06
808,308	-3,09
808,741	-3,12
809,173	-3,17
809,605	-3,19
810,037	-3,27
810,47	-3,18
810,902	-2,97
811,334	-2,82
811,766	-2,66
812,198	-2,4
812,63	-1,98
813,062	-1,78
813,494	-1,69
813,926	-1,6
814,358	-1,55
814,79	-1,47
815,222	-1,41
815,654	-1,36
816,086	-1,3
816,518	-1,24
816,949	-1,19
817,381	-1,14
817,813	-1,13
818,245	-1,09
818,676	-1,05
819,108	-1,01
819,54	-1
819,971	-0,98
820,403	-0,93
820,834	-0,92
821,266	-0,87
821,697	-0,85
822,129	-0,83
822,56	-0,81
822,991	-0,78
823,423	-0,76
823,854	-0,75
824,286	-0,72
824,717	-0,71
825,148	-0,69
825,579	-0,68
826,01	-0,67
826,442	-0,67
826,873	-0,65
827,304	-0,62
827,735	-0,61
828,166	-0,62
828,597	-0,62
829,028	-0,61
829,459	-0,62
829,89	-0,63
830,321	-0,58
830,752	-0,58
831,183	-0,58
831,613	-0,57
832,044	-0,57
832,475	-0,56
832,906	-0,58
833,336	-0,57
833,767	-0,58
834,198	-0,57
834,628	-0,54
835,059	-0,57
835,49	-0,58
835,92	-0,55
836,351	-0,55
836,781	-0,55
837,212	-0,56
837,642	-0,55
838,072	-0,54
838,503	-0,55
838,933	-0,52
839,364	-0,53
839,794	-0,51
840,224	-0,51
840,654	-0,55
841,085	-0,56
841,515	-0,53
841,945	-0,53
842,375	-0,48
842,805	-0,48
843,235	-0,46
843,665	-0,48
844,095	-0,46
844,525	-0,48
844,955	-0,48
845,385	-0,47
845,815	-0,45
846,245	-0,48
846,675	-0,49
847,105	-0,51
847,534	-0,51
847,964	-0,5
848,394	-0,49
848,824	-0,52
849,253	-0,52
849,683	-0,52
850,112	-0,52
850,542	-0,55
850,972	-0,56
851,401	-0,54
851,831	-0,52
852,26	-0,52
852,69	-0,56
853,119	-0,55
853,548	-0,55
853,978	-0,56
854,407	-0,54
854,836	-0,54
855,266	-0,53
855,695	-0,55
856,124	-0,55
856,553	-0,56
856,983	-0,57
857,412	-0,56
857,841	-0,58
858,27	-0,58
858,699	-0,58
859,128	-0,61
859,557	-0,62
859,986	-0,64
860,415	-0,61
860,844	-0,59
861,273	-0,59
861,702	-0,59
862,13	-0,58
862,559	-0,59
862,988	-0,57
863,417	-0,56
863,845	-0,56
864,274	-0,57
864,703	-0,56
865,131	-0,56
865,56	-0,58
865,989	-0,61
866,417	-0,58
866,846	-0,58
867,274	-0,57
867,703	-0,6
868,131	-0,6
868,559	-0,6
868,988	-0,62
869,416	-0,62
869,844	-0,63
870,273	-0,65
870,701	-0,63
871,129	-0,67
871,557	-0,69
871,986	-0,69
872,414	-0,7
872,842	-0,66
873,27	-0,65
873,698	-0,61
874,126	-0,64
874,554	-0,63
874,982	-0,63
875,41	-0,66
875,838	-0,61
876,266	-0,59
876,694	-0,59
877,122	-0,58
877,549	-0,64
877,977	-0,61
878,405	-0,64
878,833	-0,61
879,26	-0,59
879,688	-0,6
880,116	-0,57
880,543	-0,55
880,971	-0,55
881,399	-0,58
881,826	-0,58
882,254	-0,56
882,681	-0,6
883,109	-0,55
883,536	-0,57
883,963	-0,59
884,391	-0,57
884,818	-0,56
885,245	-0,6
885,673	-0,61
886,1	-0,57
886,527	-0,58
886,954	-0,55
887,381	-0,56
887,809	-0,57
888,236	-0,59
888,663	-0,59
889,09	-0,63
889,517	-0,65
889,944	-0,64
890,371	-0,63
890,798	-0,64
891,225	-0,64
891,652	-0,67
892,078	-0,63
892,505	-0,67
892,932	-0,62
893,359	-0,62
893,786	-0,61
894,212	-0,58
894,639	-0,59
895,066	-0,61
895,492	-0,56
895,919	-0,57
896,346	-0,56
896,772	-0,58
897,199	-0,54
897,625	-0,57
898,052	-0,54
898,478	-0,53
898,904	-0,54
899,331	-0,54
899,757	-0,55
900,183	-0,58
900,61	-0,56
901,036	-0,56
901,462	-0,55
901,888	-0,55
902,315	-0,53
902,741	-0,59
903,167	-0,58
903,593	-0,61
904,019	-0,6
904,445	-0,57
904,871	-0,6
905,297	-0,61
905,723	-0,6
906,149	-0,6
906,575	-0,61
907,001	-0,61
907,427	-0,57
907,852	-0,56
908,278	-0,57
908,704	-0,55
909,13	-0,54
909,555	-0,53
909,981	-0,52
910,407	-0,52
910,832	-0,52
911,258	-0,52
911,684	-0,54
912,109	-0,53
912,535	-0,55
912,96	-0,5
913,386	-0,54
913,811	-0,53
914,236	-0,54
914,662	-0,52
915,087	-0,57
915,512	-0,57
915,938	-0,59
916,363	-0,57
916,788	-0,6
917,213	-0,57
917,639	-0,62
918,064	-0,59
918,489	-0,61
918,914	-0,61
919,339	-0,63
919,764	-0,6
920,189	-0,59
920,614	-0,6
921,039	-0,61
921,464	-0,57
921,889	-0,59
922,314	-0,6
922,738	-0,63
923,163	-0,64
923,588	-0,63
924,013	-0,63
924,437	-0,62
924,862	-0,63
925,287	-0,59
925,711	-0,6
926,136	-0,62
926,561	-0,61
926,985	-0,59
927,41	-0,56
927,834	-0,54
928,259	-0,52
928,683	-0,5
929,108	-0,47
929,532	-0,49
929,956	-0,48
930,381	-0,47
930,805	-0,47
931,229	-0,46
931,653	-0,44
932,078	-0,44
932,502	-0,46
932,926	-0,47
933,35	-0,48
933,774	-0,48
934,198	-0,46
934,622	-0,44
935,046	-0,45
935,47	-0,46
935,894	-0,45
936,318	-0,45
936,742	-0,45
937,166	-0,45
937,59	-0,44
938,014	-0,46
938,437	-0,46
938,861	-0,48
939,285	-0,49
939,709	-0,49
940,132	-0,49
940,556	-0,5
940,98	-0,5
941,403	-0,49
941,827	-0,49
942,25	-0,5
942,674	-0,48
943,097	-0,48
943,521	-0,48
943,944	-0,49
944,368	-0,48
944,791	-0,47
945,214	-0,49
945,638	-0,5
946,061	-0,53
946,484	-0,54
946,907	-0,53
947,331	-0,52
947,754	-0,56
948,177	-0,54
948,6	-0,54
949,023	-0,53
949,446	-0,53
949,869	-0,51
950,292	-0,51
950,715	-0,48
951,138	-0,46
951,561	-0,44
951,984	-0,44
952,407	-0,43
952,83	-0,41
953,252	-0,37
953,675	-0,37
954,098	-0,37
954,521	-0,36
954,943	-0,35
955,366	-0,37
955,789	-0,35
956,211	-0,37
956,634	-0,36
957,056	-0,34
957,479	-0,36
957,902	-0,38
958,324	-0,39
958,746	-0,38
959,169	-0,38
959,591	-0,38
960,014	-0,39
960,436	-0,38
960,858	-0,38
961,281	-0,38
961,703	-0,4
962,125	-0,39
962,547	-0,37
962,969	-0,37
963,391	-0,37
963,814	-0,38
964,236	-0,37
964,658	-0,34
965,08	-0,35
965,502	-0,34
965,924	-0,32
966,346	-0,32
966,768	-0,31
967,189	-0,33
967,611	-0,32
968,033	-0,32
968,455	-0,3
968,877	-0,31
969,298	-0,31
969,72	-0,33
970,142	-0,31
970,563	-0,32
970,985	-0,31
971,407	-0,29
971,828	-0,27
972,25	-0,27
972,671	-0,26
973,093	-0,26
973,514	-0,24
973,936	-0,23
974,357	-0,21
974,778	-0,22
975,2	-0,21
975,621	-0,21
976,042	-0,19
976,464	-0,18
976,885	-0,17
977,306	-0,17
977,727	-0,16
978,148	-0,16
978,57	-0,15
978,991	-0,13
979,412	-0,12
979,833	-0,11
980,254	-0,1
980,675	-0,1
981,096	-0,09
981,517	-0,08
981,937	-0,07
982,358	-0,06
982,779	-0,04
983,2	-0,04
983,621	-0,03
984,042	-0,02
984,462	-0
984,883	0,02
985,304	0,03
985,724	0,05
986,145	0,06
986,565	0,08
986,986	0,09
987,407	0,11
987,827	0,13
988,248	0,15
988,668	0,16
989,088	0,16
989,509	0,17
989,929	0,18
990,35	0,19
990,77	0,21
991,19	0,22
991,61	0,23
992,031	0,23
992,451	0,24
992,871	0,25
993,291	0,26
993,711	0,27
994,131	0,28
994,551	0,29
994,971	0,3
995,391	0,3
995,811	0,31
996,231	0,32
996,651	0,33
997,071	0,34
997,491	0,34
997,911	0,35
998,331	0,36
998,75	0,36
999,17	0,37
999,59	0,38
1000,009	0,38
1000,429	0,38
1000,849	0,39
1001,268	0,39
1001,688	0,4
1002,107	0,4
1002,527	0,41
1002,946	0,41
1003,366	0,41
1003,785	0,42
1004,205	0,42
1004,624	0,42
1005,044	0,43
1005,463	0,43
1005,882	0,43
1006,301	0,43
1006,721	0,43
1007,14	0,44
1007,559	0,44
1007,978	0,44
1008,397	0,44
1008,816	0,44
1009,235	0,44
1009,655	0,44
1010,074	0,44
1010,492	0,44
1010,911	0,44
1011,33	0,44
1011,749	0,44
1012,168	0,44
1012,587	0,44
1013,006	0,44
1013,425	0,43
1013,843	0,43
1014,262	0,43
1014,681	0,43
1015,099	0,43
1015,518	0,43
1015,937	0,43
1016,355	0,43
1016,774	0,43
1017,192	0,43
1017,611	0,43
1018,029	0,43
1018,448	0,43
1018,866	0,43
1019,285	0,43
1019,703	0,43
1020,121	0,43
1020,54	0,43
1020,958	0,43
1021,376	0,43
1021,794	0,42
1022,213	0,42
1022,631	0,42
1023,049	0,42
1023,467	0,42
1023,885	0,42
1024,303	0,42
1024,721	0,42
1025,139	0,42
1025,557	0,42
1025,975	0,42
1026,393	0,42
1026,811	0,42
1027,229	0,41
1027,647	0,41
1028,065	0,41
1028,482	0,41
1028,9	0,41
1029,318	0,41
1029,735	0,41
1030,153	0,41
1030,571	0,41
1030,988	0,41
1031,406	0,41
1031,823	0,41
1032,241	0,41
1032,659	0,41
1033,076	0,41
1033,493	0,41
1033,911	0,42
1034,328	0,41
1034,746	0,41
1035,163	0,42
1035,58	0,42
1035,997	0,42
1036,415	0,42
1036,832	0,42
1037,249	0,42
1037,666	0,42
1038,083	0,42
1038,501	0,42
1038,918	0,42
1039,335	0,42
1039,752	0,42
1040,169	0,42
1040,586	0,42
1041,003	0,42
1041,419	0,42
1041,836	0,42
1042,253	0,42
1042,67	0,42
1043,087	0,42
1043,504	0,42
1043,92	0,42
1044,337	0,42
1044,754	0,42
1045,17	0,42
1045,587	0,42
1046,004	0,41
1046,42	0,41
1046,837	0,41
1047,253	0,41
1047,67	0,42
1048,086	0,42
1048,503	0,42
1048,919	0,42
1049,335	0,42
1049,752	0,42
1050,168	0,42
1050,584	0,42
1051,001	0,42
1051,417	0,42
1051,833	0,42
1052,249	0,42
1052,665	0,42
1053,081	0,42
1053,497	0,42
1053,914	0,42
1054,33	0,42
1054,746	0,42
1055,162	0,42
1055,578	0,42
1055,993	0,43
1056,409	0,43
1056,825	0,43
1057,241	0,43
1057,657	0,43
1058,073	0,43
1058,488	0,43
1058,904	0,43
1059,32	0,43
1059,736	0,43
1060,151	0,43
1060,567	0,43
1060,982	0,43
1061,398	0,42
1061,813	0,42
1062,229	0,42
1062,644	0,42
1063,06	0,42
1063,475	0,42
1063,891	0,42
1064,306	0,42
1064,721	0,42
1065,137	0,42
1065,552	0,42
1065,967	0,42
1066,382	0,42
1066,798	0,42
1067,213	0,42
1067,628	0,42
1068,043	0,42
1068,458	0,42
1068,873	0,42
1069,288	0,42
1069,703	0,42
1070,118	0,42
1070,533	0,42
1070,948	0,42
1071,363	0,42
1071,778	0,42
1072,193	0,42
1072,607	0,42
1073,022	0,42
1073,437	0,42
1073,852	0,42
1074,266	0,42
1074,681	0,42
1075,096	0,42
1075,51	0,41
1075,925	0,42
1076,339	0,41
1076,754	0,41
1077,168	0,41
1077,583	0,41
1077,997	0,41
1078,412	0,41
1078,826	0,41
1079,24	0,41
1079,655	0,41
1080,069	0,41
1080,483	0,41
1080,897	0,41
1081,312	0,41
1081,726	0,41
1082,14	0,41
1082,554	0,41
1082,968	0,41
1083,382	0,41
1083,796	0,41
1084,21	0,41
1084,624	0,41
1085,038	0,4
1085,452	0,4
1085,866	0,4
1086,28	0,4
1086,694	0,4
1087,108	0,4
1087,521	0,4
1087,935	0,39
1088,349	0,39
1088,763	0,39
1089,176	0,38
1089,59	0,38
1090,004	0,38
1090,417	0,37
1090,831	0,37
1091,244	0,37
1091,658	0,37
1092,071	0,36
1092,485	0,36
1092,898	0,36
1093,312	0,36
1093,725	0,36
1094,138	0,35
1094,552	0,35
1094,965	0,35
1095,378	0,35
1095,791	0,34
1096,205	0,34
1096,618	0,34
1097,031	0,33
1097,444	0,33
1097,857	0,33
1098,27	0,33
1098,683	0,32
1099,096	0,32
1099,509	0,31
1099,922	0,31
1100,335	0,31
1100,748	0,3
1101,161	0,3
1101,574	0,29
1101,986	0,29
1102,399	0,29
1102,812	0,28
1103,225	0,28
1103,637	0,28
1104,05	0,27
1104,463	0,27
1104,875	0,26
1105,288	0,26
1105,7	0,25
1106,113	0,25
1106,525	0,25
1106,938	0,24
1107,35	0,24
1107,763	0,24
1108,175	0,24
1108,588	0,23
1109	0,23
1109,412	0,23
1109,824	0,23
1110,237	0,23
1110,649	0,23
1111,061	0,24
