Data from 18C-808nm-8A-cont_Absorbance__379__01808.txt Node

Date: Mon Jul 17 17:32:23 CEST 2023
User: Laser008
Spectrometer: MAYP115816
Trigger mode: 0
Integration Time (sec): 2,500000E-1
Scans to average: 10
Electric dark correction enabled: true
Nonlinearity correction enabled: true
Boxcar width: 5
XAxis mode: Wavelengths
Number of Pixels in Spectrum: 2068
>>>>>Begin Spectral Data<<<<<
198,914	-0,68
199,384	-0,48
199,855	-0,36
200,325	-0,26
200,796	-0,23
201,266	-0,18
201,737	-0,17
202,207	-0,15
202,677	-0,15
203,147	-0,13
203,618	-0,1
204,088	-0,09
204,558	-0,07
205,028	-0,06
205,498	-0,08
205,968	-0,07
206,439	-0,09
206,909	-0,08
207,379	-0,09
207,849	-0,09
208,319	-0,1
208,789	-0,1
209,258	-0,1
209,728	-0,12
210,198	-0,12
210,668	-0,12
211,138	-0,11
211,608	-0,11
212,077	-0,12
212,547	-0,11
213,017	-0,12
213,486	-0,12
213,956	-0,12
214,426	-0,14
214,895	-0,13
215,365	-0,14
215,834	-0,14
216,304	-0,15
216,773	-0,15
217,243	-0,17
217,712	-0,18
218,181	-0,18
218,651	-0,18
219,12	-0,18
219,589	-0,18
220,058	-0,17
220,528	-0,17
220,997	-0,18
221,466	-0,19
221,935	-0,19
222,404	-0,18
222,873	-0,17
223,342	-0,17
223,812	-0,17
224,281	-0,17
224,749	-0,17
225,218	-0,18
225,687	-0,19
226,156	-0,17
226,625	-0,15
227,094	-0,15
227,563	-0,16
228,031	-0,17
228,5	-0,16
228,969	-0,17
229,438	-0,16
229,906	-0,15
230,375	-0,15
230,844	-0,15
231,312	-0,15
231,781	-0,16
232,249	-0,15
232,718	-0,15
233,186	-0,13
233,655	-0,13
234,123	-0,13
234,591	-0,14
235,06	-0,13
235,528	-0,14
235,996	-0,13
236,465	-0,13
236,933	-0,12
237,401	-0,12
237,869	-0,12
238,337	-0,13
238,805	-0,12
239,274	-0,11
239,742	-0,11
240,21	-0,12
240,678	-0,1
241,146	-0,1
241,614	-0,09
242,081	-0,09
242,549	-0,09
243,017	-0,09
243,485	-0,09
243,953	-0,09
244,421	-0,08
244,888	-0,09
245,356	-0,08
245,824	-0,08
246,291	-0,09
246,759	-0,1
247,227	-0,1
247,694	-0,09
248,162	-0,08
248,629	-0,07
249,097	-0,09
249,564	-0,1
250,032	-0,1
250,499	-0,1
250,967	-0,1
251,434	-0,1
251,901	-0,1
252,369	-0,09
252,836	-0,11
253,303	-0,13
253,77	-0,14
254,237	-0,13
254,705	-0,13
255,172	-0,12
255,639	-0,13
256,106	-0,16
256,573	-0,16
257,04	-0,16
257,507	-0,17
257,974	-0,17
258,441	-0,15
258,908	-0,15
259,375	-0,16
259,841	-0,17
260,308	-0,18
260,775	-0,17
261,242	-0,15
261,709	-0,16
262,175	-0,17
262,642	-0,16
263,109	-0,16
263,575	-0,17
264,042	-0,16
264,508	-0,15
264,975	-0,17
265,441	-0,17
265,908	-0,19
266,374	-0,18
266,841	-0,19
267,307	-0,19
267,773	-0,18
268,24	-0,18
268,706	-0,18
269,172	-0,19
269,639	-0,2
270,105	-0,19
270,571	-0,2
271,037	-0,19
271,503	-0,2
271,969	-0,2
272,435	-0,21
272,902	-0,22
273,368	-0,24
273,834	-0,24
274,3	-0,24
274,765	-0,24
275,231	-0,24
275,697	-0,22
276,163	-0,22
276,629	-0,22
277,095	-0,23
277,56	-0,22
278,026	-0,23
278,492	-0,21
278,958	-0,22
279,423	-0,22
279,889	-0,21
280,354	-0,22
280,82	-0,22
281,286	-0,23
281,751	-0,24
282,217	-0,23
282,682	-0,23
283,147	-0,22
283,613	-0,22
284,078	-0,22
284,544	-0,23
285,009	-0,25
285,474	-0,24
285,939	-0,25
286,405	-0,24
286,87	-0,23
287,335	-0,23
287,8	-0,21
288,265	-0,2
288,73	-0,22
289,195	-0,24
289,66	-0,23
290,125	-0,21
290,59	-0,21
291,055	-0,2
291,52	-0,2
291,985	-0,21
292,45	-0,22
292,915	-0,22
293,38	-0,22
293,844	-0,2
294,309	-0,18
294,774	-0,17
295,239	-0,19
295,703	-0,19
296,168	-0,18
296,632	-0,18
297,097	-0,16
297,562	-0,15
298,026	-0,16
298,491	-0,16
298,955	-0,16
299,419	-0,16
299,884	-0,16
300,348	-0,14
300,813	-0,13
301,277	-0,14
301,741	-0,14
302,205	-0,13
302,67	-0,13
303,134	-0,12
303,598	-0,12
304,062	-0,12
304,526	-0,12
304,99	-0,13
305,454	-0,13
305,919	-0,13
306,383	-0,13
306,847	-0,13
307,31	-0,14
307,774	-0,15
308,238	-0,15
308,702	-0,14
309,166	-0,16
309,63	-0,16
310,094	-0,13
310,557	-0,13
311,021	-0,13
311,485	-0,13
311,948	-0,11
312,412	-0,1
312,876	-0,1
313,339	-0,1
313,803	-0,1
314,266	-0,1
314,73	-0,1
315,193	-0,1
315,657	-0,09
316,12	-0,08
316,584	-0,07
317,047	-0,08
317,51	-0,06
317,973	-0,05
318,437	-0,04
318,9	-0,03
319,363	-0,03
319,826	-0,02
320,29	-0,02
320,753	-0,03
321,216	-0,02
321,679	-0,02
322,142	-0,01
322,605	-0,03
323,068	-0,04
323,531	-0,04
323,994	-0,04
324,457	-0,04
324,92	-0,04
325,382	-0,03
325,845	-0,03
326,308	-0,03
326,771	-0,03
327,233	-0,02
327,696	-0,01
328,159	-0,01
328,622	0
329,084	0
329,547	0,02
330,009	0,03
330,472	0,04
330,934	0,04
331,397	0,04
331,859	0,05
332,322	0,05
332,784	0,06
333,246	0,06
333,709	0,06
334,171	0,07
334,633	0,07
335,096	0,07
335,558	0,07
336,02	0,08
336,482	0,08
336,944	0,09
337,406	0,09
337,868	0,1
338,331	0,1
338,793	0,12
339,255	0,12
339,717	0,12
340,178	0,13
340,64	0,13
341,102	0,14
341,564	0,16
342,026	0,17
342,488	0,17
342,949	0,19
343,411	0,21
343,873	0,24
344,335	0,27
344,796	0,31
345,258	0,36
345,719	0,4
346,181	0,45
346,643	0,49
347,104	0,53
347,566	0,56
348,027	0,59
348,488	0,62
348,95	0,64
349,411	0,67
349,873	0,69
350,334	0,71
350,795	0,73
351,256	0,75
351,718	0,75
352,179	0,76
352,64	0,77
353,101	0,77
353,562	0,77
354,023	0,78
354,484	0,78
354,945	0,78
355,406	0,79
355,867	0,79
356,328	0,79
356,789	0,8
357,25	0,8
357,711	0,81
358,172	0,81
358,633	0,81
359,093	0,81
359,554	0,81
360,015	0,81
360,476	0,81
360,936	0,81
361,397	0,82
361,858	0,81
362,318	0,81
362,779	0,81
363,239	0,82
363,7	0,82
364,16	0,82
364,621	0,82
365,081	0,82
365,541	0,82
366,002	0,81
366,462	0,81
366,922	0,81
367,383	0,81
367,843	0,81
368,303	0,81
368,763	0,81
369,223	0,82
369,684	0,82
370,144	0,82
370,604	0,82
371,064	0,82
371,524	0,82
371,984	0,82
372,444	0,82
372,904	0,81
373,363	0,81
373,823	0,81
374,283	0,81
374,743	0,81
375,203	0,81
375,663	0,81
376,122	0,81
376,582	0,81
377,042	0,81
377,501	0,81
377,961	0,81
378,42	0,81
378,88	0,81
379,34	0,81
379,799	0,81
380,259	0,81
380,718	0,81
381,177	0,81
381,637	0,81
382,096	0,81
382,555	0,81
383,015	0,81
383,474	0,81
383,933	0,81
384,393	0,81
384,852	0,81
385,311	0,81
385,77	0,81
386,229	0,81
386,688	0,81
387,147	0,8
387,606	0,8
388,065	0,8
388,524	0,8
388,983	0,8
389,442	0,8
389,901	0,8
390,36	0,8
390,819	0,8
391,277	0,8
391,736	0,8
392,195	0,8
392,654	0,8
393,112	0,8
393,571	0,8
394,03	0,8
394,488	0,8
394,947	0,8
395,405	0,8
395,864	0,8
396,322	0,8
396,781	0,8
397,239	0,8
397,698	0,8
398,156	0,8
398,614	0,8
399,073	0,8
399,531	0,8
399,989	0,8
400,447	0,8
400,905	0,8
401,364	0,79
401,822	0,79
402,28	0,79
402,738	0,79
403,196	0,79
403,654	0,79
404,112	0,79
404,57	0,79
405,028	0,79
405,486	0,79
405,944	0,79
406,402	0,79
406,859	0,79
407,317	0,79
407,775	0,79
408,233	0,79
408,691	0,79
409,148	0,79
409,606	0,79
410,064	0,79
410,521	0,79
410,979	0,79
411,436	0,79
411,894	0,79
412,351	0,79
412,809	0,79
413,266	0,79
413,724	0,79
414,181	0,79
414,638	0,79
415,096	0,79
415,553	0,79
416,01	0,79
416,467	0,79
416,925	0,79
417,382	0,79
417,839	0,79
418,296	0,79
418,753	0,79
419,21	0,79
419,667	0,78
420,124	0,78
420,581	0,78
421,038	0,78
421,495	0,78
421,952	0,78
422,409	0,78
422,866	0,78
423,322	0,78
423,779	0,78
424,236	0,78
424,693	0,78
425,149	0,78
425,606	0,78
426,063	0,78
426,519	0,78
426,976	0,78
427,433	0,78
427,889	0,78
428,346	0,78
428,802	0,78
429,258	0,78
429,715	0,78
430,171	0,78
430,628	0,78
431,084	0,78
431,54	0,78
431,997	0,78
432,453	0,78
432,909	0,78
433,365	0,78
433,821	0,78
434,277	0,78
434,734	0,78
435,19	0,78
435,646	0,78
436,102	0,78
436,558	0,78
437,014	0,78
437,47	0,78
437,925	0,78
438,381	0,78
438,837	0,78
439,293	0,78
439,749	0,78
440,205	0,78
440,66	0,78
441,116	0,78
441,572	0,78
442,027	0,78
442,483	0,78
442,939	0,78
443,394	0,78
443,85	0,78
444,305	0,78
444,761	0,78
445,216	0,78
445,672	0,78
446,127	0,78
446,582	0,79
447,038	0,78
447,493	0,79
447,948	0,79
448,403	0,79
448,859	0,79
449,314	0,79
449,769	0,79
450,224	0,79
450,679	0,79
451,134	0,79
451,589	0,79
452,044	0,79
452,499	0,79
452,954	0,79
453,409	0,79
453,864	0,79
454,319	0,79
454,774	0,79
455,229	0,79
455,684	0,79
456,138	0,79
456,593	0,79
457,048	0,79
457,503	0,79
457,957	0,79
458,412	0,79
458,866	0,79
459,321	0,79
459,776	0,79
460,23	0,79
460,685	0,79
461,139	0,8
461,593	0,8
462,048	0,8
462,502	0,8
462,957	0,8
463,411	0,8
463,865	0,8
464,319	0,8
464,774	0,8
465,228	0,8
465,682	0,8
466,136	0,81
466,59	0,81
467,044	0,81
467,499	0,81
467,953	0,81
468,407	0,81
468,861	0,81
469,315	0,81
469,768	0,81
470,222	0,81
470,676	0,81
471,13	0,81
471,584	0,81
472,038	0,82
472,491	0,82
472,945	0,82
473,399	0,82
473,852	0,82
474,306	0,82
474,76	0,82
475,213	0,82
475,667	0,83
476,12	0,83
476,574	0,83
477,027	0,83
477,481	0,83
477,934	0,83
478,388	0,84
478,841	0,84
479,294	0,84
479,748	0,84
480,201	0,84
480,654	0,84
481,107	0,85
481,561	0,85
482,014	0,85
482,467	0,85
482,92	0,85
483,373	0,85
483,826	0,86
484,279	0,86
484,732	0,86
485,185	0,86
485,638	0,86
486,091	0,87
486,544	0,87
486,997	0,87
487,449	0,87
487,902	0,87
488,355	0,88
488,808	0,88
489,26	0,88
489,713	0,89
490,166	0,89
490,618	0,89
491,071	0,89
491,523	0,9
491,976	0,9
492,429	0,9
492,881	0,91
493,333	0,91
493,786	0,91
494,238	0,92
494,691	0,92
495,143	0,92
495,595	0,93
496,048	0,93
496,5	0,94
496,952	0,94
497,404	0,94
497,856	0,95
498,309	0,95
498,761	0,95
499,213	0,96
499,665	0,96
500,117	0,97
500,569	0,97
501,021	0,97
501,473	0,98
501,925	0,98
502,377	0,99
502,828	0,99
503,28	0,99
503,732	1
504,184	1
504,636	1,01
505,087	1,01
505,539	1,01
505,991	1,02
506,442	1,02
506,894	1,03
507,345	1,03
507,797	1,03
508,249	1,04
508,7	1,04
509,151	1,05
509,603	1,05
510,054	1,05
510,506	1,06
510,957	1,06
511,408	1,07
511,86	1,07
512,311	1,07
512,762	1,08
513,213	1,08
513,665	1,08
514,116	1,09
514,567	1,09
515,018	1,1
515,469	1,1
515,92	1,1
516,371	1,1
516,822	1,11
517,273	1,11
517,724	1,11
518,175	1,12
518,626	1,12
519,076	1,12
519,527	1,12
519,978	1,12
520,429	1,13
520,88	1,13
521,33	1,13
521,781	1,13
522,232	1,14
522,682	1,14
523,133	1,14
523,583	1,14
524,034	1,14
524,484	1,14
524,935	1,15
525,385	1,15
525,836	1,15
526,286	1,14
526,736	1,14
527,187	1,14
527,637	1,14
528,087	1,14
528,538	1,14
528,988	1,14
529,438	1,14
529,888	1,14
530,338	1,14
530,788	1,14
531,238	1,14
531,688	1,13
532,139	1,13
532,589	1,13
533,038	1,13
533,488	1,13
533,938	1,13
534,388	1,12
534,838	1,12
535,288	1,12
535,738	1,11
536,187	1,11
536,637	1,11
537,087	1,1
537,537	1,1
537,986	1,1
538,436	1,09
538,885	1,09
539,335	1,08
539,785	1,07
540,234	1,07
540,684	1,07
541,133	1,06
541,582	1,06
542,032	1,05
542,481	1,05
542,931	1,04
543,38	1,04
543,829	1,03
544,278	1,03
544,728	1,02
545,177	1,02
545,626	1,01
546,075	1,01
546,524	1
546,973	1
547,422	1
547,871	0,99
548,32	0,99
548,769	0,99
549,218	0,98
549,667	0,98
550,116	0,97
550,565	0,97
551,014	0,97
551,463	0,96
551,911	0,96
552,36	0,95
552,809	0,95
553,258	0,94
553,706	0,94
554,155	0,93
554,603	0,93
555,052	0,92
555,501	0,92
555,949	0,91
556,398	0,91
556,846	0,9
557,294	0,9
557,743	0,89
558,191	0,89
558,64	0,88
559,088	0,88
559,536	0,87
559,985	0,87
560,433	0,86
560,881	0,86
561,329	0,85
561,777	0,85
562,225	0,84
562,674	0,84
563,122	0,84
563,57	0,83
564,018	0,83
564,466	0,82
564,914	0,82
565,362	0,82
565,809	0,81
566,257	0,81
566,705	0,8
567,153	0,8
567,601	0,79
568,048	0,79
568,496	0,78
568,944	0,78
569,392	0,78
569,839	0,77
570,287	0,77
570,734	0,77
571,182	0,76
571,63	0,76
572,077	0,76
572,525	0,75
572,972	0,75
573,419	0,74
573,867	0,74
574,314	0,74
574,761	0,73
575,209	0,73
575,656	0,72
576,103	0,72
576,551	0,72
576,998	0,72
577,445	0,71
577,892	0,71
578,339	0,71
578,786	0,7
579,233	0,7
579,68	0,7
580,127	0,69
580,574	0,69
581,021	0,69
581,468	0,68
581,915	0,68
582,362	0,68
582,809	0,68
583,255	0,67
583,702	0,67
584,149	0,67
584,596	0,67
585,042	0,66
585,489	0,66
585,936	0,66
586,382	0,66
586,829	0,65
587,275	0,65
587,722	0,65
588,168	0,65
588,615	0,65
589,061	0,64
589,508	0,64
589,954	0,64
590,4	0,64
590,847	0,63
591,293	0,63
591,739	0,63
592,185	0,63
592,632	0,63
593,078	0,62
593,524	0,62
593,97	0,62
594,416	0,62
594,862	0,62
595,308	0,62
595,754	0,62
596,2	0,61
596,646	0,61
597,092	0,61
597,538	0,61
597,984	0,61
598,43	0,61
598,876	0,61
599,321	0,6
599,767	0,6
600,213	0,6
600,659	0,6
601,104	0,6
601,55	0,6
601,995	0,6
602,441	0,59
602,887	0,59
603,332	0,59
603,778	0,59
604,223	0,59
604,668	0,59
605,114	0,59
605,559	0,58
606,005	0,58
606,45	0,58
606,895	0,58
607,341	0,58
607,786	0,58
608,231	0,58
608,676	0,57
609,121	0,57
609,566	0,56
610,012	0,56
610,457	0,55
610,902	0,55
611,347	0,55
611,792	0,54
612,237	0,54
612,682	0,54
613,127	0,54
613,571	0,54
614,016	0,54
614,461	0,55
614,906	0,55
615,351	0,55
615,795	0,55
616,24	0,55
616,685	0,55
617,129	0,55
617,574	0,55
618,019	0,55
618,463	0,55
618,908	0,55
619,352	0,55
619,797	0,55
620,241	0,55
620,686	0,55
621,13	0,55
621,574	0,54
622,019	0,54
622,463	0,54
622,907	0,54
623,352	0,54
623,796	0,54
624,24	0,54
624,684	0,54
625,128	0,54
625,572	0,54
626,016	0,54
626,461	0,54
626,905	0,54
627,349	0,54
627,793	0,54
628,236	0,54
628,68	0,53
629,124	0,53
629,568	0,53
630,012	0,53
630,456	0,53
630,9	0,53
631,343	0,53
631,787	0,53
632,231	0,53
632,674	0,53
633,118	0,53
633,562	0,53
634,005	0,53
634,449	0,53
634,892	0,53
635,336	0,53
635,779	0,53
636,223	0,53
636,666	0,53
637,109	0,53
637,553	0,53
637,996	0,53
638,439	0,53
638,883	0,53
639,326	0,53
639,769	0,53
640,212	0,53
640,655	0,52
641,099	0,52
641,542	0,52
641,985	0,52
642,428	0,52
642,871	0,52
643,314	0,52
643,757	0,52
644,2	0,52
644,643	0,52
645,085	0,52
645,528	0,52
645,971	0,52
646,414	0,52
646,857	0,52
647,299	0,51
647,742	0,51
648,185	0,51
648,627	0,51
649,07	0,51
649,513	0,51
649,955	0,51
650,398	0,51
650,84	0,51
651,283	0,51
651,725	0,51
652,168	0,51
652,61	0,52
653,052	0,52
653,495	0,51
653,937	0,43
654,379	0,37
654,821	0,38
655,264	0,38
655,706	0,38
656,148	0,38
656,59	0,38
657,032	0,38
657,474	0,38
657,916	0,38
658,358	0,37
658,8	0,43
659,242	0,51
659,684	0,51
660,126	0,51
660,568	0,51
661,01	0,51
661,452	0,51
661,894	0,51
662,335	0,51
662,777	0,51
663,219	0,51
663,661	0,51
664,102	0,51
664,544	0,5
664,985	0,5
665,427	0,5
665,869	0,5
666,31	0,5
666,752	0,5
667,193	0,5
667,634	0,5
668,076	0,5
668,517	0,5
668,959	0,5
669,4	0,51
669,841	0,51
670,282	0,51
670,724	0,51
671,165	0,51
671,606	0,51
672,047	0,51
672,488	0,5
672,929	0,5
673,37	0,5
673,811	0,5
674,252	0,5
674,693	0,5
675,134	0,5
675,575	0,5
676,016	0,49
676,457	0,49
676,898	0,49
677,339	0,49
677,78	0,49
678,22	0,49
678,661	0,49
679,102	0,49
679,542	0,49
679,983	0,49
680,424	0,49
680,864	0,49
681,305	0,49
681,745	0,49
682,186	0,49
682,626	0,49
683,067	0,5
683,507	0,5
683,948	0,5
684,388	0,5
684,828	0,5
685,269	0,49
685,709	0,49
686,149	0,49
686,589	0,49
687,029	0,49
687,47	0,49
687,91	0,49
688,35	0,49
688,79	0,49
689,23	0,49
689,67	0,49
690,11	0,49
690,55	0,49
690,99	0,49
691,43	0,49
691,87	0,48
692,31	0,48
692,749	0,48
693,189	0,48
693,629	0,48
694,069	0,48
694,508	0,48
694,948	0,48
695,388	0,48
695,827	0,48
696,267	0,48
696,706	0,48
697,146	0,48
697,586	0,48
698,025	0,48
698,464	0,48
698,904	0,48
699,343	0,48
699,783	0,48
700,222	0,48
700,661	0,48
701,101	0,48
701,54	0,48
701,979	0,48
702,418	0,49
702,857	0,49
703,297	0,48
703,736	0,48
704,175	0,48
704,614	0,48
705,053	0,48
705,492	0,48
705,931	0,48
706,37	0,48
706,809	0,48
707,248	0,48
707,687	0,48
708,125	0,48
708,564	0,48
709,003	0,48
709,442	0,48
709,88	0,48
710,319	0,48
710,758	0,48
711,196	0,47
711,635	0,47
712,074	0,47
712,512	0,47
712,951	0,47
713,389	0,47
713,828	0,47
714,266	0,47
714,705	0,47
715,143	0,47
715,581	0,47
716,02	0,47
716,458	0,47
716,896	0,47
717,334	0,47
717,773	0,47
718,211	0,47
718,649	0,47
719,087	0,47
719,525	0,47
719,963	0,47
720,401	0,47
720,839	0,47
721,277	0,47
721,715	0,47
722,153	0,47
722,591	0,47
723,029	0,47
723,467	0,47
723,905	0,47
724,342	0,47
724,78	0,47
725,218	0,47
725,656	0,47
726,093	0,47
726,531	0,47
726,969	0,47
727,406	0,47
727,844	0,47
728,281	0,47
728,719	0,47
729,156	0,47
729,594	0,47
730,031	0,47
730,469	0,47
730,906	0,47
731,343	0,47
731,781	0,47
732,218	0,47
732,655	0,46
733,092	0,46
733,53	0,46
733,967	0,46
734,404	0,46
734,841	0,46
735,278	0,46
735,715	0,46
736,152	0,46
736,589	0,45
737,026	0,45
737,463	0,45
737,9	0,45
738,337	0,45
738,774	0,45
739,211	0,45
739,647	0,45
740,084	0,46
740,521	0,46
740,958	0,46
741,394	0,46
741,831	0,46
742,268	0,46
742,704	0,46
743,141	0,46
743,577	0,46
744,014	0,45
744,45	0,45
744,887	0,45
745,323	0,45
745,76	0,45
746,196	0,45
746,632	0,45
747,069	0,45
747,505	0,45
747,941	0,45
748,378	0,45
748,814	0,45
749,25	0,45
749,686	0,45
750,122	0,45
750,558	0,45
750,994	0,45
751,43	0,45
751,866	0,45
752,302	0,46
752,738	0,46
753,174	0,46
753,61	0,46
754,046	0,46
754,482	0,46
754,918	0,46
755,354	0,46
755,789	0,46
756,225	0,46
756,661	0,45
757,096	0,45
757,532	0,45
757,968	0,45
758,403	0,45
758,839	0,44
759,274	0,44
759,71	0,43
760,145	0,43
760,581	0,42
761,016	0,42
761,452	0,41
761,887	0,41
762,322	0,4
762,758	0,4
763,193	0,39
763,628	0,39
764,063	0,38
764,499	0,37
764,934	0,36
765,369	0,36
765,804	0,35
766,239	0,35
766,674	0,34
767,109	0,33
767,544	0,32
767,979	0,31
768,414	0,3
768,849	0,29
769,284	0,28
769,719	0,27
770,154	0,27
770,588	0,25
771,023	0,24
771,458	0,23
771,893	0,22
772,327	0,2
772,762	0,19
773,197	0,18
773,631	0,17
774,066	0,16
774,5	0,16
774,935	0,15
775,369	0,13
775,804	0,12
776,238	0,12
776,673	0,11
777,107	0,1
777,541	0,1
777,976	0,09
778,41	0,08
778,844	0,07
779,279	0,06
779,713	0,05
780,147	0,04
780,581	0,04
781,015	0,02
781,449	0,01
781,883	0,01
782,317	-0,01
782,751	-0,02
783,185	-0,03
783,619	-0,03
784,053	-0,04
784,487	-0,04
784,921	-0,05
785,355	-0,06
785,789	-0,07
786,223	-0,08
786,656	-0,09
787,09	-0,1
787,524	-0,11
787,957	-0,12
788,391	-0,14
788,825	-0,17
789,258	-0,18
789,692	-0,2
790,125	-0,21
790,559	-0,23
790,992	-0,25
791,426	-0,27
791,859	-0,29
792,293	-0,32
792,726	-0,34
793,159	-0,36
793,593	-0,37
794,026	-0,4
794,459	-0,43
794,892	-0,46
795,326	-0,48
795,759	-0,52
796,192	-0,57
796,625	-0,61
797,058	-0,64
797,491	-0,68
797,924	-0,72
798,357	-0,77
798,79	-0,81
799,223	-0,85
799,656	-0,9
800,089	-0,95
800,522	-0,99
800,955	-1,03
801,387	-1,09
801,82	-1,14
802,253	-1,21
802,686	-1,29
803,118	-1,34
803,551	-1,4
803,984	-1,44
804,416	-1,48
804,849	-1,51
805,281	-1,65
805,714	-2,02
806,146	-2,47
806,579	-2,72
807,011	-2,88
807,444	-2,97
807,876	-3,05
808,308	-3,08
808,741	-3,11
809,173	-3,16
809,605	-3,18
810,037	-3,26
810,47	-3,17
810,902	-2,97
811,334	-2,82
811,766	-2,66
812,198	-2,4
812,63	-1,97
813,062	-1,77
813,494	-1,68
813,926	-1,59
814,358	-1,54
814,79	-1,46
815,222	-1,4
815,654	-1,35
816,086	-1,29
816,518	-1,23
816,949	-1,18
817,381	-1,14
817,813	-1,12
818,245	-1,08
818,676	-1,04
819,108	-1
819,54	-0,99
819,971	-0,97
820,403	-0,92
820,834	-0,9
821,266	-0,86
821,697	-0,84
822,129	-0,83
822,56	-0,8
822,991	-0,78
823,423	-0,76
823,854	-0,75
824,286	-0,72
824,717	-0,71
825,148	-0,7
825,579	-0,69
826,01	-0,68
826,442	-0,67
826,873	-0,65
827,304	-0,62
827,735	-0,61
828,166	-0,61
828,597	-0,61
829,028	-0,6
829,459	-0,61
829,89	-0,62
830,321	-0,57
830,752	-0,58
831,183	-0,57
831,613	-0,56
832,044	-0,56
832,475	-0,55
832,906	-0,57
833,336	-0,56
833,767	-0,57
834,198	-0,56
834,628	-0,55
835,059	-0,57
835,49	-0,58
835,92	-0,57
836,351	-0,57
836,781	-0,58
837,212	-0,59
837,642	-0,59
838,072	-0,57
838,503	-0,57
838,933	-0,55
839,364	-0,55
839,794	-0,53
840,224	-0,52
840,654	-0,55
841,085	-0,56
841,515	-0,53
841,945	-0,52
842,375	-0,48
842,805	-0,47
843,235	-0,46
843,665	-0,47
844,095	-0,46
844,525	-0,48
844,955	-0,48
845,385	-0,46
845,815	-0,45
846,245	-0,47
846,675	-0,48
847,105	-0,5
847,534	-0,5
847,964	-0,49
848,394	-0,48
848,824	-0,51
849,253	-0,5
849,683	-0,5
850,112	-0,51
850,542	-0,53
850,972	-0,53
851,401	-0,51
851,831	-0,49
852,26	-0,5
852,69	-0,54
853,119	-0,53
853,548	-0,53
853,978	-0,54
854,407	-0,52
854,836	-0,53
855,266	-0,51
855,695	-0,53
856,124	-0,54
856,553	-0,55
856,983	-0,58
857,412	-0,56
857,841	-0,57
858,27	-0,58
858,699	-0,58
859,128	-0,61
859,557	-0,62
859,986	-0,63
860,415	-0,61
860,844	-0,58
861,273	-0,58
861,702	-0,59
862,13	-0,58
862,559	-0,59
862,988	-0,57
863,417	-0,56
863,845	-0,55
864,274	-0,56
864,703	-0,56
865,131	-0,56
865,56	-0,57
865,989	-0,6
866,417	-0,58
866,846	-0,58
867,274	-0,57
867,703	-0,59
868,131	-0,6
868,559	-0,6
868,988	-0,62
869,416	-0,62
869,844	-0,63
870,273	-0,65
870,701	-0,62
871,129	-0,65
871,557	-0,68
871,986	-0,68
872,414	-0,7
872,842	-0,67
873,27	-0,65
873,698	-0,62
874,126	-0,66
874,554	-0,64
874,982	-0,64
875,41	-0,67
875,838	-0,63
876,266	-0,61
876,694	-0,61
877,122	-0,6
877,549	-0,64
877,977	-0,62
878,405	-0,64
878,833	-0,61
879,26	-0,59
879,688	-0,59
880,116	-0,57
880,543	-0,55
880,971	-0,53
881,399	-0,57
881,826	-0,57
882,254	-0,55
882,681	-0,59
883,109	-0,55
883,536	-0,56
883,963	-0,57
884,391	-0,55
884,818	-0,55
885,245	-0,59
885,673	-0,6
886,1	-0,56
886,527	-0,56
886,954	-0,53
887,381	-0,56
887,809	-0,57
888,236	-0,59
888,663	-0,6
889,09	-0,64
889,517	-0,65
889,944	-0,64
890,371	-0,63
890,798	-0,65
891,225	-0,65
891,652	-0,67
892,078	-0,64
892,505	-0,66
892,932	-0,61
893,359	-0,62
893,786	-0,63
894,212	-0,59
894,639	-0,62
895,066	-0,64
895,492	-0,58
895,919	-0,58
896,346	-0,57
896,772	-0,58
897,199	-0,54
897,625	-0,57
898,052	-0,54
898,478	-0,51
898,904	-0,52
899,331	-0,52
899,757	-0,54
900,183	-0,56
900,61	-0,54
901,036	-0,56
901,462	-0,55
901,888	-0,56
902,315	-0,54
902,741	-0,6
903,167	-0,58
903,593	-0,62
904,019	-0,59
904,445	-0,56
904,871	-0,58
905,297	-0,6
905,723	-0,59
906,149	-0,58
906,575	-0,58
907,001	-0,59
907,427	-0,55
907,852	-0,55
908,278	-0,56
908,704	-0,54
909,13	-0,54
909,555	-0,54
909,981	-0,53
910,407	-0,52
910,832	-0,52
911,258	-0,53
911,684	-0,53
912,109	-0,53
912,535	-0,55
912,96	-0,5
913,386	-0,55
913,811	-0,55
914,236	-0,56
914,662	-0,55
915,087	-0,59
915,512	-0,59
915,938	-0,6
916,363	-0,59
916,788	-0,61
917,213	-0,59
917,639	-0,64
918,064	-0,61
918,489	-0,61
918,914	-0,62
919,339	-0,63
919,764	-0,59
920,189	-0,59
920,614	-0,61
921,039	-0,62
921,464	-0,58
921,889	-0,61
922,314	-0,61
922,738	-0,64
923,163	-0,65
923,588	-0,64
924,013	-0,63
924,437	-0,63
924,862	-0,65
925,287	-0,61
925,711	-0,61
926,136	-0,62
926,561	-0,6
926,985	-0,6
927,41	-0,57
927,834	-0,54
928,259	-0,52
928,683	-0,5
929,108	-0,48
929,532	-0,49
929,956	-0,48
930,381	-0,48
930,805	-0,48
931,229	-0,47
931,653	-0,46
932,078	-0,46
932,502	-0,47
932,926	-0,48
933,35	-0,48
933,774	-0,48
934,198	-0,46
934,622	-0,44
935,046	-0,45
935,47	-0,45
935,894	-0,44
936,318	-0,43
936,742	-0,43
937,166	-0,44
937,59	-0,43
938,014	-0,45
938,437	-0,45
938,861	-0,47
939,285	-0,48
939,709	-0,48
940,132	-0,48
940,556	-0,49
940,98	-0,5
941,403	-0,49
941,827	-0,49
942,25	-0,5
942,674	-0,49
943,097	-0,48
943,521	-0,49
943,944	-0,5
944,368	-0,49
944,791	-0,48
945,214	-0,49
945,638	-0,49
946,061	-0,52
946,484	-0,53
946,907	-0,52
947,331	-0,52
947,754	-0,56
948,177	-0,52
948,6	-0,52
949,023	-0,52
949,446	-0,52
949,869	-0,5
950,292	-0,5
950,715	-0,48
951,138	-0,46
951,561	-0,43
951,984	-0,43
952,407	-0,41
952,83	-0,4
953,252	-0,36
953,675	-0,36
954,098	-0,36
954,521	-0,35
954,943	-0,34
955,366	-0,35
955,789	-0,34
956,211	-0,37
956,634	-0,38
957,056	-0,36
957,479	-0,37
957,902	-0,39
958,324	-0,4
958,746	-0,39
959,169	-0,4
959,591	-0,4
960,014	-0,41
960,436	-0,4
960,858	-0,39
961,281	-0,38
961,703	-0,39
962,125	-0,39
962,547	-0,37
962,969	-0,38
963,391	-0,37
963,814	-0,38
964,236	-0,37
964,658	-0,34
965,08	-0,35
965,502	-0,35
965,924	-0,33
966,346	-0,33
966,768	-0,32
967,189	-0,34
967,611	-0,33
968,033	-0,34
968,455	-0,32
968,877	-0,33
969,298	-0,34
969,72	-0,35
970,142	-0,34
970,563	-0,35
970,985	-0,33
971,407	-0,31
971,828	-0,29
972,25	-0,28
972,671	-0,27
973,093	-0,26
973,514	-0,25
973,936	-0,22
974,357	-0,2
974,778	-0,2
975,2	-0,19
975,621	-0,19
976,042	-0,18
976,464	-0,18
976,885	-0,16
977,306	-0,16
977,727	-0,15
978,148	-0,14
978,57	-0,13
978,991	-0,12
979,412	-0,11
979,833	-0,1
980,254	-0,08
980,675	-0,08
981,096	-0,06
981,517	-0,05
981,937	-0,05
982,358	-0,03
982,779	-0,01
983,2	-0,01
983,621	-0,01
984,042	0,01
984,462	0,03
984,883	0,04
985,304	0,05
985,724	0,06
986,145	0,07
986,565	0,09
986,986	0,1
987,407	0,1
987,827	0,11
988,248	0,13
988,668	0,14
989,088	0,15
989,509	0,16
989,929	0,17
990,35	0,18
990,77	0,2
991,19	0,21
991,61	0,23
992,031	0,24
992,451	0,25
992,871	0,26
993,291	0,27
993,711	0,28
994,131	0,29
994,551	0,3
994,971	0,31
995,391	0,31
995,811	0,32
996,231	0,33
996,651	0,33
997,071	0,34
997,491	0,35
997,911	0,36
998,331	0,37
998,75	0,37
999,17	0,38
999,59	0,38
1000,009	0,39
1000,429	0,39
1000,849	0,4
1001,268	0,41
1001,688	0,41
1002,107	0,41
1002,527	0,42
1002,946	0,42
1003,366	0,42
1003,785	0,43
1004,205	0,43
1004,624	0,43
1005,044	0,44
1005,463	0,44
1005,882	0,44
1006,301	0,44
1006,721	0,45
1007,14	0,45
1007,559	0,45
1007,978	0,45
1008,397	0,45
1008,816	0,45
1009,235	0,45
1009,655	0,45
1010,074	0,45
1010,492	0,45
1010,911	0,45
1011,33	0,45
1011,749	0,45
1012,168	0,45
1012,587	0,45
1013,006	0,45
1013,425	0,44
1013,843	0,44
1014,262	0,44
1014,681	0,44
1015,099	0,44
1015,518	0,44
1015,937	0,44
1016,355	0,44
1016,774	0,44
1017,192	0,44
1017,611	0,44
1018,029	0,44
1018,448	0,44
1018,866	0,44
1019,285	0,44
1019,703	0,44
1020,121	0,44
1020,54	0,44
1020,958	0,44
1021,376	0,44
1021,794	0,43
1022,213	0,43
1022,631	0,43
1023,049	0,43
1023,467	0,43
1023,885	0,43
1024,303	0,43
1024,721	0,43
1025,139	0,43
1025,557	0,43
1025,975	0,43
1026,393	0,42
1026,811	0,42
1027,229	0,42
1027,647	0,42
1028,065	0,42
1028,482	0,42
1028,9	0,42
1029,318	0,42
1029,735	0,42
1030,153	0,42
1030,571	0,42
1030,988	0,42
1031,406	0,42
1031,823	0,42
1032,241	0,42
1032,659	0,42
1033,076	0,42
1033,493	0,42
1033,911	0,42
1034,328	0,42
1034,746	0,42
1035,163	0,42
1035,58	0,42
1035,997	0,42
1036,415	0,42
1036,832	0,43
1037,249	0,43
1037,666	0,43
1038,083	0,43
1038,501	0,43
1038,918	0,43
1039,335	0,43
1039,752	0,43
1040,169	0,43
1040,586	0,43
1041,003	0,43
1041,419	0,43
1041,836	0,43
1042,253	0,43
1042,67	0,43
1043,087	0,43
1043,504	0,43
1043,92	0,43
1044,337	0,43
1044,754	0,43
1045,17	0,43
1045,587	0,43
1046,004	0,42
1046,42	0,42
1046,837	0,42
1047,253	0,43
1047,67	0,43
1048,086	0,43
1048,503	0,43
1048,919	0,43
1049,335	0,43
1049,752	0,43
1050,168	0,43
1050,584	0,43
1051,001	0,43
1051,417	0,43
1051,833	0,43
1052,249	0,43
1052,665	0,43
1053,081	0,43
1053,497	0,43
1053,914	0,43
1054,33	0,43
1054,746	0,43
1055,162	0,43
1055,578	0,44
1055,993	0,44
1056,409	0,44
1056,825	0,44
1057,241	0,44
1057,657	0,44
1058,073	0,44
1058,488	0,44
1058,904	0,44
1059,32	0,44
1059,736	0,44
1060,151	0,44
1060,567	0,43
1060,982	0,43
1061,398	0,43
1061,813	0,43
1062,229	0,43
1062,644	0,43
1063,06	0,43
1063,475	0,43
1063,891	0,43
1064,306	0,43
1064,721	0,43
1065,137	0,43
1065,552	0,43
1065,967	0,43
1066,382	0,43
1066,798	0,43
1067,213	0,43
1067,628	0,43
1068,043	0,43
1068,458	0,43
1068,873	0,43
1069,288	0,43
1069,703	0,43
1070,118	0,43
1070,533	0,43
1070,948	0,43
1071,363	0,43
1071,778	0,43
1072,193	0,43
1072,607	0,43
1073,022	0,43
1073,437	0,43
1073,852	0,43
1074,266	0,43
1074,681	0,43
1075,096	0,43
1075,51	0,42
1075,925	0,43
1076,339	0,43
1076,754	0,42
1077,168	0,42
1077,583	0,42
1077,997	0,42
1078,412	0,42
1078,826	0,42
1079,24	0,42
1079,655	0,42
1080,069	0,42
1080,483	0,42
1080,897	0,42
1081,312	0,42
1081,726	0,42
1082,14	0,42
1082,554	0,42
1082,968	0,42
1083,382	0,42
1083,796	0,42
1084,21	0,42
1084,624	0,41
1085,038	0,41
1085,452	0,41
1085,866	0,41
1086,28	0,41
1086,694	0,41
1087,108	0,41
1087,521	0,4
1087,935	0,4
1088,349	0,4
1088,763	0,4
1089,176	0,4
1089,59	0,39
1090,004	0,39
1090,417	0,39
1090,831	0,39
1091,244	0,38
1091,658	0,38
1092,071	0,38
1092,485	0,37
1092,898	0,37
1093,312	0,37
1093,725	0,36
1094,138	0,36
1094,552	0,36
1094,965	0,36
1095,378	0,35
1095,791	0,35
1096,205	0,35
1096,618	0,35
1097,031	0,34
1097,444	0,34
1097,857	0,33
1098,27	0,33
1098,683	0,33
1099,096	0,32
1099,509	0,32
1099,922	0,32
1100,335	0,31
1100,748	0,31
1101,161	0,31
1101,574	0,3
1101,986	0,3
1102,399	0,3
1102,812	0,29
1103,225	0,29
1103,637	0,28
1104,05	0,28
1104,463	0,28
1104,875	0,28
1105,288	0,28
1105,7	0,27
1106,113	0,27
1106,525	0,26
1106,938	0,26
1107,35	0,25
1107,763	0,25
1108,175	0,24
1108,588	0,24
1109	0,23
1109,412	0,23
1109,824	0,22
1110,237	0,22
1110,649	0,22
1111,061	0,2
