Data from 18C-808nm-8A-cont_Absorbance__367__01796.txt Node

Date: Mon Jul 17 17:31:53 CEST 2023
User: Laser008
Spectrometer: MAYP115816
Trigger mode: 0
Integration Time (sec): 2,500000E-1
Scans to average: 10
Electric dark correction enabled: true
Nonlinearity correction enabled: true
Boxcar width: 5
XAxis mode: Wavelengths
Number of Pixels in Spectrum: 2068
>>>>>Begin Spectral Data<<<<<
198,914	-0,71
199,384	-0,47
199,855	-0,35
200,325	-0,27
200,796	-0,26
201,266	-0,2
201,737	-0,19
202,207	-0,18
202,677	-0,18
203,147	-0,16
203,618	-0,13
204,088	-0,12
204,558	-0,11
205,028	-0,11
205,498	-0,12
205,968	-0,11
206,439	-0,12
206,909	-0,11
207,379	-0,11
207,849	-0,11
208,319	-0,11
208,789	-0,11
209,258	-0,11
209,728	-0,12
210,198	-0,12
210,668	-0,11
211,138	-0,1
211,608	-0,11
212,077	-0,12
212,547	-0,11
213,017	-0,11
213,486	-0,12
213,956	-0,13
214,426	-0,13
214,895	-0,13
215,365	-0,13
215,834	-0,13
216,304	-0,14
216,773	-0,14
217,243	-0,15
217,712	-0,16
218,181	-0,16
218,651	-0,16
219,12	-0,15
219,589	-0,16
220,058	-0,14
220,528	-0,15
220,997	-0,17
221,466	-0,18
221,935	-0,19
222,404	-0,18
222,873	-0,18
223,342	-0,18
223,812	-0,18
224,281	-0,18
224,749	-0,18
225,218	-0,2
225,687	-0,19
226,156	-0,18
226,625	-0,17
227,094	-0,17
227,563	-0,16
228,031	-0,17
228,5	-0,17
228,969	-0,18
229,438	-0,18
229,906	-0,17
230,375	-0,16
230,844	-0,16
231,312	-0,16
231,781	-0,17
232,249	-0,16
232,718	-0,16
233,186	-0,15
233,655	-0,15
234,123	-0,15
234,591	-0,15
235,06	-0,16
235,528	-0,17
235,996	-0,16
236,465	-0,15
236,933	-0,15
237,401	-0,15
237,869	-0,14
238,337	-0,15
238,805	-0,14
239,274	-0,13
239,742	-0,13
240,21	-0,12
240,678	-0,11
241,146	-0,1
241,614	-0,1
242,081	-0,1
242,549	-0,09
243,017	-0,1
243,485	-0,1
243,953	-0,1
244,421	-0,09
244,888	-0,1
245,356	-0,1
245,824	-0,1
246,291	-0,1
246,759	-0,11
247,227	-0,11
247,694	-0,1
248,162	-0,1
248,629	-0,1
249,097	-0,1
249,564	-0,11
250,032	-0,12
250,499	-0,11
250,967	-0,11
251,434	-0,11
251,901	-0,11
252,369	-0,11
252,836	-0,12
253,303	-0,14
253,77	-0,14
254,237	-0,13
254,705	-0,14
255,172	-0,13
255,639	-0,13
256,106	-0,15
256,573	-0,15
257,04	-0,16
257,507	-0,17
257,974	-0,17
258,441	-0,15
258,908	-0,15
259,375	-0,16
259,841	-0,17
260,308	-0,17
260,775	-0,16
261,242	-0,15
261,709	-0,15
262,175	-0,16
262,642	-0,16
263,109	-0,16
263,575	-0,18
264,042	-0,17
264,508	-0,17
264,975	-0,19
265,441	-0,2
265,908	-0,21
266,374	-0,2
266,841	-0,21
267,307	-0,2
267,773	-0,19
268,24	-0,18
268,706	-0,19
269,172	-0,2
269,639	-0,21
270,105	-0,19
270,571	-0,2
271,037	-0,19
271,503	-0,2
271,969	-0,19
272,435	-0,19
272,902	-0,21
273,368	-0,23
273,834	-0,22
274,3	-0,22
274,765	-0,21
275,231	-0,21
275,697	-0,2
276,163	-0,21
276,629	-0,21
277,095	-0,22
277,56	-0,21
278,026	-0,22
278,492	-0,21
278,958	-0,2
279,423	-0,21
279,889	-0,21
280,354	-0,21
280,82	-0,22
281,286	-0,23
281,751	-0,22
282,217	-0,21
282,682	-0,22
283,147	-0,22
283,613	-0,22
284,078	-0,22
284,544	-0,23
285,009	-0,24
285,474	-0,24
285,939	-0,23
286,405	-0,22
286,87	-0,23
287,335	-0,22
287,8	-0,22
288,265	-0,2
288,73	-0,21
289,195	-0,23
289,66	-0,22
290,125	-0,2
290,59	-0,2
291,055	-0,2
291,52	-0,21
291,985	-0,22
292,45	-0,23
292,915	-0,23
293,38	-0,24
293,844	-0,23
294,309	-0,22
294,774	-0,21
295,239	-0,22
295,703	-0,22
296,168	-0,21
296,632	-0,21
297,097	-0,19
297,562	-0,18
298,026	-0,18
298,491	-0,18
298,955	-0,18
299,419	-0,17
299,884	-0,17
300,348	-0,16
300,813	-0,15
301,277	-0,15
301,741	-0,15
302,205	-0,15
302,67	-0,15
303,134	-0,15
303,598	-0,14
304,062	-0,13
304,526	-0,13
304,99	-0,14
305,454	-0,14
305,919	-0,14
306,383	-0,14
306,847	-0,13
307,31	-0,15
307,774	-0,15
308,238	-0,15
308,702	-0,14
309,166	-0,16
309,63	-0,16
310,094	-0,13
310,557	-0,13
311,021	-0,13
311,485	-0,12
311,948	-0,12
312,412	-0,11
312,876	-0,1
313,339	-0,11
313,803	-0,12
314,266	-0,12
314,73	-0,12
315,193	-0,12
315,657	-0,11
316,12	-0,11
316,584	-0,1
317,047	-0,1
317,51	-0,1
317,973	-0,1
318,437	-0,08
318,9	-0,07
319,363	-0,06
319,826	-0,05
320,29	-0,06
320,753	-0,06
321,216	-0,05
321,679	-0,06
322,142	-0,05
322,605	-0,06
323,068	-0,05
323,531	-0,05
323,994	-0,05
324,457	-0,05
324,92	-0,05
325,382	-0,04
325,845	-0,04
326,308	-0,03
326,771	-0,03
327,233	-0,02
327,696	-0,02
328,159	-0,01
328,622	-0
329,084	0,01
329,547	0,01
330,009	0,02
330,472	0,03
330,934	0,04
331,397	0,05
331,859	0,05
332,322	0,05
332,784	0,05
333,246	0,06
333,709	0,06
334,171	0,06
334,633	0,06
335,096	0,06
335,558	0,06
336,02	0,06
336,482	0,06
336,944	0,08
337,406	0,09
337,868	0,1
338,331	0,1
338,793	0,1
339,255	0,12
339,717	0,11
340,178	0,12
340,64	0,13
341,102	0,14
341,564	0,14
342,026	0,15
342,488	0,16
342,949	0,17
343,411	0,2
343,873	0,23
344,335	0,26
344,796	0,3
345,258	0,34
345,719	0,39
346,181	0,44
346,643	0,49
347,104	0,53
347,566	0,56
348,027	0,59
348,488	0,61
348,95	0,63
349,411	0,66
349,873	0,69
350,334	0,71
350,795	0,72
351,256	0,74
351,718	0,74
352,179	0,75
352,64	0,75
353,101	0,76
353,562	0,76
354,023	0,76
354,484	0,77
354,945	0,77
355,406	0,77
355,867	0,77
356,328	0,78
356,789	0,78
357,25	0,78
357,711	0,78
358,172	0,78
358,633	0,79
359,093	0,79
359,554	0,79
360,015	0,79
360,476	0,79
360,936	0,79
361,397	0,79
361,858	0,79
362,318	0,8
362,779	0,8
363,239	0,8
363,7	0,8
364,16	0,8
364,621	0,8
365,081	0,8
365,541	0,8
366,002	0,8
366,462	0,8
366,922	0,8
367,383	0,8
367,843	0,8
368,303	0,8
368,763	0,8
369,223	0,8
369,684	0,8
370,144	0,8
370,604	0,8
371,064	0,8
371,524	0,8
371,984	0,8
372,444	0,8
372,904	0,8
373,363	0,8
373,823	0,79
374,283	0,79
374,743	0,79
375,203	0,79
375,663	0,79
376,122	0,79
376,582	0,79
377,042	0,79
377,501	0,79
377,961	0,79
378,42	0,79
378,88	0,79
379,34	0,79
379,799	0,79
380,259	0,79
380,718	0,79
381,177	0,79
381,637	0,79
382,096	0,79
382,555	0,79
383,015	0,79
383,474	0,79
383,933	0,79
384,393	0,79
384,852	0,79
385,311	0,79
385,77	0,79
386,229	0,79
386,688	0,79
387,147	0,79
387,606	0,79
388,065	0,79
388,524	0,79
388,983	0,78
389,442	0,78
389,901	0,78
390,36	0,78
390,819	0,78
391,277	0,78
391,736	0,78
392,195	0,78
392,654	0,78
393,112	0,78
393,571	0,78
394,03	0,78
394,488	0,78
394,947	0,78
395,405	0,78
395,864	0,78
396,322	0,78
396,781	0,78
397,239	0,78
397,698	0,78
398,156	0,78
398,614	0,78
399,073	0,78
399,531	0,78
399,989	0,78
400,447	0,78
400,905	0,78
401,364	0,78
401,822	0,78
402,28	0,77
402,738	0,77
403,196	0,77
403,654	0,77
404,112	0,77
404,57	0,77
405,028	0,77
405,486	0,77
405,944	0,77
406,402	0,77
406,859	0,77
407,317	0,77
407,775	0,77
408,233	0,77
408,691	0,77
409,148	0,77
409,606	0,77
410,064	0,77
410,521	0,77
410,979	0,77
411,436	0,77
411,894	0,77
412,351	0,77
412,809	0,77
413,266	0,77
413,724	0,77
414,181	0,77
414,638	0,77
415,096	0,77
415,553	0,77
416,01	0,77
416,467	0,77
416,925	0,77
417,382	0,77
417,839	0,77
418,296	0,77
418,753	0,77
419,21	0,77
419,667	0,77
420,124	0,77
420,581	0,77
421,038	0,77
421,495	0,77
421,952	0,77
422,409	0,76
422,866	0,77
423,322	0,77
423,779	0,77
424,236	0,77
424,693	0,77
425,149	0,77
425,606	0,77
426,063	0,77
426,519	0,77
426,976	0,77
427,433	0,77
427,889	0,77
428,346	0,77
428,802	0,76
429,258	0,76
429,715	0,76
430,171	0,76
430,628	0,76
431,084	0,76
431,54	0,76
431,997	0,76
432,453	0,76
432,909	0,76
433,365	0,76
433,821	0,76
434,277	0,76
434,734	0,76
435,19	0,76
435,646	0,76
436,102	0,76
436,558	0,76
437,014	0,76
437,47	0,76
437,925	0,76
438,381	0,76
438,837	0,76
439,293	0,76
439,749	0,76
440,205	0,76
440,66	0,76
441,116	0,76
441,572	0,76
442,027	0,76
442,483	0,76
442,939	0,76
443,394	0,77
443,85	0,77
444,305	0,77
444,761	0,77
445,216	0,77
445,672	0,77
446,127	0,77
446,582	0,77
447,038	0,77
447,493	0,77
447,948	0,77
448,403	0,77
448,859	0,77
449,314	0,77
449,769	0,77
450,224	0,77
450,679	0,77
451,134	0,77
451,589	0,77
452,044	0,77
452,499	0,77
452,954	0,77
453,409	0,77
453,864	0,77
454,319	0,77
454,774	0,77
455,229	0,77
455,684	0,77
456,138	0,77
456,593	0,77
457,048	0,77
457,503	0,77
457,957	0,77
458,412	0,77
458,866	0,77
459,321	0,77
459,776	0,77
460,23	0,78
460,685	0,78
461,139	0,78
461,593	0,78
462,048	0,78
462,502	0,78
462,957	0,78
463,411	0,78
463,865	0,78
464,319	0,78
464,774	0,78
465,228	0,78
465,682	0,79
466,136	0,79
466,59	0,79
467,044	0,79
467,499	0,79
467,953	0,79
468,407	0,79
468,861	0,79
469,315	0,79
469,768	0,79
470,222	0,79
470,676	0,79
471,13	0,79
471,584	0,8
472,038	0,8
472,491	0,8
472,945	0,8
473,399	0,8
473,852	0,8
474,306	0,8
474,76	0,8
475,213	0,8
475,667	0,81
476,12	0,81
476,574	0,81
477,027	0,81
477,481	0,81
477,934	0,81
478,388	0,81
478,841	0,82
479,294	0,82
479,748	0,82
480,201	0,82
480,654	0,82
481,107	0,83
481,561	0,83
482,014	0,83
482,467	0,83
482,92	0,83
483,373	0,83
483,826	0,84
484,279	0,84
484,732	0,84
485,185	0,84
485,638	0,84
486,091	0,85
486,544	0,85
486,997	0,85
487,449	0,85
487,902	0,85
488,355	0,86
488,808	0,86
489,26	0,86
489,713	0,87
490,166	0,87
490,618	0,87
491,071	0,87
491,523	0,88
491,976	0,88
492,429	0,88
492,881	0,89
493,333	0,89
493,786	0,89
494,238	0,9
494,691	0,9
495,143	0,9
495,595	0,91
496,048	0,91
496,5	0,91
496,952	0,92
497,404	0,92
497,856	0,92
498,309	0,93
498,761	0,93
499,213	0,94
499,665	0,94
500,117	0,94
500,569	0,95
501,021	0,95
501,473	0,96
501,925	0,96
502,377	0,96
502,828	0,97
503,28	0,97
503,732	0,98
504,184	0,98
504,636	0,98
505,087	0,99
505,539	0,99
505,991	1
506,442	1
506,894	1
507,345	1,01
507,797	1,01
508,249	1,02
508,7	1,02
509,151	1,03
509,603	1,03
510,054	1,03
510,506	1,04
510,957	1,04
511,408	1,04
511,86	1,05
512,311	1,05
512,762	1,06
513,213	1,06
513,665	1,06
514,116	1,07
514,567	1,07
515,018	1,07
515,469	1,08
515,92	1,08
516,371	1,08
516,822	1,08
517,273	1,09
517,724	1,09
518,175	1,09
518,626	1,1
519,076	1,1
519,527	1,1
519,978	1,1
520,429	1,11
520,88	1,11
521,33	1,11
521,781	1,11
522,232	1,11
522,682	1,12
523,133	1,12
523,583	1,12
524,034	1,12
524,484	1,12
524,935	1,12
525,385	1,12
525,836	1,12
526,286	1,12
526,736	1,12
527,187	1,12
527,637	1,12
528,087	1,12
528,538	1,12
528,988	1,12
529,438	1,12
529,888	1,12
530,338	1,12
530,788	1,12
531,238	1,12
531,688	1,11
532,139	1,11
532,589	1,11
533,038	1,11
533,488	1,11
533,938	1,1
534,388	1,1
534,838	1,1
535,288	1,1
535,738	1,09
536,187	1,09
536,637	1,09
537,087	1,08
537,537	1,08
537,986	1,07
538,436	1,07
538,885	1,07
539,335	1,06
539,785	1,05
540,234	1,05
540,684	1,05
541,133	1,04
541,582	1,04
542,032	1,03
542,481	1,03
542,931	1,02
543,38	1,02
543,829	1,01
544,278	1,01
544,728	1
545,177	1
545,626	0,99
546,075	0,99
546,524	0,99
546,973	0,98
547,422	0,98
547,871	0,97
548,32	0,97
548,769	0,97
549,218	0,96
549,667	0,96
550,116	0,95
550,565	0,95
551,014	0,94
551,463	0,94
551,911	0,93
552,36	0,93
552,809	0,92
553,258	0,92
553,706	0,91
554,155	0,91
554,603	0,91
555,052	0,9
555,501	0,9
555,949	0,89
556,398	0,89
556,846	0,88
557,294	0,88
557,743	0,87
558,191	0,87
558,64	0,86
559,088	0,86
559,536	0,85
559,985	0,85
560,433	0,84
560,881	0,84
561,329	0,83
561,777	0,83
562,225	0,82
562,674	0,82
563,122	0,82
563,57	0,81
564,018	0,81
564,466	0,8
564,914	0,8
565,362	0,79
565,809	0,79
566,257	0,79
566,705	0,78
567,153	0,78
567,601	0,77
568,048	0,77
568,496	0,76
568,944	0,76
569,392	0,76
569,839	0,75
570,287	0,75
570,734	0,75
571,182	0,74
571,63	0,74
572,077	0,74
572,525	0,73
572,972	0,73
573,419	0,72
573,867	0,72
574,314	0,72
574,761	0,71
575,209	0,71
575,656	0,71
576,103	0,7
576,551	0,7
576,998	0,7
577,445	0,69
577,892	0,69
578,339	0,69
578,786	0,68
579,233	0,68
579,68	0,68
580,127	0,67
580,574	0,67
581,021	0,67
581,468	0,67
581,915	0,66
582,362	0,66
582,809	0,66
583,255	0,66
583,702	0,65
584,149	0,65
584,596	0,65
585,042	0,65
585,489	0,64
585,936	0,64
586,382	0,64
586,829	0,64
587,275	0,63
587,722	0,63
588,168	0,63
588,615	0,63
589,061	0,62
589,508	0,62
589,954	0,62
590,4	0,62
590,847	0,62
591,293	0,61
591,739	0,61
592,185	0,61
592,632	0,61
593,078	0,61
593,524	0,61
593,97	0,6
594,416	0,6
594,862	0,6
595,308	0,6
595,754	0,6
596,2	0,6
596,646	0,59
597,092	0,59
597,538	0,59
597,984	0,59
598,43	0,59
598,876	0,59
599,321	0,59
599,767	0,59
600,213	0,58
600,659	0,58
601,104	0,58
601,55	0,58
601,995	0,58
602,441	0,58
602,887	0,57
603,332	0,57
603,778	0,57
604,223	0,57
604,668	0,57
605,114	0,57
605,559	0,57
606,005	0,57
606,45	0,57
606,895	0,56
607,341	0,56
607,786	0,56
608,231	0,56
608,676	0,55
609,121	0,55
609,566	0,54
610,012	0,54
610,457	0,53
610,902	0,53
611,347	0,53
611,792	0,53
612,237	0,52
612,682	0,52
613,127	0,52
613,571	0,52
614,016	0,53
614,461	0,53
614,906	0,53
615,351	0,53
615,795	0,53
616,24	0,53
616,685	0,53
617,129	0,53
617,574	0,53
618,019	0,53
618,463	0,53
618,908	0,53
619,352	0,53
619,797	0,53
620,241	0,53
620,686	0,53
621,13	0,53
621,574	0,53
622,019	0,53
622,463	0,52
622,907	0,52
623,352	0,52
623,796	0,52
624,24	0,52
624,684	0,52
625,128	0,52
625,572	0,52
626,016	0,52
626,461	0,52
626,905	0,52
627,349	0,52
627,793	0,52
628,236	0,52
628,68	0,52
629,124	0,52
629,568	0,52
630,012	0,51
630,456	0,51
630,9	0,51
631,343	0,51
631,787	0,51
632,231	0,51
632,674	0,51
633,118	0,51
633,562	0,51
634,005	0,51
634,449	0,51
634,892	0,51
635,336	0,51
635,779	0,51
636,223	0,51
636,666	0,51
637,109	0,51
637,553	0,51
637,996	0,51
638,439	0,51
638,883	0,51
639,326	0,51
639,769	0,51
640,212	0,51
640,655	0,51
641,099	0,51
641,542	0,5
641,985	0,5
642,428	0,5
642,871	0,5
643,314	0,5
643,757	0,5
644,2	0,5
644,643	0,5
645,085	0,5
645,528	0,5
645,971	0,5
646,414	0,5
646,857	0,5
647,299	0,5
647,742	0,5
648,185	0,5
648,627	0,5
649,07	0,49
649,513	0,49
649,955	0,49
650,398	0,49
650,84	0,49
651,283	0,5
651,725	0,5
652,168	0,5
652,61	0,5
653,052	0,5
653,495	0,5
653,937	0,41
654,379	0,35
654,821	0,36
655,264	0,36
655,706	0,36
656,148	0,36
656,59	0,36
657,032	0,36
657,474	0,36
657,916	0,36
658,358	0,35
658,8	0,41
659,242	0,49
659,684	0,49
660,126	0,49
660,568	0,49
661,01	0,49
661,452	0,49
661,894	0,49
662,335	0,49
662,777	0,49
663,219	0,49
663,661	0,49
664,102	0,49
664,544	0,49
664,985	0,49
665,427	0,49
665,869	0,49
666,31	0,49
666,752	0,49
667,193	0,49
667,634	0,49
668,076	0,49
668,517	0,49
668,959	0,49
669,4	0,49
669,841	0,49
670,282	0,49
670,724	0,49
671,165	0,49
671,606	0,49
672,047	0,49
672,488	0,49
672,929	0,49
673,37	0,48
673,811	0,48
674,252	0,48
674,693	0,48
675,134	0,48
675,575	0,48
676,016	0,48
676,457	0,48
676,898	0,47
677,339	0,47
677,78	0,47
678,22	0,47
678,661	0,47
679,102	0,47
679,542	0,47
679,983	0,47
680,424	0,47
680,864	0,47
681,305	0,47
681,745	0,48
682,186	0,48
682,626	0,48
683,067	0,48
683,507	0,48
683,948	0,48
684,388	0,48
684,828	0,48
685,269	0,48
685,709	0,48
686,149	0,47
686,589	0,47
687,029	0,47
687,47	0,47
687,91	0,47
688,35	0,47
688,79	0,47
689,23	0,47
689,67	0,47
690,11	0,47
690,55	0,47
690,99	0,47
691,43	0,47
691,87	0,47
692,31	0,46
692,749	0,46
693,189	0,46
693,629	0,46
694,069	0,46
694,508	0,46
694,948	0,46
695,388	0,46
695,827	0,46
696,267	0,46
696,706	0,46
697,146	0,46
697,586	0,46
698,025	0,46
698,464	0,46
698,904	0,46
699,343	0,46
699,783	0,47
700,222	0,47
700,661	0,47
701,101	0,47
701,54	0,47
701,979	0,47
702,418	0,47
702,857	0,47
703,297	0,47
703,736	0,47
704,175	0,47
704,614	0,47
705,053	0,47
705,492	0,46
705,931	0,46
706,37	0,46
706,809	0,46
707,248	0,46
707,687	0,46
708,125	0,46
708,564	0,46
709,003	0,46
709,442	0,46
709,88	0,46
710,319	0,46
710,758	0,46
711,196	0,46
711,635	0,46
712,074	0,45
712,512	0,45
712,951	0,45
713,389	0,45
713,828	0,45
714,266	0,45
714,705	0,45
715,143	0,45
715,581	0,45
716,02	0,45
716,458	0,45
716,896	0,45
717,334	0,45
717,773	0,45
718,211	0,45
718,649	0,45
719,087	0,45
719,525	0,45
719,963	0,45
720,401	0,45
720,839	0,45
721,277	0,46
721,715	0,46
722,153	0,45
722,591	0,45
723,029	0,45
723,467	0,45
723,905	0,45
724,342	0,45
724,78	0,45
725,218	0,45
725,656	0,45
726,093	0,45
726,531	0,46
726,969	0,46
727,406	0,46
727,844	0,46
728,281	0,46
728,719	0,46
729,156	0,45
729,594	0,45
730,031	0,45
730,469	0,45
730,906	0,45
731,343	0,45
731,781	0,45
732,218	0,45
732,655	0,45
733,092	0,45
733,53	0,44
733,967	0,44
734,404	0,44
734,841	0,44
735,278	0,44
735,715	0,44
736,152	0,44
736,589	0,44
737,026	0,44
737,463	0,44
737,9	0,44
738,337	0,44
738,774	0,44
739,211	0,44
739,647	0,44
740,084	0,44
740,521	0,44
740,958	0,44
741,394	0,44
741,831	0,44
742,268	0,44
742,704	0,44
743,141	0,44
743,577	0,44
744,014	0,44
744,45	0,44
744,887	0,43
745,323	0,43
745,76	0,43
746,196	0,43
746,632	0,43
747,069	0,43
747,505	0,43
747,941	0,43
748,378	0,43
748,814	0,43
749,25	0,43
749,686	0,43
750,122	0,43
750,558	0,43
750,994	0,43
751,43	0,44
751,866	0,44
752,302	0,44
752,738	0,44
753,174	0,44
753,61	0,44
754,046	0,44
754,482	0,44
754,918	0,44
755,354	0,44
755,789	0,44
756,225	0,44
756,661	0,44
757,096	0,44
757,532	0,43
757,968	0,43
758,403	0,43
758,839	0,43
759,274	0,42
759,71	0,42
760,145	0,41
760,581	0,41
761,016	0,4
761,452	0,4
761,887	0,39
762,322	0,39
762,758	0,38
763,193	0,38
763,628	0,37
764,063	0,36
764,499	0,36
764,934	0,35
765,369	0,34
765,804	0,34
766,239	0,33
766,674	0,32
767,109	0,31
767,544	0,31
767,979	0,3
768,414	0,28
768,849	0,28
769,284	0,27
769,719	0,26
770,154	0,26
770,588	0,25
771,023	0,23
771,458	0,22
771,893	0,21
772,327	0,2
772,762	0,19
773,197	0,18
773,631	0,17
774,066	0,16
774,5	0,15
774,935	0,14
775,369	0,13
775,804	0,12
776,238	0,11
776,673	0,1
777,107	0,09
777,541	0,08
777,976	0,07
778,41	0,06
778,844	0,05
779,279	0,05
779,713	0,04
780,147	0,03
780,581	0,02
781,015	0,01
781,449	0
781,883	-0,01
782,317	-0,02
782,751	-0,03
783,185	-0,03
783,619	-0,04
784,053	-0,06
784,487	-0,06
784,921	-0,07
785,355	-0,07
785,789	-0,09
786,223	-0,1
786,656	-0,11
787,09	-0,13
787,524	-0,13
787,957	-0,15
788,391	-0,17
788,825	-0,18
789,258	-0,2
789,692	-0,21
790,125	-0,23
790,559	-0,25
790,992	-0,27
791,426	-0,29
791,859	-0,29
792,293	-0,33
792,726	-0,34
793,159	-0,36
793,593	-0,38
794,026	-0,4
794,459	-0,43
794,892	-0,45
795,326	-0,47
795,759	-0,51
796,192	-0,56
796,625	-0,6
797,058	-0,63
797,491	-0,68
797,924	-0,71
798,357	-0,76
798,79	-0,81
799,223	-0,85
799,656	-0,9
800,089	-0,95
800,522	-0,99
800,955	-1,04
801,387	-1,09
801,82	-1,15
802,253	-1,21
802,686	-1,29
803,118	-1,35
803,551	-1,4
803,984	-1,44
804,416	-1,48
804,849	-1,52
805,281	-1,65
805,714	-2,02
806,146	-2,47
806,579	-2,72
807,011	-2,88
807,444	-2,97
807,876	-3,05
808,308	-3,08
808,741	-3,11
809,173	-3,16
809,605	-3,18
810,037	-3,26
810,47	-3,17
810,902	-2,97
811,334	-2,82
811,766	-2,65
812,198	-2,39
812,63	-1,97
813,062	-1,77
813,494	-1,68
813,926	-1,59
814,358	-1,54
814,79	-1,46
815,222	-1,4
815,654	-1,36
816,086	-1,29
816,518	-1,24
816,949	-1,18
817,381	-1,14
817,813	-1,12
818,245	-1,08
818,676	-1,04
819,108	-1,01
819,54	-0,99
819,971	-0,97
820,403	-0,92
820,834	-0,91
821,266	-0,87
821,697	-0,84
822,129	-0,83
822,56	-0,81
822,991	-0,79
823,423	-0,76
823,854	-0,75
824,286	-0,72
824,717	-0,71
825,148	-0,7
825,579	-0,69
826,01	-0,67
826,442	-0,67
826,873	-0,65
827,304	-0,62
827,735	-0,61
828,166	-0,61
828,597	-0,61
829,028	-0,6
829,459	-0,61
829,89	-0,6
830,321	-0,56
830,752	-0,57
831,183	-0,57
831,613	-0,55
832,044	-0,55
832,475	-0,54
832,906	-0,56
833,336	-0,57
833,767	-0,57
834,198	-0,56
834,628	-0,54
835,059	-0,57
835,49	-0,57
835,92	-0,54
836,351	-0,54
836,781	-0,54
837,212	-0,56
837,642	-0,55
838,072	-0,53
838,503	-0,54
838,933	-0,52
839,364	-0,54
839,794	-0,52
840,224	-0,51
840,654	-0,56
841,085	-0,56
841,515	-0,53
841,945	-0,53
842,375	-0,48
842,805	-0,47
843,235	-0,46
843,665	-0,47
844,095	-0,45
844,525	-0,46
844,955	-0,47
845,385	-0,45
845,815	-0,44
846,245	-0,46
846,675	-0,47
847,105	-0,49
847,534	-0,49
847,964	-0,47
848,394	-0,46
848,824	-0,5
849,253	-0,5
849,683	-0,5
850,112	-0,5
850,542	-0,52
850,972	-0,52
851,401	-0,51
851,831	-0,5
852,26	-0,51
852,69	-0,55
853,119	-0,54
853,548	-0,55
853,978	-0,55
854,407	-0,53
854,836	-0,54
855,266	-0,53
855,695	-0,55
856,124	-0,55
856,553	-0,56
856,983	-0,57
857,412	-0,56
857,841	-0,57
858,27	-0,57
858,699	-0,57
859,128	-0,62
859,557	-0,63
859,986	-0,64
860,415	-0,61
860,844	-0,59
861,273	-0,59
861,702	-0,6
862,13	-0,58
862,559	-0,6
862,988	-0,58
863,417	-0,56
863,845	-0,54
864,274	-0,54
864,703	-0,54
865,131	-0,55
865,56	-0,56
865,989	-0,59
866,417	-0,56
866,846	-0,57
867,274	-0,56
867,703	-0,59
868,131	-0,61
868,559	-0,61
868,988	-0,63
869,416	-0,62
869,844	-0,64
870,273	-0,66
870,701	-0,64
871,129	-0,66
871,557	-0,69
871,986	-0,69
872,414	-0,7
872,842	-0,67
873,27	-0,65
873,698	-0,63
874,126	-0,66
874,554	-0,64
874,982	-0,64
875,41	-0,67
875,838	-0,62
876,266	-0,59
876,694	-0,59
877,122	-0,58
877,549	-0,63
877,977	-0,6
878,405	-0,63
878,833	-0,59
879,26	-0,57
879,688	-0,57
880,116	-0,55
880,543	-0,53
880,971	-0,52
881,399	-0,55
881,826	-0,57
882,254	-0,55
882,681	-0,58
883,109	-0,54
883,536	-0,55
883,963	-0,57
884,391	-0,56
884,818	-0,55
885,245	-0,6
885,673	-0,62
886,1	-0,58
886,527	-0,58
886,954	-0,55
887,381	-0,57
887,809	-0,58
888,236	-0,6
888,663	-0,6
889,09	-0,63
889,517	-0,66
889,944	-0,65
890,371	-0,63
890,798	-0,64
891,225	-0,64
891,652	-0,66
892,078	-0,64
892,505	-0,67
892,932	-0,62
893,359	-0,63
893,786	-0,63
894,212	-0,59
894,639	-0,61
895,066	-0,63
895,492	-0,57
895,919	-0,58
896,346	-0,58
896,772	-0,59
897,199	-0,56
897,625	-0,59
898,052	-0,55
898,478	-0,54
898,904	-0,56
899,331	-0,56
899,757	-0,58
900,183	-0,6
900,61	-0,57
901,036	-0,57
901,462	-0,57
901,888	-0,55
902,315	-0,55
902,741	-0,6
903,167	-0,59
903,593	-0,61
904,019	-0,59
904,445	-0,56
904,871	-0,59
905,297	-0,6
905,723	-0,59
906,149	-0,59
906,575	-0,6
907,001	-0,6
907,427	-0,57
907,852	-0,56
908,278	-0,57
908,704	-0,55
909,13	-0,54
909,555	-0,54
909,981	-0,53
910,407	-0,53
910,832	-0,53
911,258	-0,54
911,684	-0,54
912,109	-0,55
912,535	-0,56
912,96	-0,51
913,386	-0,55
913,811	-0,55
914,236	-0,56
914,662	-0,55
915,087	-0,58
915,512	-0,58
915,938	-0,6
916,363	-0,59
916,788	-0,6
917,213	-0,58
917,639	-0,63
918,064	-0,61
918,489	-0,61
918,914	-0,61
919,339	-0,62
919,764	-0,59
920,189	-0,58
920,614	-0,59
921,039	-0,59
921,464	-0,55
921,889	-0,57
922,314	-0,57
922,738	-0,61
923,163	-0,62
923,588	-0,62
924,013	-0,62
924,437	-0,61
924,862	-0,63
925,287	-0,59
925,711	-0,6
926,136	-0,62
926,561	-0,6
926,985	-0,6
927,41	-0,56
927,834	-0,55
928,259	-0,51
928,683	-0,49
929,108	-0,46
929,532	-0,47
929,956	-0,48
930,381	-0,47
930,805	-0,47
931,229	-0,47
931,653	-0,45
932,078	-0,45
932,502	-0,47
932,926	-0,48
933,35	-0,47
933,774	-0,47
934,198	-0,45
934,622	-0,44
935,046	-0,44
935,47	-0,44
935,894	-0,44
936,318	-0,43
936,742	-0,43
937,166	-0,43
937,59	-0,42
938,014	-0,46
938,437	-0,46
938,861	-0,48
939,285	-0,49
939,709	-0,49
940,132	-0,49
940,556	-0,5
940,98	-0,5
941,403	-0,49
941,827	-0,49
942,25	-0,51
942,674	-0,48
943,097	-0,48
943,521	-0,48
943,944	-0,49
944,368	-0,47
944,791	-0,46
945,214	-0,47
945,638	-0,47
946,061	-0,51
946,484	-0,52
946,907	-0,5
947,331	-0,51
947,754	-0,55
948,177	-0,52
948,6	-0,53
949,023	-0,53
949,446	-0,53
949,869	-0,51
950,292	-0,51
950,715	-0,48
951,138	-0,45
951,561	-0,43
951,984	-0,42
952,407	-0,4
952,83	-0,38
953,252	-0,34
953,675	-0,33
954,098	-0,35
954,521	-0,34
954,943	-0,34
955,366	-0,35
955,789	-0,34
956,211	-0,37
956,634	-0,38
957,056	-0,36
957,479	-0,38
957,902	-0,4
958,324	-0,4
958,746	-0,38
959,169	-0,38
959,591	-0,39
960,014	-0,39
960,436	-0,38
960,858	-0,38
961,281	-0,38
961,703	-0,4
962,125	-0,39
962,547	-0,37
962,969	-0,38
963,391	-0,39
963,814	-0,4
964,236	-0,39
964,658	-0,36
965,08	-0,37
965,502	-0,36
965,924	-0,33
966,346	-0,32
966,768	-0,31
967,189	-0,33
967,611	-0,33
968,033	-0,32
968,455	-0,3
968,877	-0,31
969,298	-0,33
969,72	-0,34
970,142	-0,33
970,563	-0,33
970,985	-0,33
971,407	-0,33
971,828	-0,31
972,25	-0,3
972,671	-0,28
973,093	-0,28
973,514	-0,27
973,936	-0,24
974,357	-0,22
974,778	-0,23
975,2	-0,23
975,621	-0,22
976,042	-0,2
976,464	-0,2
976,885	-0,19
977,306	-0,19
977,727	-0,18
978,148	-0,17
978,57	-0,15
978,991	-0,14
979,412	-0,13
979,833	-0,11
980,254	-0,11
980,675	-0,11
981,096	-0,1
981,517	-0,08
981,937	-0,07
982,358	-0,05
982,779	-0,04
983,2	-0,04
983,621	-0,04
984,042	-0,02
984,462	-0,01
984,883	0,01
985,304	0,03
985,724	0,04
986,145	0,05
986,565	0,07
986,986	0,07
987,407	0,09
987,827	0,11
988,248	0,13
988,668	0,14
989,088	0,16
989,509	0,16
989,929	0,18
990,35	0,19
990,77	0,2
991,19	0,2
991,61	0,22
992,031	0,23
992,451	0,24
992,871	0,25
993,291	0,26
993,711	0,27
994,131	0,27
994,551	0,28
994,971	0,29
995,391	0,3
995,811	0,31
996,231	0,31
996,651	0,32
997,071	0,33
997,491	0,33
997,911	0,34
998,331	0,35
998,75	0,36
999,17	0,36
999,59	0,37
1000,009	0,37
1000,429	0,38
1000,849	0,39
1001,268	0,39
1001,688	0,39
1002,107	0,4
1002,527	0,4
1002,946	0,4
1003,366	0,41
1003,785	0,41
1004,205	0,41
1004,624	0,42
1005,044	0,42
1005,463	0,42
1005,882	0,42
1006,301	0,43
1006,721	0,43
1007,14	0,43
1007,559	0,43
1007,978	0,43
1008,397	0,43
1008,816	0,43
1009,235	0,43
1009,655	0,43
1010,074	0,43
1010,492	0,43
1010,911	0,43
1011,33	0,43
1011,749	0,43
1012,168	0,43
1012,587	0,43
1013,006	0,43
1013,425	0,43
1013,843	0,43
1014,262	0,43
1014,681	0,42
1015,099	0,42
1015,518	0,42
1015,937	0,42
1016,355	0,42
1016,774	0,42
1017,192	0,42
1017,611	0,42
1018,029	0,42
1018,448	0,42
1018,866	0,42
1019,285	0,42
1019,703	0,42
1020,121	0,42
1020,54	0,42
1020,958	0,42
1021,376	0,42
1021,794	0,42
1022,213	0,42
1022,631	0,42
1023,049	0,41
1023,467	0,41
1023,885	0,41
1024,303	0,41
1024,721	0,41
1025,139	0,41
1025,557	0,41
1025,975	0,41
1026,393	0,41
1026,811	0,41
1027,229	0,41
1027,647	0,41
1028,065	0,4
1028,482	0,4
1028,9	0,4
1029,318	0,4
1029,735	0,41
1030,153	0,4
1030,571	0,4
1030,988	0,4
1031,406	0,4
1031,823	0,4
1032,241	0,4
1032,659	0,41
1033,076	0,41
1033,493	0,41
1033,911	0,41
1034,328	0,41
1034,746	0,41
1035,163	0,41
1035,58	0,41
1035,997	0,41
1036,415	0,41
1036,832	0,41
1037,249	0,41
1037,666	0,41
1038,083	0,41
1038,501	0,41
1038,918	0,41
1039,335	0,41
1039,752	0,41
1040,169	0,41
1040,586	0,41
1041,003	0,41
1041,419	0,41
1041,836	0,41
1042,253	0,41
1042,67	0,41
1043,087	0,41
1043,504	0,41
1043,92	0,41
1044,337	0,41
1044,754	0,41
1045,17	0,41
1045,587	0,41
1046,004	0,41
1046,42	0,41
1046,837	0,41
1047,253	0,41
1047,67	0,41
1048,086	0,41
1048,503	0,41
1048,919	0,41
1049,335	0,41
1049,752	0,41
1050,168	0,41
1050,584	0,41
1051,001	0,41
1051,417	0,41
1051,833	0,41
1052,249	0,41
1052,665	0,41
1053,081	0,41
1053,497	0,41
1053,914	0,41
1054,33	0,42
1054,746	0,42
1055,162	0,42
1055,578	0,42
1055,993	0,42
1056,409	0,42
1056,825	0,42
1057,241	0,42
1057,657	0,42
1058,073	0,42
1058,488	0,42
1058,904	0,42
1059,32	0,42
1059,736	0,42
1060,151	0,42
1060,567	0,42
1060,982	0,42
1061,398	0,42
1061,813	0,42
1062,229	0,42
1062,644	0,41
1063,06	0,41
1063,475	0,41
1063,891	0,41
1064,306	0,41
1064,721	0,41
1065,137	0,41
1065,552	0,41
1065,967	0,41
1066,382	0,41
1066,798	0,41
1067,213	0,41
1067,628	0,41
1068,043	0,41
1068,458	0,41
1068,873	0,41
1069,288	0,41
1069,703	0,41
1070,118	0,41
1070,533	0,41
1070,948	0,41
1071,363	0,41
1071,778	0,41
1072,193	0,41
1072,607	0,41
1073,022	0,41
1073,437	0,41
1073,852	0,41
1074,266	0,41
1074,681	0,41
1075,096	0,41
1075,51	0,41
1075,925	0,41
1076,339	0,41
1076,754	0,41
1077,168	0,41
1077,583	0,41
1077,997	0,41
1078,412	0,41
1078,826	0,41
1079,24	0,41
1079,655	0,41
1080,069	0,4
1080,483	0,4
1080,897	0,4
1081,312	0,4
1081,726	0,4
1082,14	0,4
1082,554	0,4
1082,968	0,4
1083,382	0,4
1083,796	0,4
1084,21	0,4
1084,624	0,4
1085,038	0,4
1085,452	0,4
1085,866	0,4
1086,28	0,39
1086,694	0,39
1087,108	0,39
1087,521	0,39
1087,935	0,39
1088,349	0,38
1088,763	0,38
1089,176	0,38
1089,59	0,38
1090,004	0,37
1090,417	0,37
1090,831	0,36
1091,244	0,36
1091,658	0,36
1092,071	0,35
1092,485	0,35
1092,898	0,35
1093,312	0,35
1093,725	0,34
1094,138	0,34
1094,552	0,34
1094,965	0,34
1095,378	0,34
1095,791	0,34
1096,205	0,34
1096,618	0,33
1097,031	0,33
1097,444	0,33
1097,857	0,32
1098,27	0,32
1098,683	0,32
1099,096	0,31
1099,509	0,31
1099,922	0,3
1100,335	0,3
1100,748	0,29
1101,161	0,29
1101,574	0,29
1101,986	0,28
1102,399	0,28
1102,812	0,28
1103,225	0,28
1103,637	0,27
1104,05	0,27
1104,463	0,27
1104,875	0,26
1105,288	0,26
1105,7	0,25
1106,113	0,25
1106,525	0,24
1106,938	0,24
1107,35	0,23
1107,763	0,23
1108,175	0,23
1108,588	0,22
1109	0,21
1109,412	0,21
1109,824	0,21
1110,237	0,21
1110,649	0,2
1111,061	0,2
