Data from 18C-808nm-8A-cont_Absorbance__199__01628.txt Node

Date: Mon Jul 17 17:24:53 CEST 2023
User: Laser008
Spectrometer: MAYP115816
Trigger mode: 0
Integration Time (sec): 2,500000E-1
Scans to average: 10
Electric dark correction enabled: true
Nonlinearity correction enabled: true
Boxcar width: 5
XAxis mode: Wavelengths
Number of Pixels in Spectrum: 2068
>>>>>Begin Spectral Data<<<<<
198,914	-0,7
199,384	-0,49
199,855	-0,36
200,325	-0,29
200,796	-0,26
201,266	-0,21
201,737	-0,19
202,207	-0,18
202,677	-0,17
203,147	-0,16
203,618	-0,12
204,088	-0,1
204,558	-0,1
205,028	-0,09
205,498	-0,1
205,968	-0,09
206,439	-0,1
206,909	-0,1
207,379	-0,11
207,849	-0,11
208,319	-0,12
208,789	-0,13
209,258	-0,13
209,728	-0,14
210,198	-0,14
210,668	-0,14
211,138	-0,13
211,608	-0,13
212,077	-0,13
212,547	-0,13
213,017	-0,13
213,486	-0,13
213,956	-0,14
214,426	-0,15
214,895	-0,14
215,365	-0,15
215,834	-0,15
216,304	-0,16
216,773	-0,17
217,243	-0,18
217,712	-0,19
218,181	-0,19
218,651	-0,2
219,12	-0,18
219,589	-0,18
220,058	-0,17
220,528	-0,18
220,997	-0,18
221,466	-0,19
221,935	-0,19
222,404	-0,19
222,873	-0,18
223,342	-0,18
223,812	-0,18
224,281	-0,19
224,749	-0,19
225,218	-0,21
225,687	-0,21
226,156	-0,2
226,625	-0,18
227,094	-0,18
227,563	-0,17
228,031	-0,19
228,5	-0,19
228,969	-0,19
229,438	-0,18
229,906	-0,17
230,375	-0,15
230,844	-0,15
231,312	-0,15
231,781	-0,17
232,249	-0,16
232,718	-0,16
233,186	-0,15
233,655	-0,15
234,123	-0,15
234,591	-0,15
235,06	-0,16
235,528	-0,16
235,996	-0,15
236,465	-0,14
236,933	-0,13
237,401	-0,14
237,869	-0,12
238,337	-0,13
238,805	-0,13
239,274	-0,12
239,742	-0,12
240,21	-0,11
240,678	-0,1
241,146	-0,1
241,614	-0,1
242,081	-0,1
242,549	-0,09
243,017	-0,1
243,485	-0,1
243,953	-0,1
244,421	-0,09
244,888	-0,09
245,356	-0,1
245,824	-0,1
246,291	-0,11
246,759	-0,12
247,227	-0,12
247,694	-0,12
248,162	-0,11
248,629	-0,1
249,097	-0,1
249,564	-0,12
250,032	-0,13
250,499	-0,12
250,967	-0,12
251,434	-0,13
251,901	-0,12
252,369	-0,13
252,836	-0,13
253,303	-0,15
253,77	-0,16
254,237	-0,15
254,705	-0,16
255,172	-0,15
255,639	-0,16
256,106	-0,17
256,573	-0,16
257,04	-0,16
257,507	-0,17
257,974	-0,17
258,441	-0,15
258,908	-0,17
259,375	-0,18
259,841	-0,18
260,308	-0,19
260,775	-0,19
261,242	-0,19
261,709	-0,19
262,175	-0,21
262,642	-0,19
263,109	-0,19
263,575	-0,21
264,042	-0,19
264,508	-0,19
264,975	-0,2
265,441	-0,21
265,908	-0,21
266,374	-0,21
266,841	-0,21
267,307	-0,21
267,773	-0,21
268,24	-0,21
268,706	-0,2
269,172	-0,21
269,639	-0,22
270,105	-0,21
270,571	-0,21
271,037	-0,21
271,503	-0,22
271,969	-0,21
272,435	-0,22
272,902	-0,23
273,368	-0,24
273,834	-0,24
274,3	-0,24
274,765	-0,24
275,231	-0,25
275,697	-0,23
276,163	-0,22
276,629	-0,22
277,095	-0,22
277,56	-0,22
278,026	-0,22
278,492	-0,21
278,958	-0,22
279,423	-0,22
279,889	-0,21
280,354	-0,21
280,82	-0,22
281,286	-0,24
281,751	-0,24
282,217	-0,22
282,682	-0,22
283,147	-0,22
283,613	-0,22
284,078	-0,22
284,544	-0,23
285,009	-0,24
285,474	-0,23
285,939	-0,24
286,405	-0,23
286,87	-0,23
287,335	-0,23
287,8	-0,23
288,265	-0,21
288,73	-0,22
289,195	-0,24
289,66	-0,24
290,125	-0,22
290,59	-0,22
291,055	-0,21
291,52	-0,21
291,985	-0,22
292,45	-0,24
292,915	-0,24
293,38	-0,24
293,844	-0,22
294,309	-0,21
294,774	-0,2
295,239	-0,22
295,703	-0,22
296,168	-0,22
296,632	-0,21
297,097	-0,19
297,562	-0,18
298,026	-0,18
298,491	-0,18
298,955	-0,17
299,419	-0,17
299,884	-0,17
300,348	-0,16
300,813	-0,15
301,277	-0,15
301,741	-0,16
302,205	-0,16
302,67	-0,15
303,134	-0,14
303,598	-0,14
304,062	-0,14
304,526	-0,13
304,99	-0,14
305,454	-0,14
305,919	-0,14
306,383	-0,14
306,847	-0,13
307,31	-0,14
307,774	-0,16
308,238	-0,15
308,702	-0,14
309,166	-0,16
309,63	-0,16
310,094	-0,13
310,557	-0,14
311,021	-0,13
311,485	-0,13
311,948	-0,12
312,412	-0,11
312,876	-0,1
313,339	-0,11
313,803	-0,12
314,266	-0,11
314,73	-0,11
315,193	-0,12
315,657	-0,1
316,12	-0,1
316,584	-0,09
317,047	-0,09
317,51	-0,08
317,973	-0,07
318,437	-0,06
318,9	-0,05
319,363	-0,04
319,826	-0,04
320,29	-0,05
320,753	-0,05
321,216	-0,05
321,679	-0,04
322,142	-0,04
322,605	-0,06
323,068	-0,06
323,531	-0,06
323,994	-0,06
324,457	-0,06
324,92	-0,05
325,382	-0,05
325,845	-0,05
326,308	-0,05
326,771	-0,05
327,233	-0,05
327,696	-0,04
328,159	-0,04
328,622	-0,02
329,084	-0,03
329,547	-0,01
330,009	-0,01
330,472	0,01
330,934	0,01
331,397	0,01
331,859	0,02
332,322	0,03
332,784	0,03
333,246	0,04
333,709	0,04
334,171	0,04
334,633	0,04
335,096	0,05
335,558	0,05
336,02	0,05
336,482	0,05
336,944	0,07
337,406	0,07
337,868	0,08
338,331	0,09
338,793	0,09
339,255	0,1
339,717	0,11
340,178	0,11
340,64	0,12
341,102	0,12
341,564	0,14
342,026	0,15
342,488	0,16
342,949	0,17
343,411	0,2
343,873	0,22
344,335	0,25
344,796	0,28
345,258	0,32
345,719	0,36
346,181	0,4
346,643	0,44
347,104	0,46
347,566	0,49
348,027	0,51
348,488	0,53
348,95	0,55
349,411	0,57
349,873	0,59
350,334	0,61
350,795	0,62
351,256	0,63
351,718	0,64
352,179	0,64
352,64	0,64
353,101	0,65
353,562	0,65
354,023	0,65
354,484	0,65
354,945	0,65
355,406	0,66
355,867	0,66
356,328	0,66
356,789	0,66
357,25	0,66
357,711	0,67
358,172	0,67
358,633	0,67
359,093	0,67
359,554	0,67
360,015	0,67
360,476	0,67
360,936	0,67
361,397	0,68
361,858	0,68
362,318	0,68
362,779	0,68
363,239	0,68
363,7	0,68
364,16	0,68
364,621	0,68
365,081	0,68
365,541	0,68
366,002	0,68
366,462	0,68
366,922	0,68
367,383	0,68
367,843	0,68
368,303	0,68
368,763	0,68
369,223	0,68
369,684	0,68
370,144	0,68
370,604	0,68
371,064	0,68
371,524	0,68
371,984	0,68
372,444	0,68
372,904	0,68
373,363	0,68
373,823	0,68
374,283	0,68
374,743	0,68
375,203	0,68
375,663	0,68
376,122	0,68
376,582	0,68
377,042	0,68
377,501	0,68
377,961	0,68
378,42	0,67
378,88	0,67
379,34	0,67
379,799	0,67
380,259	0,67
380,718	0,67
381,177	0,67
381,637	0,67
382,096	0,67
382,555	0,67
383,015	0,67
383,474	0,67
383,933	0,67
384,393	0,67
384,852	0,67
385,311	0,67
385,77	0,67
386,229	0,67
386,688	0,67
387,147	0,67
387,606	0,67
388,065	0,67
388,524	0,67
388,983	0,67
389,442	0,67
389,901	0,66
390,36	0,66
390,819	0,66
391,277	0,66
391,736	0,66
392,195	0,66
392,654	0,66
393,112	0,66
393,571	0,66
394,03	0,66
394,488	0,66
394,947	0,66
395,405	0,66
395,864	0,66
396,322	0,66
396,781	0,66
397,239	0,66
397,698	0,66
398,156	0,66
398,614	0,66
399,073	0,66
399,531	0,66
399,989	0,66
400,447	0,66
400,905	0,66
401,364	0,66
401,822	0,66
402,28	0,66
402,738	0,66
403,196	0,66
403,654	0,66
404,112	0,66
404,57	0,66
405,028	0,66
405,486	0,66
405,944	0,65
406,402	0,65
406,859	0,65
407,317	0,65
407,775	0,65
408,233	0,65
408,691	0,65
409,148	0,65
409,606	0,65
410,064	0,65
410,521	0,65
410,979	0,65
411,436	0,65
411,894	0,65
412,351	0,65
412,809	0,65
413,266	0,65
413,724	0,65
414,181	0,65
414,638	0,65
415,096	0,65
415,553	0,65
416,01	0,65
416,467	0,65
416,925	0,65
417,382	0,65
417,839	0,65
418,296	0,65
418,753	0,65
419,21	0,65
419,667	0,65
420,124	0,65
420,581	0,65
421,038	0,65
421,495	0,65
421,952	0,65
422,409	0,65
422,866	0,65
423,322	0,65
423,779	0,65
424,236	0,65
424,693	0,65
425,149	0,65
425,606	0,65
426,063	0,65
426,519	0,65
426,976	0,65
427,433	0,65
427,889	0,65
428,346	0,65
428,802	0,65
429,258	0,65
429,715	0,65
430,171	0,65
430,628	0,65
431,084	0,65
431,54	0,65
431,997	0,65
432,453	0,65
432,909	0,65
433,365	0,65
433,821	0,64
434,277	0,64
434,734	0,64
435,19	0,64
435,646	0,64
436,102	0,64
436,558	0,64
437,014	0,64
437,47	0,64
437,925	0,64
438,381	0,64
438,837	0,65
439,293	0,65
439,749	0,65
440,205	0,65
440,66	0,65
441,116	0,65
441,572	0,65
442,027	0,65
442,483	0,65
442,939	0,65
443,394	0,65
443,85	0,65
444,305	0,65
444,761	0,65
445,216	0,65
445,672	0,65
446,127	0,65
446,582	0,65
447,038	0,65
447,493	0,65
447,948	0,65
448,403	0,65
448,859	0,65
449,314	0,65
449,769	0,65
450,224	0,65
450,679	0,65
451,134	0,65
451,589	0,65
452,044	0,65
452,499	0,65
452,954	0,65
453,409	0,65
453,864	0,65
454,319	0,65
454,774	0,65
455,229	0,65
455,684	0,65
456,138	0,65
456,593	0,65
457,048	0,65
457,503	0,65
457,957	0,65
458,412	0,65
458,866	0,65
459,321	0,65
459,776	0,65
460,23	0,65
460,685	0,65
461,139	0,66
461,593	0,66
462,048	0,66
462,502	0,66
462,957	0,66
463,411	0,66
463,865	0,66
464,319	0,66
464,774	0,66
465,228	0,66
465,682	0,66
466,136	0,66
466,59	0,66
467,044	0,67
467,499	0,67
467,953	0,67
468,407	0,67
468,861	0,67
469,315	0,67
469,768	0,67
470,222	0,67
470,676	0,67
471,13	0,67
471,584	0,67
472,038	0,67
472,491	0,67
472,945	0,67
473,399	0,67
473,852	0,68
474,306	0,68
474,76	0,68
475,213	0,68
475,667	0,68
476,12	0,68
476,574	0,68
477,027	0,68
477,481	0,68
477,934	0,69
478,388	0,69
478,841	0,69
479,294	0,69
479,748	0,69
480,201	0,69
480,654	0,69
481,107	0,7
481,561	0,7
482,014	0,7
482,467	0,7
482,92	0,7
483,373	0,7
483,826	0,71
484,279	0,71
484,732	0,71
485,185	0,71
485,638	0,71
486,091	0,71
486,544	0,71
486,997	0,72
487,449	0,72
487,902	0,72
488,355	0,72
488,808	0,72
489,26	0,73
489,713	0,73
490,166	0,73
490,618	0,73
491,071	0,74
491,523	0,74
491,976	0,74
492,429	0,74
492,881	0,75
493,333	0,75
493,786	0,75
494,238	0,76
494,691	0,76
495,143	0,76
495,595	0,76
496,048	0,77
496,5	0,77
496,952	0,77
497,404	0,78
497,856	0,78
498,309	0,78
498,761	0,78
499,213	0,79
499,665	0,79
500,117	0,8
500,569	0,8
501,021	0,8
501,473	0,8
501,925	0,81
502,377	0,81
502,828	0,82
503,28	0,82
503,732	0,82
504,184	0,83
504,636	0,83
505,087	0,83
505,539	0,84
505,991	0,84
506,442	0,84
506,894	0,85
507,345	0,85
507,797	0,85
508,249	0,86
508,7	0,86
509,151	0,86
509,603	0,87
510,054	0,87
510,506	0,87
510,957	0,88
511,408	0,88
511,86	0,88
512,311	0,89
512,762	0,89
513,213	0,89
513,665	0,9
514,116	0,9
514,567	0,9
515,018	0,9
515,469	0,91
515,92	0,91
516,371	0,91
516,822	0,92
517,273	0,92
517,724	0,92
518,175	0,92
518,626	0,93
519,076	0,93
519,527	0,93
519,978	0,93
520,429	0,93
520,88	0,94
521,33	0,94
521,781	0,94
522,232	0,94
522,682	0,94
523,133	0,94
523,583	0,95
524,034	0,95
524,484	0,95
524,935	0,95
525,385	0,95
525,836	0,95
526,286	0,95
526,736	0,95
527,187	0,95
527,637	0,95
528,087	0,95
528,538	0,95
528,988	0,95
529,438	0,95
529,888	0,95
530,338	0,94
530,788	0,94
531,238	0,94
531,688	0,94
532,139	0,94
532,589	0,94
533,038	0,94
533,488	0,94
533,938	0,94
534,388	0,93
534,838	0,93
535,288	0,93
535,738	0,92
536,187	0,92
536,637	0,92
537,087	0,92
537,537	0,91
537,986	0,91
538,436	0,91
538,885	0,9
539,335	0,9
539,785	0,89
540,234	0,89
540,684	0,89
541,133	0,88
541,582	0,88
542,032	0,87
542,481	0,87
542,931	0,87
543,38	0,86
543,829	0,86
544,278	0,85
544,728	0,85
545,177	0,85
545,626	0,84
546,075	0,84
546,524	0,84
546,973	0,83
547,422	0,83
547,871	0,83
548,32	0,82
548,769	0,82
549,218	0,82
549,667	0,82
550,116	0,81
550,565	0,81
551,014	0,81
551,463	0,8
551,911	0,8
552,36	0,79
552,809	0,79
553,258	0,79
553,706	0,78
554,155	0,78
554,603	0,78
555,052	0,77
555,501	0,77
555,949	0,77
556,398	0,76
556,846	0,76
557,294	0,75
557,743	0,75
558,191	0,75
558,64	0,74
559,088	0,74
559,536	0,73
559,985	0,73
560,433	0,72
560,881	0,72
561,329	0,72
561,777	0,71
562,225	0,71
562,674	0,71
563,122	0,7
563,57	0,7
564,018	0,7
564,466	0,69
564,914	0,69
565,362	0,69
565,809	0,68
566,257	0,68
566,705	0,68
567,153	0,67
567,601	0,67
568,048	0,67
568,496	0,66
568,944	0,66
569,392	0,66
569,839	0,66
570,287	0,65
570,734	0,65
571,182	0,65
571,63	0,64
572,077	0,64
572,525	0,64
572,972	0,63
573,419	0,63
573,867	0,63
574,314	0,62
574,761	0,62
575,209	0,62
575,656	0,61
576,103	0,61
576,551	0,61
576,998	0,61
577,445	0,61
577,892	0,6
578,339	0,6
578,786	0,6
579,233	0,6
579,68	0,59
580,127	0,59
580,574	0,59
581,021	0,59
581,468	0,58
581,915	0,58
582,362	0,58
582,809	0,58
583,255	0,58
583,702	0,57
584,149	0,57
584,596	0,57
585,042	0,57
585,489	0,57
585,936	0,56
586,382	0,56
586,829	0,56
587,275	0,56
587,722	0,56
588,168	0,56
588,615	0,55
589,061	0,55
589,508	0,55
589,954	0,55
590,4	0,55
590,847	0,54
591,293	0,54
591,739	0,54
592,185	0,54
592,632	0,54
593,078	0,54
593,524	0,54
593,97	0,54
594,416	0,53
594,862	0,53
595,308	0,53
595,754	0,53
596,2	0,53
596,646	0,53
597,092	0,53
597,538	0,53
597,984	0,52
598,43	0,52
598,876	0,52
599,321	0,52
599,767	0,52
600,213	0,52
600,659	0,52
601,104	0,52
601,55	0,52
601,995	0,51
602,441	0,51
602,887	0,51
603,332	0,51
603,778	0,51
604,223	0,51
604,668	0,51
605,114	0,51
605,559	0,51
606,005	0,5
606,45	0,5
606,895	0,5
607,341	0,5
607,786	0,5
608,231	0,5
608,676	0,5
609,121	0,49
609,566	0,49
610,012	0,48
610,457	0,48
610,902	0,48
611,347	0,47
611,792	0,47
612,237	0,47
612,682	0,47
613,127	0,47
613,571	0,47
614,016	0,47
614,461	0,47
614,906	0,48
615,351	0,48
615,795	0,48
616,24	0,48
616,685	0,48
617,129	0,48
617,574	0,48
618,019	0,48
618,463	0,48
618,908	0,48
619,352	0,48
619,797	0,48
620,241	0,48
620,686	0,48
621,13	0,47
621,574	0,47
622,019	0,47
622,463	0,47
622,907	0,47
623,352	0,47
623,796	0,47
624,24	0,47
624,684	0,47
625,128	0,47
625,572	0,47
626,016	0,47
626,461	0,47
626,905	0,47
627,349	0,47
627,793	0,47
628,236	0,47
628,68	0,47
629,124	0,46
629,568	0,46
630,012	0,46
630,456	0,46
630,9	0,46
631,343	0,46
631,787	0,46
632,231	0,46
632,674	0,46
633,118	0,46
633,562	0,46
634,005	0,46
634,449	0,46
634,892	0,46
635,336	0,46
635,779	0,46
636,223	0,46
636,666	0,46
637,109	0,46
637,553	0,46
637,996	0,46
638,439	0,46
638,883	0,46
639,326	0,46
639,769	0,46
640,212	0,46
640,655	0,46
641,099	0,46
641,542	0,45
641,985	0,45
642,428	0,45
642,871	0,45
643,314	0,45
643,757	0,45
644,2	0,45
644,643	0,45
645,085	0,45
645,528	0,45
645,971	0,45
646,414	0,45
646,857	0,45
647,299	0,45
647,742	0,45
648,185	0,45
648,627	0,45
649,07	0,45
649,513	0,45
649,955	0,45
650,398	0,45
650,84	0,45
651,283	0,45
651,725	0,45
652,168	0,45
652,61	0,45
653,052	0,45
653,495	0,45
653,937	0,36
654,379	0,31
654,821	0,31
655,264	0,31
655,706	0,31
656,148	0,31
656,59	0,31
657,032	0,31
657,474	0,31
657,916	0,31
658,358	0,3
658,8	0,37
659,242	0,45
659,684	0,45
660,126	0,45
660,568	0,44
661,01	0,44
661,452	0,44
661,894	0,44
662,335	0,44
662,777	0,44
663,219	0,44
663,661	0,44
664,102	0,44
664,544	0,44
664,985	0,44
665,427	0,44
665,869	0,44
666,31	0,44
666,752	0,44
667,193	0,44
667,634	0,44
668,076	0,44
668,517	0,44
668,959	0,44
669,4	0,44
669,841	0,44
670,282	0,44
670,724	0,44
671,165	0,44
671,606	0,44
672,047	0,44
672,488	0,44
672,929	0,44
673,37	0,44
673,811	0,44
674,252	0,44
674,693	0,43
675,134	0,43
675,575	0,43
676,016	0,43
676,457	0,43
676,898	0,43
677,339	0,43
677,78	0,43
678,22	0,43
678,661	0,43
679,102	0,43
679,542	0,43
679,983	0,43
680,424	0,43
680,864	0,43
681,305	0,43
681,745	0,43
682,186	0,43
682,626	0,43
683,067	0,43
683,507	0,43
683,948	0,43
684,388	0,43
684,828	0,43
685,269	0,43
685,709	0,43
686,149	0,43
686,589	0,43
687,029	0,43
687,47	0,43
687,91	0,42
688,35	0,42
688,79	0,42
689,23	0,42
689,67	0,42
690,11	0,42
690,55	0,42
690,99	0,42
691,43	0,42
691,87	0,42
692,31	0,42
692,749	0,42
693,189	0,42
693,629	0,42
694,069	0,42
694,508	0,42
694,948	0,41
695,388	0,41
695,827	0,41
696,267	0,42
696,706	0,42
697,146	0,42
697,586	0,42
698,025	0,42
698,464	0,42
698,904	0,42
699,343	0,42
699,783	0,42
700,222	0,42
700,661	0,42
701,101	0,42
701,54	0,42
701,979	0,42
702,418	0,42
702,857	0,42
703,297	0,42
703,736	0,42
704,175	0,42
704,614	0,42
705,053	0,42
705,492	0,42
705,931	0,42
706,37	0,42
706,809	0,42
707,248	0,42
707,687	0,42
708,125	0,42
708,564	0,42
709,003	0,42
709,442	0,42
709,88	0,42
710,319	0,41
710,758	0,41
711,196	0,41
711,635	0,41
712,074	0,41
712,512	0,41
712,951	0,41
713,389	0,41
713,828	0,41
714,266	0,41
714,705	0,41
715,143	0,41
715,581	0,41
716,02	0,41
716,458	0,41
716,896	0,41
717,334	0,41
717,773	0,41
718,211	0,41
718,649	0,41
719,087	0,41
719,525	0,41
719,963	0,41
720,401	0,41
720,839	0,41
721,277	0,41
721,715	0,41
722,153	0,41
722,591	0,41
723,029	0,41
723,467	0,41
723,905	0,41
724,342	0,41
724,78	0,41
725,218	0,41
725,656	0,41
726,093	0,41
726,531	0,41
726,969	0,41
727,406	0,41
727,844	0,41
728,281	0,41
728,719	0,41
729,156	0,41
729,594	0,41
730,031	0,41
730,469	0,4
730,906	0,4
731,343	0,4
731,781	0,4
732,218	0,4
732,655	0,4
733,092	0,4
733,53	0,4
733,967	0,4
734,404	0,4
734,841	0,4
735,278	0,4
735,715	0,4
736,152	0,4
736,589	0,39
737,026	0,39
737,463	0,39
737,9	0,39
738,337	0,39
738,774	0,39
739,211	0,39
739,647	0,39
740,084	0,39
740,521	0,39
740,958	0,39
741,394	0,39
741,831	0,39
742,268	0,39
742,704	0,39
743,141	0,39
743,577	0,39
744,014	0,39
744,45	0,39
744,887	0,39
745,323	0,39
745,76	0,39
746,196	0,39
746,632	0,38
747,069	0,38
747,505	0,38
747,941	0,38
748,378	0,38
748,814	0,38
749,25	0,38
749,686	0,39
750,122	0,39
750,558	0,39
750,994	0,39
751,43	0,39
751,866	0,39
752,302	0,39
752,738	0,4
753,174	0,4
753,61	0,4
754,046	0,4
754,482	0,4
754,918	0,4
755,354	0,4
755,789	0,4
756,225	0,39
756,661	0,39
757,096	0,39
757,532	0,39
757,968	0,39
758,403	0,39
758,839	0,38
759,274	0,38
759,71	0,38
760,145	0,37
760,581	0,37
761,016	0,36
761,452	0,36
761,887	0,35
762,322	0,35
762,758	0,34
763,193	0,34
763,628	0,33
764,063	0,33
764,499	0,32
764,934	0,31
765,369	0,31
765,804	0,3
766,239	0,3
766,674	0,29
767,109	0,29
767,544	0,28
767,979	0,27
768,414	0,26
768,849	0,25
769,284	0,24
769,719	0,23
770,154	0,23
770,588	0,22
771,023	0,2
771,458	0,19
771,893	0,18
772,327	0,17
772,762	0,16
773,197	0,15
773,631	0,14
774,066	0,14
774,5	0,13
774,935	0,11
775,369	0,11
775,804	0,1
776,238	0,09
776,673	0,09
777,107	0,08
777,541	0,07
777,976	0,05
778,41	0,05
778,844	0,04
779,279	0,04
779,713	0,04
780,147	0,02
780,581	0,02
781,015	0
781,449	-0,01
781,883	-0,01
782,317	-0,02
782,751	-0,03
783,185	-0,04
783,619	-0,04
784,053	-0,05
784,487	-0,06
784,921	-0,06
785,355	-0,08
785,789	-0,08
786,223	-0,09
786,656	-0,1
787,09	-0,11
787,524	-0,12
787,957	-0,13
788,391	-0,15
788,825	-0,18
789,258	-0,2
789,692	-0,21
790,125	-0,22
790,559	-0,24
790,992	-0,27
791,426	-0,29
791,859	-0,31
792,293	-0,34
792,726	-0,36
793,159	-0,37
793,593	-0,39
794,026	-0,41
794,459	-0,44
794,892	-0,47
795,326	-0,49
795,759	-0,52
796,192	-0,57
796,625	-0,61
797,058	-0,63
797,491	-0,67
797,924	-0,72
798,357	-0,77
798,79	-0,81
799,223	-0,85
799,656	-0,91
800,089	-0,95
800,522	-1
800,955	-1,04
801,387	-1,09
801,82	-1,15
802,253	-1,21
802,686	-1,29
803,118	-1,35
803,551	-1,4
803,984	-1,44
804,416	-1,48
804,849	-1,51
805,281	-1,61
805,714	-1,95
806,146	-2,43
806,579	-2,7
807,011	-2,86
807,444	-2,96
807,876	-3,05
808,308	-3,08
808,741	-3,11
809,173	-3,16
809,605	-3,18
810,037	-3,26
810,47	-3,18
810,902	-2,98
811,334	-2,83
811,766	-2,67
812,198	-2,43
812,63	-2
813,062	-1,79
813,494	-1,7
813,926	-1,61
814,358	-1,56
814,79	-1,47
815,222	-1,41
815,654	-1,37
816,086	-1,3
816,518	-1,25
816,949	-1,2
817,381	-1,15
817,813	-1,14
818,245	-1,1
818,676	-1,06
819,108	-1,02
819,54	-1,01
819,971	-0,99
820,403	-0,94
820,834	-0,92
821,266	-0,87
821,697	-0,85
822,129	-0,83
822,56	-0,81
822,991	-0,78
823,423	-0,76
823,854	-0,75
824,286	-0,73
824,717	-0,71
825,148	-0,69
825,579	-0,69
826,01	-0,68
826,442	-0,67
826,873	-0,65
827,304	-0,62
827,735	-0,61
828,166	-0,62
828,597	-0,61
829,028	-0,61
829,459	-0,62
829,89	-0,62
830,321	-0,57
830,752	-0,58
831,183	-0,56
831,613	-0,56
832,044	-0,56
832,475	-0,55
832,906	-0,56
833,336	-0,56
833,767	-0,56
834,198	-0,54
834,628	-0,53
835,059	-0,56
835,49	-0,56
835,92	-0,54
836,351	-0,54
836,781	-0,54
837,212	-0,55
837,642	-0,56
838,072	-0,54
838,503	-0,55
838,933	-0,53
839,364	-0,54
839,794	-0,51
840,224	-0,5
840,654	-0,55
841,085	-0,55
841,515	-0,53
841,945	-0,52
842,375	-0,47
842,805	-0,46
843,235	-0,45
843,665	-0,47
844,095	-0,45
844,525	-0,48
844,955	-0,49
845,385	-0,46
845,815	-0,45
846,245	-0,48
846,675	-0,49
847,105	-0,51
847,534	-0,51
847,964	-0,49
848,394	-0,48
848,824	-0,51
849,253	-0,5
849,683	-0,49
850,112	-0,51
850,542	-0,53
850,972	-0,53
851,401	-0,51
851,831	-0,49
852,26	-0,49
852,69	-0,53
853,119	-0,52
853,548	-0,52
853,978	-0,53
854,407	-0,5
854,836	-0,5
855,266	-0,5
855,695	-0,51
856,124	-0,52
856,553	-0,54
856,983	-0,56
857,412	-0,56
857,841	-0,58
858,27	-0,57
858,699	-0,57
859,128	-0,62
859,557	-0,62
859,986	-0,63
860,415	-0,61
860,844	-0,59
861,273	-0,59
861,702	-0,6
862,13	-0,58
862,559	-0,6
862,988	-0,58
863,417	-0,57
863,845	-0,56
864,274	-0,57
864,703	-0,57
865,131	-0,57
865,56	-0,58
865,989	-0,61
866,417	-0,58
866,846	-0,58
867,274	-0,58
867,703	-0,59
868,131	-0,6
868,559	-0,6
868,988	-0,62
869,416	-0,6
869,844	-0,62
870,273	-0,64
870,701	-0,62
871,129	-0,65
871,557	-0,67
871,986	-0,67
872,414	-0,7
872,842	-0,66
873,27	-0,64
873,698	-0,62
874,126	-0,67
874,554	-0,64
874,982	-0,64
875,41	-0,67
875,838	-0,63
876,266	-0,6
876,694	-0,61
877,122	-0,59
877,549	-0,64
877,977	-0,62
878,405	-0,63
878,833	-0,59
879,26	-0,58
879,688	-0,57
880,116	-0,56
880,543	-0,53
880,971	-0,53
881,399	-0,55
881,826	-0,56
882,254	-0,54
882,681	-0,58
883,109	-0,56
883,536	-0,57
883,963	-0,59
884,391	-0,57
884,818	-0,56
885,245	-0,6
885,673	-0,61
886,1	-0,58
886,527	-0,57
886,954	-0,54
887,381	-0,55
887,809	-0,56
888,236	-0,57
888,663	-0,58
889,09	-0,62
889,517	-0,64
889,944	-0,64
890,371	-0,63
890,798	-0,63
891,225	-0,64
891,652	-0,67
892,078	-0,65
892,505	-0,67
892,932	-0,62
893,359	-0,63
893,786	-0,63
894,212	-0,59
894,639	-0,6
895,066	-0,63
895,492	-0,57
895,919	-0,58
896,346	-0,58
896,772	-0,57
897,199	-0,55
897,625	-0,58
898,052	-0,55
898,478	-0,54
898,904	-0,55
899,331	-0,55
899,757	-0,55
900,183	-0,57
900,61	-0,55
901,036	-0,56
901,462	-0,55
901,888	-0,55
902,315	-0,53
902,741	-0,58
903,167	-0,56
903,593	-0,58
904,019	-0,56
904,445	-0,54
904,871	-0,58
905,297	-0,59
905,723	-0,59
906,149	-0,59
906,575	-0,6
907,001	-0,59
907,427	-0,57
907,852	-0,57
908,278	-0,58
908,704	-0,57
909,13	-0,56
909,555	-0,54
909,981	-0,54
910,407	-0,54
910,832	-0,53
911,258	-0,52
911,684	-0,53
912,109	-0,52
912,535	-0,54
912,96	-0,5
913,386	-0,54
913,811	-0,53
914,236	-0,55
914,662	-0,53
915,087	-0,56
915,512	-0,57
915,938	-0,59
916,363	-0,58
916,788	-0,59
917,213	-0,57
917,639	-0,62
918,064	-0,6
918,489	-0,61
918,914	-0,61
919,339	-0,61
919,764	-0,59
920,189	-0,59
920,614	-0,62
921,039	-0,62
921,464	-0,58
921,889	-0,6
922,314	-0,61
922,738	-0,64
923,163	-0,65
923,588	-0,66
924,013	-0,65
924,437	-0,64
924,862	-0,65
925,287	-0,61
925,711	-0,62
926,136	-0,63
926,561	-0,61
926,985	-0,6
927,41	-0,57
927,834	-0,54
928,259	-0,5
928,683	-0,49
929,108	-0,46
929,532	-0,48
929,956	-0,49
930,381	-0,48
930,805	-0,49
931,229	-0,48
931,653	-0,46
932,078	-0,46
932,502	-0,47
932,926	-0,48
933,35	-0,48
933,774	-0,48
934,198	-0,45
934,622	-0,43
935,046	-0,44
935,47	-0,44
935,894	-0,44
936,318	-0,44
936,742	-0,44
937,166	-0,44
937,59	-0,43
938,014	-0,45
938,437	-0,46
938,861	-0,48
939,285	-0,49
939,709	-0,48
940,132	-0,48
940,556	-0,49
940,98	-0,48
941,403	-0,47
941,827	-0,48
942,25	-0,49
942,674	-0,48
943,097	-0,47
943,521	-0,46
943,944	-0,48
944,368	-0,47
944,791	-0,46
945,214	-0,48
945,638	-0,48
946,061	-0,52
946,484	-0,52
946,907	-0,51
947,331	-0,51
947,754	-0,55
948,177	-0,53
948,6	-0,53
949,023	-0,53
949,446	-0,53
949,869	-0,51
950,292	-0,51
950,715	-0,47
951,138	-0,46
951,561	-0,44
951,984	-0,44
952,407	-0,42
952,83	-0,4
953,252	-0,35
953,675	-0,35
954,098	-0,36
954,521	-0,35
954,943	-0,35
955,366	-0,36
955,789	-0,34
956,211	-0,36
956,634	-0,36
957,056	-0,34
957,479	-0,36
957,902	-0,39
958,324	-0,39
958,746	-0,37
959,169	-0,38
959,591	-0,37
960,014	-0,38
960,436	-0,38
960,858	-0,37
961,281	-0,37
961,703	-0,38
962,125	-0,37
962,547	-0,35
962,969	-0,36
963,391	-0,37
963,814	-0,39
964,236	-0,39
964,658	-0,35
965,08	-0,36
965,502	-0,36
965,924	-0,33
966,346	-0,34
966,768	-0,33
967,189	-0,36
967,611	-0,34
968,033	-0,34
968,455	-0,32
968,877	-0,32
969,298	-0,34
969,72	-0,35
970,142	-0,33
970,563	-0,35
970,985	-0,33
971,407	-0,32
971,828	-0,29
972,25	-0,29
972,671	-0,27
973,093	-0,27
973,514	-0,26
973,936	-0,23
974,357	-0,22
974,778	-0,23
975,2	-0,22
975,621	-0,22
976,042	-0,2
976,464	-0,19
976,885	-0,18
977,306	-0,18
977,727	-0,16
978,148	-0,14
978,57	-0,13
978,991	-0,11
979,412	-0,1
979,833	-0,09
980,254	-0,09
980,675	-0,09
981,096	-0,08
981,517	-0,07
981,937	-0,06
982,358	-0,06
982,779	-0,04
983,2	-0,04
983,621	-0,04
984,042	-0,02
984,462	-0
984,883	0,01
985,304	0,02
985,724	0,04
986,145	0,05
986,565	0,06
986,986	0,07
987,407	0,08
987,827	0,09
988,248	0,11
988,668	0,11
989,088	0,12
989,509	0,14
989,929	0,15
990,35	0,16
990,77	0,17
991,19	0,17
991,61	0,19
992,031	0,2
992,451	0,21
992,871	0,21
993,291	0,22
993,711	0,23
994,131	0,24
994,551	0,25
994,971	0,25
995,391	0,26
995,811	0,27
996,231	0,27
996,651	0,28
997,071	0,28
997,491	0,29
997,911	0,3
998,331	0,31
998,75	0,31
999,17	0,31
999,59	0,32
1000,009	0,33
1000,429	0,33
1000,849	0,33
1001,268	0,34
1001,688	0,34
1002,107	0,35
1002,527	0,35
1002,946	0,35
1003,366	0,36
1003,785	0,36
1004,205	0,36
1004,624	0,37
1005,044	0,37
1005,463	0,37
1005,882	0,37
1006,301	0,37
1006,721	0,37
1007,14	0,38
1007,559	0,38
1007,978	0,38
1008,397	0,38
1008,816	0,38
1009,235	0,38
1009,655	0,38
1010,074	0,38
1010,492	0,38
1010,911	0,38
1011,33	0,37
1011,749	0,37
1012,168	0,37
1012,587	0,37
1013,006	0,37
1013,425	0,37
1013,843	0,37
1014,262	0,37
1014,681	0,37
1015,099	0,37
1015,518	0,37
1015,937	0,36
1016,355	0,36
1016,774	0,36
1017,192	0,36
1017,611	0,36
1018,029	0,36
1018,448	0,36
1018,866	0,36
1019,285	0,36
1019,703	0,36
1020,121	0,36
1020,54	0,36
1020,958	0,36
1021,376	0,36
1021,794	0,36
1022,213	0,36
1022,631	0,36
1023,049	0,36
1023,467	0,36
1023,885	0,36
1024,303	0,36
1024,721	0,36
1025,139	0,36
1025,557	0,36
1025,975	0,36
1026,393	0,36
1026,811	0,36
1027,229	0,35
1027,647	0,35
1028,065	0,35
1028,482	0,35
1028,9	0,35
1029,318	0,35
1029,735	0,35
1030,153	0,35
1030,571	0,35
1030,988	0,35
1031,406	0,35
1031,823	0,35
1032,241	0,35
1032,659	0,35
1033,076	0,35
1033,493	0,35
1033,911	0,35
1034,328	0,35
1034,746	0,35
1035,163	0,35
1035,58	0,35
1035,997	0,35
1036,415	0,36
1036,832	0,36
1037,249	0,36
1037,666	0,35
1038,083	0,35
1038,501	0,35
1038,918	0,35
1039,335	0,35
1039,752	0,35
1040,169	0,35
1040,586	0,35
1041,003	0,35
1041,419	0,35
1041,836	0,35
1042,253	0,35
1042,67	0,35
1043,087	0,35
1043,504	0,35
1043,92	0,35
1044,337	0,35
1044,754	0,35
1045,17	0,35
1045,587	0,35
1046,004	0,35
1046,42	0,35
1046,837	0,35
1047,253	0,35
1047,67	0,35
1048,086	0,35
1048,503	0,35
1048,919	0,35
1049,335	0,35
1049,752	0,35
1050,168	0,35
1050,584	0,35
1051,001	0,35
1051,417	0,35
1051,833	0,35
1052,249	0,35
1052,665	0,35
1053,081	0,36
1053,497	0,36
1053,914	0,36
1054,33	0,36
1054,746	0,36
1055,162	0,36
1055,578	0,36
1055,993	0,36
1056,409	0,36
1056,825	0,36
1057,241	0,36
1057,657	0,36
1058,073	0,36
1058,488	0,36
1058,904	0,36
1059,32	0,36
1059,736	0,36
1060,151	0,36
1060,567	0,36
1060,982	0,36
1061,398	0,36
1061,813	0,36
1062,229	0,36
1062,644	0,36
1063,06	0,36
1063,475	0,36
1063,891	0,36
1064,306	0,35
1064,721	0,35
1065,137	0,35
1065,552	0,35
1065,967	0,35
1066,382	0,35
1066,798	0,35
1067,213	0,35
1067,628	0,35
1068,043	0,35
1068,458	0,35
1068,873	0,35
1069,288	0,36
1069,703	0,35
1070,118	0,35
1070,533	0,36
1070,948	0,36
1071,363	0,36
1071,778	0,36
1072,193	0,36
1072,607	0,36
1073,022	0,36
1073,437	0,35
1073,852	0,36
1074,266	0,36
1074,681	0,36
1075,096	0,36
1075,51	0,35
1075,925	0,35
1076,339	0,35
1076,754	0,35
1077,168	0,35
1077,583	0,35
1077,997	0,35
1078,412	0,35
1078,826	0,35
1079,24	0,35
1079,655	0,35
1080,069	0,35
1080,483	0,35
1080,897	0,35
1081,312	0,35
1081,726	0,35
1082,14	0,35
1082,554	0,35
1082,968	0,35
1083,382	0,35
1083,796	0,35
1084,21	0,35
1084,624	0,35
1085,038	0,34
1085,452	0,34
1085,866	0,34
1086,28	0,34
1086,694	0,34
1087,108	0,34
1087,521	0,33
1087,935	0,33
1088,349	0,33
1088,763	0,33
1089,176	0,32
1089,59	0,32
1090,004	0,32
1090,417	0,31
1090,831	0,31
1091,244	0,31
1091,658	0,3
1092,071	0,3
1092,485	0,3
1092,898	0,3
1093,312	0,3
1093,725	0,29
1094,138	0,29
1094,552	0,29
1094,965	0,29
1095,378	0,29
1095,791	0,28
1096,205	0,28
1096,618	0,28
1097,031	0,28
1097,444	0,27
1097,857	0,27
1098,27	0,27
1098,683	0,26
1099,096	0,26
1099,509	0,26
1099,922	0,25
1100,335	0,25
1100,748	0,25
1101,161	0,24
1101,574	0,24
1101,986	0,24
1102,399	0,23
1102,812	0,23
1103,225	0,23
1103,637	0,22
1104,05	0,22
1104,463	0,22
1104,875	0,22
1105,288	0,22
1105,7	0,22
1106,113	0,21
1106,525	0,21
1106,938	0,21
1107,35	0,2
1107,763	0,2
1108,175	0,2
1108,588	0,2
1109	0,19
1109,412	0,19
1109,824	0,18
1110,237	0,18
1110,649	0,18
1111,061	0,16
