Data from 18C-808nm-8A-cont_Absorbance__135__01564.txt Node

Date: Mon Jul 17 17:22:13 CEST 2023
User: Laser008
Spectrometer: MAYP115816
Trigger mode: 0
Integration Time (sec): 2,500000E-1
Scans to average: 10
Electric dark correction enabled: true
Nonlinearity correction enabled: true
Boxcar width: 5
XAxis mode: Wavelengths
Number of Pixels in Spectrum: 2068
>>>>>Begin Spectral Data<<<<<
198,914	-0,64
199,384	-0,45
199,855	-0,35
200,325	-0,26
200,796	-0,24
201,266	-0,19
201,737	-0,18
202,207	-0,17
202,677	-0,16
203,147	-0,15
203,618	-0,13
204,088	-0,11
204,558	-0,09
205,028	-0,08
205,498	-0,09
205,968	-0,09
206,439	-0,1
206,909	-0,1
207,379	-0,1
207,849	-0,1
208,319	-0,1
208,789	-0,11
209,258	-0,12
209,728	-0,13
210,198	-0,12
210,668	-0,11
211,138	-0,11
211,608	-0,11
212,077	-0,11
212,547	-0,11
213,017	-0,11
213,486	-0,12
213,956	-0,12
214,426	-0,13
214,895	-0,12
215,365	-0,14
215,834	-0,14
216,304	-0,16
216,773	-0,16
217,243	-0,18
217,712	-0,19
218,181	-0,19
218,651	-0,19
219,12	-0,19
219,589	-0,18
220,058	-0,17
220,528	-0,18
220,997	-0,19
221,466	-0,2
221,935	-0,2
222,404	-0,19
222,873	-0,17
223,342	-0,17
223,812	-0,17
224,281	-0,17
224,749	-0,17
225,218	-0,19
225,687	-0,18
226,156	-0,17
226,625	-0,16
227,094	-0,15
227,563	-0,16
228,031	-0,18
228,5	-0,17
228,969	-0,18
229,438	-0,18
229,906	-0,17
230,375	-0,15
230,844	-0,15
231,312	-0,14
231,781	-0,15
232,249	-0,15
232,718	-0,15
233,186	-0,12
233,655	-0,13
234,123	-0,12
234,591	-0,12
235,06	-0,13
235,528	-0,14
235,996	-0,13
236,465	-0,14
236,933	-0,13
237,401	-0,13
237,869	-0,12
238,337	-0,13
238,805	-0,12
239,274	-0,12
239,742	-0,12
240,21	-0,11
240,678	-0,1
241,146	-0,1
241,614	-0,1
242,081	-0,1
242,549	-0,09
243,017	-0,1
243,485	-0,1
243,953	-0,1
244,421	-0,1
244,888	-0,1
245,356	-0,1
245,824	-0,1
246,291	-0,1
246,759	-0,11
247,227	-0,12
247,694	-0,12
248,162	-0,11
248,629	-0,1
249,097	-0,1
249,564	-0,11
250,032	-0,12
250,499	-0,12
250,967	-0,13
251,434	-0,13
251,901	-0,12
252,369	-0,12
252,836	-0,12
253,303	-0,13
253,77	-0,15
254,237	-0,14
254,705	-0,15
255,172	-0,13
255,639	-0,13
256,106	-0,13
256,573	-0,13
257,04	-0,14
257,507	-0,15
257,974	-0,16
258,441	-0,14
258,908	-0,15
259,375	-0,16
259,841	-0,17
260,308	-0,17
260,775	-0,17
261,242	-0,17
261,709	-0,17
262,175	-0,18
262,642	-0,18
263,109	-0,17
263,575	-0,18
264,042	-0,17
264,508	-0,16
264,975	-0,17
265,441	-0,18
265,908	-0,19
266,374	-0,18
266,841	-0,19
267,307	-0,19
267,773	-0,19
268,24	-0,19
268,706	-0,2
269,172	-0,21
269,639	-0,22
270,105	-0,21
270,571	-0,21
271,037	-0,21
271,503	-0,22
271,969	-0,21
272,435	-0,21
272,902	-0,23
273,368	-0,24
273,834	-0,23
274,3	-0,23
274,765	-0,23
275,231	-0,23
275,697	-0,22
276,163	-0,21
276,629	-0,21
277,095	-0,22
277,56	-0,21
278,026	-0,22
278,492	-0,19
278,958	-0,19
279,423	-0,19
279,889	-0,18
280,354	-0,19
280,82	-0,19
281,286	-0,2
281,751	-0,21
282,217	-0,2
282,682	-0,2
283,147	-0,2
283,613	-0,21
284,078	-0,21
284,544	-0,23
285,009	-0,23
285,474	-0,22
285,939	-0,23
286,405	-0,22
286,87	-0,21
287,335	-0,21
287,8	-0,21
288,265	-0,19
288,73	-0,2
289,195	-0,22
289,66	-0,22
290,125	-0,21
290,59	-0,21
291,055	-0,2
291,52	-0,21
291,985	-0,21
292,45	-0,22
292,915	-0,22
293,38	-0,22
293,844	-0,2
294,309	-0,19
294,774	-0,18
295,239	-0,19
295,703	-0,2
296,168	-0,2
296,632	-0,2
297,097	-0,18
297,562	-0,17
298,026	-0,17
298,491	-0,17
298,955	-0,17
299,419	-0,16
299,884	-0,16
300,348	-0,15
300,813	-0,14
301,277	-0,14
301,741	-0,14
302,205	-0,14
302,67	-0,13
303,134	-0,13
303,598	-0,13
304,062	-0,13
304,526	-0,13
304,99	-0,14
305,454	-0,14
305,919	-0,13
306,383	-0,13
306,847	-0,12
307,31	-0,13
307,774	-0,15
308,238	-0,14
308,702	-0,14
309,166	-0,15
309,63	-0,15
310,094	-0,13
310,557	-0,14
311,021	-0,13
311,485	-0,13
311,948	-0,14
312,412	-0,12
312,876	-0,11
313,339	-0,12
313,803	-0,12
314,266	-0,11
314,73	-0,11
315,193	-0,11
315,657	-0,1
316,12	-0,1
316,584	-0,09
317,047	-0,09
317,51	-0,08
317,973	-0,08
318,437	-0,07
318,9	-0,06
319,363	-0,06
319,826	-0,05
320,29	-0,06
320,753	-0,06
321,216	-0,06
321,679	-0,06
322,142	-0,05
322,605	-0,07
323,068	-0,07
323,531	-0,07
323,994	-0,06
324,457	-0,06
324,92	-0,05
325,382	-0,05
325,845	-0,06
326,308	-0,05
326,771	-0,04
327,233	-0,03
327,696	-0,02
328,159	-0,02
328,622	-0,01
329,084	-0,02
329,547	-0,01
330,009	-0,01
330,472	0,01
330,934	0,02
331,397	0,03
331,859	0,03
332,322	0,03
332,784	0,03
333,246	0,04
333,709	0,04
334,171	0,04
334,633	0,04
335,096	0,04
335,558	0,04
336,02	0,04
336,482	0,04
336,944	0,05
337,406	0,06
337,868	0,07
338,331	0,07
338,793	0,08
339,255	0,09
339,717	0,09
340,178	0,1
340,64	0,12
341,102	0,12
341,564	0,13
342,026	0,14
342,488	0,14
342,949	0,15
343,411	0,17
343,873	0,19
344,335	0,22
344,796	0,25
345,258	0,29
345,719	0,33
346,181	0,37
346,643	0,4
347,104	0,43
347,566	0,46
348,027	0,48
348,488	0,5
348,95	0,52
349,411	0,54
349,873	0,56
350,334	0,57
350,795	0,58
351,256	0,59
351,718	0,6
352,179	0,6
352,64	0,6
353,101	0,61
353,562	0,61
354,023	0,61
354,484	0,61
354,945	0,61
355,406	0,62
355,867	0,62
356,328	0,62
356,789	0,62
357,25	0,62
357,711	0,62
358,172	0,63
358,633	0,63
359,093	0,63
359,554	0,63
360,015	0,63
360,476	0,63
360,936	0,63
361,397	0,63
361,858	0,63
362,318	0,63
362,779	0,63
363,239	0,63
363,7	0,64
364,16	0,64
364,621	0,64
365,081	0,64
365,541	0,63
366,002	0,63
366,462	0,63
366,922	0,63
367,383	0,63
367,843	0,63
368,303	0,63
368,763	0,63
369,223	0,63
369,684	0,63
370,144	0,63
370,604	0,63
371,064	0,64
371,524	0,63
371,984	0,63
372,444	0,63
372,904	0,63
373,363	0,63
373,823	0,63
374,283	0,63
374,743	0,63
375,203	0,63
375,663	0,63
376,122	0,63
376,582	0,63
377,042	0,63
377,501	0,63
377,961	0,63
378,42	0,63
378,88	0,63
379,34	0,63
379,799	0,63
380,259	0,63
380,718	0,63
381,177	0,63
381,637	0,63
382,096	0,63
382,555	0,63
383,015	0,63
383,474	0,63
383,933	0,63
384,393	0,63
384,852	0,63
385,311	0,63
385,77	0,62
386,229	0,62
386,688	0,62
387,147	0,62
387,606	0,62
388,065	0,62
388,524	0,62
388,983	0,62
389,442	0,62
389,901	0,62
390,36	0,62
390,819	0,62
391,277	0,62
391,736	0,62
392,195	0,62
392,654	0,62
393,112	0,62
393,571	0,62
394,03	0,62
394,488	0,62
394,947	0,62
395,405	0,62
395,864	0,62
396,322	0,62
396,781	0,62
397,239	0,62
397,698	0,62
398,156	0,62
398,614	0,62
399,073	0,62
399,531	0,62
399,989	0,62
400,447	0,62
400,905	0,62
401,364	0,61
401,822	0,61
402,28	0,61
402,738	0,61
403,196	0,61
403,654	0,61
404,112	0,61
404,57	0,61
405,028	0,61
405,486	0,61
405,944	0,61
406,402	0,61
406,859	0,61
407,317	0,61
407,775	0,61
408,233	0,61
408,691	0,61
409,148	0,61
409,606	0,61
410,064	0,61
410,521	0,61
410,979	0,61
411,436	0,61
411,894	0,61
412,351	0,61
412,809	0,61
413,266	0,61
413,724	0,61
414,181	0,61
414,638	0,61
415,096	0,61
415,553	0,61
416,01	0,61
416,467	0,61
416,925	0,61
417,382	0,61
417,839	0,61
418,296	0,61
418,753	0,61
419,21	0,61
419,667	0,61
420,124	0,61
420,581	0,6
421,038	0,6
421,495	0,6
421,952	0,6
422,409	0,6
422,866	0,6
423,322	0,6
423,779	0,6
424,236	0,6
424,693	0,6
425,149	0,6
425,606	0,6
426,063	0,6
426,519	0,6
426,976	0,6
427,433	0,6
427,889	0,6
428,346	0,6
428,802	0,6
429,258	0,6
429,715	0,6
430,171	0,6
430,628	0,6
431,084	0,6
431,54	0,6
431,997	0,6
432,453	0,6
432,909	0,6
433,365	0,6
433,821	0,6
434,277	0,6
434,734	0,6
435,19	0,6
435,646	0,6
436,102	0,6
436,558	0,6
437,014	0,6
437,47	0,6
437,925	0,6
438,381	0,6
438,837	0,6
439,293	0,6
439,749	0,6
440,205	0,6
440,66	0,6
441,116	0,6
441,572	0,6
442,027	0,6
442,483	0,6
442,939	0,6
443,394	0,6
443,85	0,6
444,305	0,6
444,761	0,6
445,216	0,6
445,672	0,6
446,127	0,6
446,582	0,6
447,038	0,6
447,493	0,6
447,948	0,6
448,403	0,6
448,859	0,6
449,314	0,6
449,769	0,6
450,224	0,61
450,679	0,61
451,134	0,61
451,589	0,61
452,044	0,61
452,499	0,61
452,954	0,61
453,409	0,61
453,864	0,61
454,319	0,61
454,774	0,61
455,229	0,61
455,684	0,61
456,138	0,61
456,593	0,61
457,048	0,61
457,503	0,61
457,957	0,61
458,412	0,61
458,866	0,61
459,321	0,61
459,776	0,61
460,23	0,61
460,685	0,61
461,139	0,61
461,593	0,61
462,048	0,61
462,502	0,61
462,957	0,61
463,411	0,61
463,865	0,62
464,319	0,62
464,774	0,62
465,228	0,62
465,682	0,62
466,136	0,62
466,59	0,62
467,044	0,62
467,499	0,62
467,953	0,62
468,407	0,62
468,861	0,62
469,315	0,62
469,768	0,62
470,222	0,62
470,676	0,62
471,13	0,62
471,584	0,62
472,038	0,63
472,491	0,63
472,945	0,63
473,399	0,63
473,852	0,63
474,306	0,63
474,76	0,63
475,213	0,63
475,667	0,63
476,12	0,63
476,574	0,63
477,027	0,64
477,481	0,64
477,934	0,64
478,388	0,64
478,841	0,64
479,294	0,64
479,748	0,64
480,201	0,65
480,654	0,65
481,107	0,65
481,561	0,65
482,014	0,65
482,467	0,65
482,92	0,65
483,373	0,65
483,826	0,66
484,279	0,66
484,732	0,66
485,185	0,66
485,638	0,66
486,091	0,66
486,544	0,66
486,997	0,67
487,449	0,67
487,902	0,67
488,355	0,67
488,808	0,67
489,26	0,68
489,713	0,68
490,166	0,68
490,618	0,68
491,071	0,69
491,523	0,69
491,976	0,69
492,429	0,69
492,881	0,69
493,333	0,7
493,786	0,7
494,238	0,7
494,691	0,71
495,143	0,71
495,595	0,71
496,048	0,71
496,5	0,72
496,952	0,72
497,404	0,72
497,856	0,73
498,309	0,73
498,761	0,73
499,213	0,73
499,665	0,74
500,117	0,74
500,569	0,74
501,021	0,75
501,473	0,75
501,925	0,75
502,377	0,76
502,828	0,76
503,28	0,76
503,732	0,77
504,184	0,77
504,636	0,77
505,087	0,78
505,539	0,78
505,991	0,78
506,442	0,79
506,894	0,79
507,345	0,79
507,797	0,8
508,249	0,8
508,7	0,8
509,151	0,81
509,603	0,81
510,054	0,81
510,506	0,81
510,957	0,82
511,408	0,82
511,86	0,82
512,311	0,83
512,762	0,83
513,213	0,83
513,665	0,83
514,116	0,84
514,567	0,84
515,018	0,84
515,469	0,85
515,92	0,85
516,371	0,85
516,822	0,85
517,273	0,86
517,724	0,86
518,175	0,86
518,626	0,87
519,076	0,87
519,527	0,87
519,978	0,87
520,429	0,87
520,88	0,87
521,33	0,88
521,781	0,88
522,232	0,88
522,682	0,88
523,133	0,88
523,583	0,88
524,034	0,89
524,484	0,89
524,935	0,89
525,385	0,89
525,836	0,89
526,286	0,89
526,736	0,89
527,187	0,89
527,637	0,89
528,087	0,89
528,538	0,89
528,988	0,89
529,438	0,89
529,888	0,89
530,338	0,89
530,788	0,88
531,238	0,88
531,688	0,88
532,139	0,88
532,589	0,88
533,038	0,88
533,488	0,88
533,938	0,88
534,388	0,87
534,838	0,87
535,288	0,87
535,738	0,87
536,187	0,86
536,637	0,86
537,087	0,86
537,537	0,85
537,986	0,85
538,436	0,85
538,885	0,84
539,335	0,84
539,785	0,84
540,234	0,83
540,684	0,83
541,133	0,83
541,582	0,82
542,032	0,82
542,481	0,81
542,931	0,81
543,38	0,81
543,829	0,8
544,278	0,8
544,728	0,8
545,177	0,79
545,626	0,79
546,075	0,79
546,524	0,78
546,973	0,78
547,422	0,78
547,871	0,77
548,32	0,77
548,769	0,77
549,218	0,77
549,667	0,76
550,116	0,76
550,565	0,76
551,014	0,75
551,463	0,75
551,911	0,75
552,36	0,74
552,809	0,74
553,258	0,74
553,706	0,73
554,155	0,73
554,603	0,73
555,052	0,72
555,501	0,72
555,949	0,72
556,398	0,71
556,846	0,71
557,294	0,71
557,743	0,7
558,191	0,7
558,64	0,69
559,088	0,69
559,536	0,69
559,985	0,68
560,433	0,68
560,881	0,68
561,329	0,67
561,777	0,67
562,225	0,67
562,674	0,66
563,122	0,66
563,57	0,66
564,018	0,65
564,466	0,65
564,914	0,65
565,362	0,64
565,809	0,64
566,257	0,64
566,705	0,63
567,153	0,63
567,601	0,63
568,048	0,63
568,496	0,62
568,944	0,62
569,392	0,62
569,839	0,61
570,287	0,61
570,734	0,61
571,182	0,61
571,63	0,6
572,077	0,6
572,525	0,6
572,972	0,59
573,419	0,59
573,867	0,59
574,314	0,59
574,761	0,58
575,209	0,58
575,656	0,58
576,103	0,57
576,551	0,57
576,998	0,57
577,445	0,57
577,892	0,57
578,339	0,56
578,786	0,56
579,233	0,56
579,68	0,56
580,127	0,55
580,574	0,55
581,021	0,55
581,468	0,55
581,915	0,55
582,362	0,54
582,809	0,54
583,255	0,54
583,702	0,54
584,149	0,54
584,596	0,54
585,042	0,53
585,489	0,53
585,936	0,53
586,382	0,53
586,829	0,53
587,275	0,52
587,722	0,52
588,168	0,52
588,615	0,52
589,061	0,52
589,508	0,52
589,954	0,51
590,4	0,51
590,847	0,51
591,293	0,51
591,739	0,51
592,185	0,51
592,632	0,51
593,078	0,51
593,524	0,51
593,97	0,5
594,416	0,5
594,862	0,5
595,308	0,5
595,754	0,5
596,2	0,5
596,646	0,5
597,092	0,5
597,538	0,49
597,984	0,49
598,43	0,49
598,876	0,49
599,321	0,49
599,767	0,49
600,213	0,49
600,659	0,49
601,104	0,49
601,55	0,49
601,995	0,48
602,441	0,48
602,887	0,48
603,332	0,48
603,778	0,48
604,223	0,48
604,668	0,48
605,114	0,48
605,559	0,48
606,005	0,48
606,45	0,48
606,895	0,47
607,341	0,47
607,786	0,47
608,231	0,47
608,676	0,47
609,121	0,46
609,566	0,46
610,012	0,45
610,457	0,45
610,902	0,45
611,347	0,45
611,792	0,44
612,237	0,44
612,682	0,44
613,127	0,44
613,571	0,44
614,016	0,44
614,461	0,45
614,906	0,45
615,351	0,45
615,795	0,45
616,24	0,45
616,685	0,45
617,129	0,45
617,574	0,45
618,019	0,45
618,463	0,45
618,908	0,45
619,352	0,45
619,797	0,45
620,241	0,45
620,686	0,45
621,13	0,45
621,574	0,45
622,019	0,44
622,463	0,44
622,907	0,44
623,352	0,44
623,796	0,44
624,24	0,44
624,684	0,44
625,128	0,44
625,572	0,44
626,016	0,44
626,461	0,44
626,905	0,44
627,349	0,44
627,793	0,44
628,236	0,44
628,68	0,44
629,124	0,44
629,568	0,44
630,012	0,44
630,456	0,44
630,9	0,44
631,343	0,44
631,787	0,44
632,231	0,44
632,674	0,44
633,118	0,44
633,562	0,44
634,005	0,44
634,449	0,44
634,892	0,44
635,336	0,44
635,779	0,44
636,223	0,43
636,666	0,43
637,109	0,43
637,553	0,43
637,996	0,43
638,439	0,43
638,883	0,43
639,326	0,43
639,769	0,43
640,212	0,43
640,655	0,43
641,099	0,43
641,542	0,43
641,985	0,43
642,428	0,43
642,871	0,43
643,314	0,43
643,757	0,42
644,2	0,42
644,643	0,42
645,085	0,42
645,528	0,42
645,971	0,42
646,414	0,42
646,857	0,42
647,299	0,42
647,742	0,42
648,185	0,42
648,627	0,42
649,07	0,42
649,513	0,42
649,955	0,42
650,398	0,42
650,84	0,42
651,283	0,42
651,725	0,42
652,168	0,42
652,61	0,42
653,052	0,42
653,495	0,42
653,937	0,34
654,379	0,28
654,821	0,28
655,264	0,29
655,706	0,29
656,148	0,29
656,59	0,29
657,032	0,29
657,474	0,29
657,916	0,28
658,358	0,28
658,8	0,34
659,242	0,42
659,684	0,42
660,126	0,42
660,568	0,42
661,01	0,42
661,452	0,42
661,894	0,42
662,335	0,41
662,777	0,41
663,219	0,41
663,661	0,41
664,102	0,41
664,544	0,41
664,985	0,41
665,427	0,41
665,869	0,41
666,31	0,41
666,752	0,41
667,193	0,41
667,634	0,41
668,076	0,41
668,517	0,41
668,959	0,41
669,4	0,41
669,841	0,42
670,282	0,42
670,724	0,42
671,165	0,42
671,606	0,42
672,047	0,42
672,488	0,42
672,929	0,41
673,37	0,41
673,811	0,41
674,252	0,41
674,693	0,41
675,134	0,41
675,575	0,41
676,016	0,41
676,457	0,41
676,898	0,41
677,339	0,4
677,78	0,4
678,22	0,4
678,661	0,4
679,102	0,4
679,542	0,4
679,983	0,4
680,424	0,4
680,864	0,4
681,305	0,4
681,745	0,4
682,186	0,4
682,626	0,41
683,067	0,41
683,507	0,41
683,948	0,41
684,388	0,4
684,828	0,4
685,269	0,4
685,709	0,4
686,149	0,4
686,589	0,4
687,029	0,4
687,47	0,4
687,91	0,4
688,35	0,4
688,79	0,4
689,23	0,4
689,67	0,4
690,11	0,4
690,55	0,4
690,99	0,4
691,43	0,4
691,87	0,4
692,31	0,4
692,749	0,39
693,189	0,39
693,629	0,39
694,069	0,39
694,508	0,39
694,948	0,39
695,388	0,39
695,827	0,39
696,267	0,39
696,706	0,39
697,146	0,39
697,586	0,39
698,025	0,4
698,464	0,4
698,904	0,4
699,343	0,4
699,783	0,4
700,222	0,4
700,661	0,4
701,101	0,4
701,54	0,4
701,979	0,4
702,418	0,4
702,857	0,4
703,297	0,4
703,736	0,4
704,175	0,4
704,614	0,4
705,053	0,4
705,492	0,4
705,931	0,4
706,37	0,4
706,809	0,39
707,248	0,39
707,687	0,39
708,125	0,39
708,564	0,39
709,003	0,39
709,442	0,39
709,88	0,39
710,319	0,39
710,758	0,39
711,196	0,39
711,635	0,39
712,074	0,39
712,512	0,39
712,951	0,39
713,389	0,39
713,828	0,38
714,266	0,38
714,705	0,38
715,143	0,38
715,581	0,38
716,02	0,38
716,458	0,38
716,896	0,38
717,334	0,38
717,773	0,38
718,211	0,38
718,649	0,38
719,087	0,38
719,525	0,38
719,963	0,38
720,401	0,38
720,839	0,38
721,277	0,38
721,715	0,38
722,153	0,38
722,591	0,38
723,029	0,38
723,467	0,38
723,905	0,38
724,342	0,38
724,78	0,38
725,218	0,38
725,656	0,38
726,093	0,38
726,531	0,38
726,969	0,38
727,406	0,38
727,844	0,38
728,281	0,38
728,719	0,38
729,156	0,38
729,594	0,38
730,031	0,38
730,469	0,38
730,906	0,38
731,343	0,38
731,781	0,38
732,218	0,38
732,655	0,38
733,092	0,38
733,53	0,38
733,967	0,38
734,404	0,38
734,841	0,38
735,278	0,38
735,715	0,37
736,152	0,37
736,589	0,37
737,026	0,37
737,463	0,37
737,9	0,37
738,337	0,37
738,774	0,37
739,211	0,37
739,647	0,37
740,084	0,37
740,521	0,37
740,958	0,37
741,394	0,37
741,831	0,37
742,268	0,37
742,704	0,37
743,141	0,37
743,577	0,37
744,014	0,37
744,45	0,37
744,887	0,36
745,323	0,36
745,76	0,36
746,196	0,36
746,632	0,36
747,069	0,36
747,505	0,36
747,941	0,36
748,378	0,36
748,814	0,36
749,25	0,36
749,686	0,36
750,122	0,36
750,558	0,36
750,994	0,37
751,43	0,37
751,866	0,37
752,302	0,37
752,738	0,37
753,174	0,37
753,61	0,37
754,046	0,37
754,482	0,37
754,918	0,37
755,354	0,37
755,789	0,37
756,225	0,37
756,661	0,37
757,096	0,37
757,532	0,37
757,968	0,36
758,403	0,36
758,839	0,36
759,274	0,36
759,71	0,35
760,145	0,35
760,581	0,34
761,016	0,34
761,452	0,34
761,887	0,33
762,322	0,33
762,758	0,32
763,193	0,32
763,628	0,32
764,063	0,31
764,499	0,3
764,934	0,3
765,369	0,29
765,804	0,29
766,239	0,28
766,674	0,27
767,109	0,27
767,544	0,26
767,979	0,25
768,414	0,24
768,849	0,24
769,284	0,23
769,719	0,22
770,154	0,22
770,588	0,21
771,023	0,2
771,458	0,19
771,893	0,18
772,327	0,17
772,762	0,16
773,197	0,15
773,631	0,14
774,066	0,13
774,5	0,12
774,935	0,11
775,369	0,1
775,804	0,09
776,238	0,08
776,673	0,07
777,107	0,06
777,541	0,05
777,976	0,04
778,41	0,03
778,844	0,03
779,279	0,02
779,713	0,01
780,147	0
780,581	-0
781,015	-0,01
781,449	-0,02
781,883	-0,02
782,317	-0,03
782,751	-0,04
783,185	-0,05
783,619	-0,05
784,053	-0,06
784,487	-0,07
784,921	-0,08
785,355	-0,09
785,789	-0,09
786,223	-0,1
786,656	-0,12
787,09	-0,13
787,524	-0,14
787,957	-0,15
788,391	-0,17
788,825	-0,19
789,258	-0,2
789,692	-0,21
790,125	-0,23
790,559	-0,24
790,992	-0,27
791,426	-0,29
791,859	-0,3
792,293	-0,34
792,726	-0,35
793,159	-0,37
793,593	-0,39
794,026	-0,41
794,459	-0,44
794,892	-0,47
795,326	-0,49
795,759	-0,53
796,192	-0,57
796,625	-0,62
797,058	-0,64
797,491	-0,68
797,924	-0,72
798,357	-0,78
798,79	-0,82
799,223	-0,86
799,656	-0,91
800,089	-0,96
800,522	-1
800,955	-1,05
801,387	-1,1
801,82	-1,16
802,253	-1,22
802,686	-1,3
803,118	-1,36
803,551	-1,41
803,984	-1,45
804,416	-1,49
804,849	-1,52
805,281	-1,63
805,714	-2
806,146	-2,46
806,579	-2,71
807,011	-2,87
807,444	-2,97
807,876	-3,05
808,308	-3,08
808,741	-3,11
809,173	-3,17
809,605	-3,19
810,037	-3,26
810,47	-3,18
810,902	-2,98
811,334	-2,83
811,766	-2,67
812,198	-2,42
812,63	-2
813,062	-1,79
813,494	-1,7
813,926	-1,61
814,358	-1,56
814,79	-1,48
815,222	-1,42
815,654	-1,37
816,086	-1,3
816,518	-1,25
816,949	-1,2
817,381	-1,15
817,813	-1,13
818,245	-1,1
818,676	-1,06
819,108	-1,02
819,54	-1,01
819,971	-0,99
820,403	-0,93
820,834	-0,92
821,266	-0,88
821,697	-0,86
822,129	-0,84
822,56	-0,81
822,991	-0,79
823,423	-0,76
823,854	-0,75
824,286	-0,72
824,717	-0,7
825,148	-0,69
825,579	-0,68
826,01	-0,66
826,442	-0,66
826,873	-0,64
827,304	-0,61
827,735	-0,6
828,166	-0,61
828,597	-0,61
829,028	-0,61
829,459	-0,61
829,89	-0,61
830,321	-0,57
830,752	-0,58
831,183	-0,57
831,613	-0,57
832,044	-0,56
832,475	-0,55
832,906	-0,56
833,336	-0,56
833,767	-0,56
834,198	-0,55
834,628	-0,53
835,059	-0,56
835,49	-0,57
835,92	-0,54
836,351	-0,53
836,781	-0,53
837,212	-0,54
837,642	-0,54
838,072	-0,52
838,503	-0,54
838,933	-0,51
839,364	-0,53
839,794	-0,5
840,224	-0,49
840,654	-0,53
841,085	-0,54
841,515	-0,52
841,945	-0,52
842,375	-0,48
842,805	-0,46
843,235	-0,45
843,665	-0,47
844,095	-0,45
844,525	-0,48
844,955	-0,48
845,385	-0,46
845,815	-0,44
846,245	-0,47
846,675	-0,47
847,105	-0,49
847,534	-0,5
847,964	-0,47
848,394	-0,46
848,824	-0,48
849,253	-0,47
849,683	-0,47
850,112	-0,49
850,542	-0,51
850,972	-0,51
851,401	-0,49
851,831	-0,47
852,26	-0,48
852,69	-0,51
853,119	-0,51
853,548	-0,52
853,978	-0,52
854,407	-0,5
854,836	-0,51
855,266	-0,5
855,695	-0,52
856,124	-0,53
856,553	-0,54
856,983	-0,56
857,412	-0,55
857,841	-0,56
858,27	-0,56
858,699	-0,57
859,128	-0,6
859,557	-0,61
859,986	-0,62
860,415	-0,6
860,844	-0,58
861,273	-0,58
861,702	-0,58
862,13	-0,56
862,559	-0,58
862,988	-0,56
863,417	-0,54
863,845	-0,53
864,274	-0,53
864,703	-0,53
865,131	-0,54
865,56	-0,54
865,989	-0,58
866,417	-0,54
866,846	-0,55
867,274	-0,55
867,703	-0,57
868,131	-0,59
868,559	-0,59
868,988	-0,61
869,416	-0,6
869,844	-0,6
870,273	-0,62
870,701	-0,6
871,129	-0,65
871,557	-0,68
871,986	-0,68
872,414	-0,7
872,842	-0,67
873,27	-0,65
873,698	-0,62
874,126	-0,66
874,554	-0,65
874,982	-0,64
875,41	-0,67
875,838	-0,62
876,266	-0,58
876,694	-0,59
877,122	-0,57
877,549	-0,62
877,977	-0,59
878,405	-0,63
878,833	-0,6
879,26	-0,58
879,688	-0,6
880,116	-0,57
880,543	-0,55
880,971	-0,55
881,399	-0,58
881,826	-0,59
882,254	-0,57
882,681	-0,61
883,109	-0,55
883,536	-0,56
883,963	-0,58
884,391	-0,56
884,818	-0,54
885,245	-0,59
885,673	-0,6
886,1	-0,58
886,527	-0,57
886,954	-0,54
887,381	-0,55
887,809	-0,57
888,236	-0,58
888,663	-0,58
889,09	-0,62
889,517	-0,64
889,944	-0,63
890,371	-0,61
890,798	-0,62
891,225	-0,62
891,652	-0,65
892,078	-0,62
892,505	-0,65
892,932	-0,61
893,359	-0,61
893,786	-0,61
894,212	-0,59
894,639	-0,6
895,066	-0,63
895,492	-0,56
895,919	-0,57
896,346	-0,56
896,772	-0,56
897,199	-0,53
897,625	-0,56
898,052	-0,53
898,478	-0,5
898,904	-0,51
899,331	-0,51
899,757	-0,53
900,183	-0,56
900,61	-0,54
901,036	-0,55
901,462	-0,55
901,888	-0,53
902,315	-0,52
902,741	-0,58
903,167	-0,57
903,593	-0,6
904,019	-0,58
904,445	-0,55
904,871	-0,57
905,297	-0,59
905,723	-0,58
906,149	-0,57
906,575	-0,58
907,001	-0,58
907,427	-0,54
907,852	-0,53
908,278	-0,54
908,704	-0,52
909,13	-0,51
909,555	-0,51
909,981	-0,51
910,407	-0,52
910,832	-0,52
911,258	-0,52
911,684	-0,52
912,109	-0,54
912,535	-0,55
912,96	-0,5
913,386	-0,54
913,811	-0,54
914,236	-0,55
914,662	-0,52
915,087	-0,56
915,512	-0,56
915,938	-0,57
916,363	-0,56
916,788	-0,57
917,213	-0,56
917,639	-0,61
918,064	-0,59
918,489	-0,59
918,914	-0,6
919,339	-0,62
919,764	-0,59
920,189	-0,59
920,614	-0,61
921,039	-0,61
921,464	-0,57
921,889	-0,59
922,314	-0,6
922,738	-0,63
923,163	-0,64
923,588	-0,64
924,013	-0,63
924,437	-0,63
924,862	-0,64
925,287	-0,6
925,711	-0,6
926,136	-0,62
926,561	-0,61
926,985	-0,6
927,41	-0,57
927,834	-0,55
928,259	-0,52
928,683	-0,5
929,108	-0,47
929,532	-0,49
929,956	-0,48
930,381	-0,47
930,805	-0,47
931,229	-0,46
931,653	-0,44
932,078	-0,44
932,502	-0,45
932,926	-0,45
933,35	-0,46
933,774	-0,45
934,198	-0,43
934,622	-0,43
935,046	-0,43
935,47	-0,42
935,894	-0,42
936,318	-0,42
936,742	-0,42
937,166	-0,43
937,59	-0,42
938,014	-0,44
938,437	-0,45
938,861	-0,46
939,285	-0,48
939,709	-0,46
940,132	-0,48
940,556	-0,48
940,98	-0,48
941,403	-0,47
941,827	-0,47
942,25	-0,48
942,674	-0,46
943,097	-0,46
943,521	-0,46
943,944	-0,46
944,368	-0,46
944,791	-0,45
945,214	-0,47
945,638	-0,48
946,061	-0,51
946,484	-0,52
946,907	-0,51
947,331	-0,51
947,754	-0,54
948,177	-0,51
948,6	-0,51
949,023	-0,51
949,446	-0,51
949,869	-0,48
950,292	-0,47
950,715	-0,44
951,138	-0,43
951,561	-0,4
951,984	-0,41
952,407	-0,4
952,83	-0,39
953,252	-0,35
953,675	-0,35
954,098	-0,37
954,521	-0,36
954,943	-0,36
955,366	-0,37
955,789	-0,35
956,211	-0,37
956,634	-0,37
957,056	-0,35
957,479	-0,36
957,902	-0,38
958,324	-0,39
958,746	-0,36
959,169	-0,37
959,591	-0,38
960,014	-0,38
960,436	-0,38
960,858	-0,37
961,281	-0,38
961,703	-0,39
962,125	-0,39
962,547	-0,38
962,969	-0,38
963,391	-0,38
963,814	-0,4
964,236	-0,39
964,658	-0,36
965,08	-0,37
965,502	-0,36
965,924	-0,33
966,346	-0,33
966,768	-0,32
967,189	-0,33
967,611	-0,33
968,033	-0,32
968,455	-0,3
968,877	-0,31
969,298	-0,33
969,72	-0,33
970,142	-0,32
970,563	-0,33
970,985	-0,31
971,407	-0,3
971,828	-0,28
972,25	-0,27
972,671	-0,26
973,093	-0,25
973,514	-0,24
973,936	-0,22
974,357	-0,2
974,778	-0,2
975,2	-0,2
975,621	-0,19
976,042	-0,18
976,464	-0,18
976,885	-0,17
977,306	-0,17
977,727	-0,16
978,148	-0,15
978,57	-0,14
978,991	-0,13
979,412	-0,12
979,833	-0,11
980,254	-0,1
980,675	-0,1
981,096	-0,09
981,517	-0,07
981,937	-0,07
982,358	-0,05
982,779	-0,03
983,2	-0,04
983,621	-0,03
984,042	-0,02
984,462	-0,01
984,883	0
985,304	0,02
985,724	0,03
986,145	0,04
986,565	0,05
986,986	0,06
987,407	0,07
987,827	0,08
988,248	0,1
988,668	0,11
989,088	0,12
989,509	0,13
989,929	0,14
990,35	0,15
990,77	0,16
991,19	0,17
991,61	0,18
992,031	0,19
992,451	0,2
992,871	0,2
993,291	0,21
993,711	0,22
994,131	0,22
994,551	0,23
994,971	0,24
995,391	0,24
995,811	0,25
996,231	0,26
996,651	0,26
997,071	0,26
997,491	0,27
997,911	0,28
998,331	0,28
998,75	0,29
999,17	0,29
999,59	0,3
1000,009	0,3
1000,429	0,31
1000,849	0,31
1001,268	0,32
1001,688	0,32
1002,107	0,32
1002,527	0,33
1002,946	0,33
1003,366	0,33
1003,785	0,33
1004,205	0,34
1004,624	0,34
1005,044	0,34
1005,463	0,34
1005,882	0,34
1006,301	0,34
1006,721	0,35
1007,14	0,35
1007,559	0,35
1007,978	0,35
1008,397	0,35
1008,816	0,35
1009,235	0,35
1009,655	0,35
1010,074	0,35
1010,492	0,35
1010,911	0,35
1011,33	0,35
1011,749	0,34
1012,168	0,34
1012,587	0,34
1013,006	0,34
1013,425	0,34
1013,843	0,34
1014,262	0,34
1014,681	0,34
1015,099	0,34
1015,518	0,34
1015,937	0,34
1016,355	0,34
1016,774	0,34
1017,192	0,34
1017,611	0,34
1018,029	0,34
1018,448	0,34
1018,866	0,34
1019,285	0,34
1019,703	0,34
1020,121	0,33
1020,54	0,33
1020,958	0,33
1021,376	0,33
1021,794	0,33
1022,213	0,33
1022,631	0,33
1023,049	0,33
1023,467	0,33
1023,885	0,33
1024,303	0,33
1024,721	0,33
1025,139	0,33
1025,557	0,33
1025,975	0,33
1026,393	0,33
1026,811	0,33
1027,229	0,33
1027,647	0,33
1028,065	0,33
1028,482	0,33
1028,9	0,33
1029,318	0,33
1029,735	0,33
1030,153	0,33
1030,571	0,33
1030,988	0,33
1031,406	0,33
1031,823	0,33
1032,241	0,33
1032,659	0,33
1033,076	0,33
1033,493	0,33
1033,911	0,33
1034,328	0,33
1034,746	0,33
1035,163	0,33
1035,58	0,33
1035,997	0,33
1036,415	0,33
1036,832	0,33
1037,249	0,33
1037,666	0,33
1038,083	0,33
1038,501	0,33
1038,918	0,32
1039,335	0,32
1039,752	0,32
1040,169	0,32
1040,586	0,32
1041,003	0,32
1041,419	0,32
1041,836	0,32
1042,253	0,32
1042,67	0,32
1043,087	0,32
1043,504	0,32
1043,92	0,32
1044,337	0,32
1044,754	0,32
1045,17	0,32
1045,587	0,32
1046,004	0,32
1046,42	0,32
1046,837	0,32
1047,253	0,32
1047,67	0,32
1048,086	0,32
1048,503	0,32
1048,919	0,32
1049,335	0,32
1049,752	0,32
1050,168	0,32
1050,584	0,32
1051,001	0,32
1051,417	0,32
1051,833	0,32
1052,249	0,32
1052,665	0,32
1053,081	0,32
1053,497	0,32
1053,914	0,33
1054,33	0,33
1054,746	0,33
1055,162	0,33
1055,578	0,33
1055,993	0,33
1056,409	0,33
1056,825	0,33
1057,241	0,33
1057,657	0,33
1058,073	0,33
1058,488	0,33
1058,904	0,33
1059,32	0,33
1059,736	0,33
1060,151	0,33
1060,567	0,33
1060,982	0,33
1061,398	0,33
1061,813	0,33
1062,229	0,33
1062,644	0,33
1063,06	0,33
1063,475	0,33
1063,891	0,33
1064,306	0,33
1064,721	0,33
1065,137	0,33
1065,552	0,33
1065,967	0,33
1066,382	0,33
1066,798	0,33
1067,213	0,33
1067,628	0,33
1068,043	0,33
1068,458	0,33
1068,873	0,33
1069,288	0,33
1069,703	0,33
1070,118	0,33
1070,533	0,33
1070,948	0,33
1071,363	0,33
1071,778	0,33
1072,193	0,33
1072,607	0,33
1073,022	0,33
1073,437	0,33
1073,852	0,33
1074,266	0,33
1074,681	0,33
1075,096	0,33
1075,51	0,33
1075,925	0,33
1076,339	0,33
1076,754	0,33
1077,168	0,33
1077,583	0,33
1077,997	0,33
1078,412	0,33
1078,826	0,33
1079,24	0,33
1079,655	0,32
1080,069	0,32
1080,483	0,32
1080,897	0,32
1081,312	0,32
1081,726	0,32
1082,14	0,32
1082,554	0,32
1082,968	0,32
1083,382	0,32
1083,796	0,32
1084,21	0,32
1084,624	0,32
1085,038	0,32
1085,452	0,31
1085,866	0,31
1086,28	0,31
1086,694	0,31
1087,108	0,31
1087,521	0,31
1087,935	0,31
1088,349	0,3
1088,763	0,3
1089,176	0,3
1089,59	0,3
1090,004	0,3
1090,417	0,29
1090,831	0,29
1091,244	0,29
1091,658	0,28
1092,071	0,28
1092,485	0,28
1092,898	0,28
1093,312	0,28
1093,725	0,28
1094,138	0,27
1094,552	0,27
1094,965	0,27
1095,378	0,27
1095,791	0,27
1096,205	0,27
1096,618	0,27
1097,031	0,26
1097,444	0,26
1097,857	0,26
1098,27	0,26
1098,683	0,25
1099,096	0,25
1099,509	0,25
1099,922	0,24
1100,335	0,24
1100,748	0,23
1101,161	0,22
1101,574	0,22
1101,986	0,22
1102,399	0,21
1102,812	0,21
1103,225	0,2
1103,637	0,2
1104,05	0,2
1104,463	0,2
1104,875	0,2
1105,288	0,2
1105,7	0,19
1106,113	0,19
1106,525	0,19
1106,938	0,19
1107,35	0,18
1107,763	0,18
1108,175	0,18
1108,588	0,18
1109	0,17
1109,412	0,16
1109,824	0,16
1110,237	0,17
1110,649	0,16
1111,061	0,16
