Data from 18C-808nm-8A-cont_Absorbance__495__01924.txt Node

Date: Mon Jul 17 17:37:13 CEST 2023
User: Laser008
Spectrometer: MAYP115816
Trigger mode: 0
Integration Time (sec): 2,500000E-1
Scans to average: 10
Electric dark correction enabled: true
Nonlinearity correction enabled: true
Boxcar width: 5
XAxis mode: Wavelengths
Number of Pixels in Spectrum: 2068
>>>>>Begin Spectral Data<<<<<
198,914	-0,68
199,384	-0,47
199,855	-0,34
200,325	-0,26
200,796	-0,23
201,266	-0,19
201,737	-0,18
202,207	-0,17
202,677	-0,17
203,147	-0,15
203,618	-0,13
204,088	-0,11
204,558	-0,1
205,028	-0,1
205,498	-0,1
205,968	-0,1
206,439	-0,11
206,909	-0,1
207,379	-0,1
207,849	-0,11
208,319	-0,12
208,789	-0,12
209,258	-0,11
209,728	-0,12
210,198	-0,12
210,668	-0,13
211,138	-0,12
211,608	-0,12
212,077	-0,12
212,547	-0,13
213,017	-0,13
213,486	-0,14
213,956	-0,14
214,426	-0,16
214,895	-0,15
215,365	-0,16
215,834	-0,16
216,304	-0,17
216,773	-0,17
217,243	-0,19
217,712	-0,19
218,181	-0,18
218,651	-0,18
219,12	-0,18
219,589	-0,17
220,058	-0,16
220,528	-0,17
220,997	-0,18
221,466	-0,19
221,935	-0,19
222,404	-0,18
222,873	-0,17
223,342	-0,18
223,812	-0,18
224,281	-0,18
224,749	-0,19
225,218	-0,21
225,687	-0,2
226,156	-0,19
226,625	-0,18
227,094	-0,18
227,563	-0,18
228,031	-0,2
228,5	-0,2
228,969	-0,2
229,438	-0,2
229,906	-0,18
230,375	-0,17
230,844	-0,17
231,312	-0,18
231,781	-0,18
232,249	-0,17
232,718	-0,17
233,186	-0,16
233,655	-0,16
234,123	-0,16
234,591	-0,15
235,06	-0,17
235,528	-0,18
235,996	-0,17
236,465	-0,17
236,933	-0,16
237,401	-0,16
237,869	-0,15
238,337	-0,15
238,805	-0,13
239,274	-0,12
239,742	-0,13
240,21	-0,12
240,678	-0,11
241,146	-0,1
241,614	-0,09
242,081	-0,09
242,549	-0,09
243,017	-0,08
243,485	-0,08
243,953	-0,08
244,421	-0,08
244,888	-0,08
245,356	-0,08
245,824	-0,08
246,291	-0,08
246,759	-0,1
247,227	-0,1
247,694	-0,1
248,162	-0,09
248,629	-0,09
249,097	-0,1
249,564	-0,11
250,032	-0,12
250,499	-0,12
250,967	-0,12
251,434	-0,13
251,901	-0,12
252,369	-0,12
252,836	-0,14
253,303	-0,16
253,77	-0,17
254,237	-0,16
254,705	-0,16
255,172	-0,15
255,639	-0,16
256,106	-0,18
256,573	-0,17
257,04	-0,18
257,507	-0,19
257,974	-0,19
258,441	-0,17
258,908	-0,18
259,375	-0,2
259,841	-0,19
260,308	-0,2
260,775	-0,2
261,242	-0,19
261,709	-0,2
262,175	-0,21
262,642	-0,2
263,109	-0,2
263,575	-0,21
264,042	-0,2
264,508	-0,19
264,975	-0,21
265,441	-0,21
265,908	-0,22
266,374	-0,21
266,841	-0,21
267,307	-0,21
267,773	-0,2
268,24	-0,21
268,706	-0,2
269,172	-0,22
269,639	-0,22
270,105	-0,21
270,571	-0,22
271,037	-0,22
271,503	-0,24
271,969	-0,23
272,435	-0,23
272,902	-0,25
273,368	-0,26
273,834	-0,26
274,3	-0,26
274,765	-0,27
275,231	-0,26
275,697	-0,25
276,163	-0,25
276,629	-0,24
277,095	-0,25
277,56	-0,25
278,026	-0,26
278,492	-0,24
278,958	-0,23
279,423	-0,24
279,889	-0,23
280,354	-0,24
280,82	-0,23
281,286	-0,24
281,751	-0,24
282,217	-0,23
282,682	-0,22
283,147	-0,22
283,613	-0,22
284,078	-0,23
284,544	-0,24
285,009	-0,24
285,474	-0,24
285,939	-0,25
286,405	-0,24
286,87	-0,25
287,335	-0,24
287,8	-0,23
288,265	-0,23
288,73	-0,24
289,195	-0,25
289,66	-0,25
290,125	-0,24
290,59	-0,23
291,055	-0,23
291,52	-0,22
291,985	-0,22
292,45	-0,24
292,915	-0,23
293,38	-0,23
293,844	-0,22
294,309	-0,2
294,774	-0,18
295,239	-0,2
295,703	-0,21
296,168	-0,2
296,632	-0,2
297,097	-0,19
297,562	-0,17
298,026	-0,18
298,491	-0,18
298,955	-0,18
299,419	-0,18
299,884	-0,19
300,348	-0,17
300,813	-0,17
301,277	-0,17
301,741	-0,18
302,205	-0,18
302,67	-0,17
303,134	-0,16
303,598	-0,16
304,062	-0,15
304,526	-0,15
304,99	-0,16
305,454	-0,17
305,919	-0,17
306,383	-0,16
306,847	-0,15
307,31	-0,16
307,774	-0,17
308,238	-0,17
308,702	-0,16
309,166	-0,18
309,63	-0,17
310,094	-0,15
310,557	-0,14
311,021	-0,13
311,485	-0,14
311,948	-0,13
312,412	-0,11
312,876	-0,11
313,339	-0,11
313,803	-0,11
314,266	-0,1
314,73	-0,1
315,193	-0,1
315,657	-0,09
316,12	-0,09
316,584	-0,07
317,047	-0,08
317,51	-0,07
317,973	-0,06
318,437	-0,06
318,9	-0,05
319,363	-0,04
319,826	-0,03
320,29	-0,04
320,753	-0,05
321,216	-0,04
321,679	-0,05
322,142	-0,05
322,605	-0,06
323,068	-0,06
323,531	-0,06
323,994	-0,06
324,457	-0,06
324,92	-0,05
325,382	-0,05
325,845	-0,04
326,308	-0,04
326,771	-0,03
327,233	-0,02
327,696	-0,01
328,159	-0,01
328,622	-0
329,084	-0
329,547	0
330,009	0
330,472	0,01
330,934	0,02
331,397	0,02
331,859	0,03
332,322	0,02
332,784	0,03
333,246	0,04
333,709	0,04
334,171	0,04
334,633	0,05
335,096	0,05
335,558	0,05
336,02	0,05
336,482	0,06
336,944	0,07
337,406	0,08
337,868	0,08
338,331	0,08
338,793	0,1
339,255	0,1
339,717	0,11
340,178	0,12
340,64	0,12
341,102	0,13
341,564	0,14
342,026	0,15
342,488	0,16
342,949	0,18
343,411	0,21
343,873	0,24
344,335	0,27
344,796	0,31
345,258	0,36
345,719	0,41
346,181	0,46
346,643	0,51
347,104	0,54
347,566	0,58
348,027	0,61
348,488	0,64
348,95	0,66
349,411	0,69
349,873	0,72
350,334	0,74
350,795	0,76
351,256	0,77
351,718	0,78
352,179	0,79
352,64	0,79
353,101	0,8
353,562	0,8
354,023	0,81
354,484	0,81
354,945	0,81
355,406	0,82
355,867	0,82
356,328	0,82
356,789	0,83
357,25	0,83
357,711	0,83
358,172	0,83
358,633	0,84
359,093	0,84
359,554	0,84
360,015	0,84
360,476	0,84
360,936	0,84
361,397	0,85
361,858	0,85
362,318	0,85
362,779	0,85
363,239	0,85
363,7	0,85
364,16	0,85
364,621	0,85
365,081	0,85
365,541	0,85
366,002	0,85
366,462	0,85
366,922	0,85
367,383	0,85
367,843	0,85
368,303	0,85
368,763	0,85
369,223	0,85
369,684	0,85
370,144	0,85
370,604	0,85
371,064	0,85
371,524	0,85
371,984	0,85
372,444	0,85
372,904	0,85
373,363	0,85
373,823	0,85
374,283	0,85
374,743	0,85
375,203	0,85
375,663	0,85
376,122	0,85
376,582	0,85
377,042	0,85
377,501	0,85
377,961	0,85
378,42	0,85
378,88	0,85
379,34	0,85
379,799	0,85
380,259	0,85
380,718	0,84
381,177	0,84
381,637	0,84
382,096	0,84
382,555	0,84
383,015	0,84
383,474	0,84
383,933	0,84
384,393	0,84
384,852	0,84
385,311	0,84
385,77	0,84
386,229	0,84
386,688	0,84
387,147	0,84
387,606	0,84
388,065	0,84
388,524	0,84
388,983	0,84
389,442	0,84
389,901	0,84
390,36	0,84
390,819	0,84
391,277	0,84
391,736	0,84
392,195	0,83
392,654	0,83
393,112	0,83
393,571	0,83
394,03	0,83
394,488	0,83
394,947	0,83
395,405	0,83
395,864	0,83
396,322	0,83
396,781	0,83
397,239	0,83
397,698	0,83
398,156	0,83
398,614	0,83
399,073	0,83
399,531	0,83
399,989	0,83
400,447	0,83
400,905	0,83
401,364	0,83
401,822	0,83
402,28	0,83
402,738	0,83
403,196	0,83
403,654	0,83
404,112	0,83
404,57	0,83
405,028	0,82
405,486	0,82
405,944	0,82
406,402	0,82
406,859	0,82
407,317	0,82
407,775	0,82
408,233	0,82
408,691	0,82
409,148	0,82
409,606	0,82
410,064	0,82
410,521	0,82
410,979	0,82
411,436	0,82
411,894	0,82
412,351	0,82
412,809	0,82
413,266	0,82
413,724	0,82
414,181	0,82
414,638	0,82
415,096	0,82
415,553	0,82
416,01	0,82
416,467	0,82
416,925	0,82
417,382	0,82
417,839	0,82
418,296	0,82
418,753	0,82
419,21	0,82
419,667	0,82
420,124	0,82
420,581	0,82
421,038	0,82
421,495	0,82
421,952	0,82
422,409	0,82
422,866	0,82
423,322	0,82
423,779	0,82
424,236	0,82
424,693	0,82
425,149	0,82
425,606	0,82
426,063	0,82
426,519	0,82
426,976	0,82
427,433	0,82
427,889	0,82
428,346	0,82
428,802	0,82
429,258	0,82
429,715	0,82
430,171	0,82
430,628	0,82
431,084	0,82
431,54	0,82
431,997	0,82
432,453	0,82
432,909	0,82
433,365	0,82
433,821	0,81
434,277	0,81
434,734	0,81
435,19	0,81
435,646	0,81
436,102	0,81
436,558	0,81
437,014	0,81
437,47	0,81
437,925	0,81
438,381	0,81
438,837	0,82
439,293	0,82
439,749	0,82
440,205	0,82
440,66	0,82
441,116	0,82
441,572	0,82
442,027	0,82
442,483	0,82
442,939	0,82
443,394	0,82
443,85	0,82
444,305	0,82
444,761	0,82
445,216	0,82
445,672	0,82
446,127	0,82
446,582	0,82
447,038	0,82
447,493	0,82
447,948	0,82
448,403	0,82
448,859	0,82
449,314	0,82
449,769	0,82
450,224	0,82
450,679	0,82
451,134	0,82
451,589	0,82
452,044	0,82
452,499	0,83
452,954	0,83
453,409	0,83
453,864	0,83
454,319	0,83
454,774	0,83
455,229	0,83
455,684	0,83
456,138	0,83
456,593	0,83
457,048	0,83
457,503	0,83
457,957	0,83
458,412	0,83
458,866	0,83
459,321	0,83
459,776	0,83
460,23	0,83
460,685	0,83
461,139	0,83
461,593	0,83
462,048	0,83
462,502	0,83
462,957	0,83
463,411	0,84
463,865	0,84
464,319	0,84
464,774	0,84
465,228	0,84
465,682	0,84
466,136	0,84
466,59	0,84
467,044	0,84
467,499	0,85
467,953	0,85
468,407	0,85
468,861	0,85
469,315	0,85
469,768	0,85
470,222	0,85
470,676	0,85
471,13	0,85
471,584	0,85
472,038	0,85
472,491	0,85
472,945	0,85
473,399	0,86
473,852	0,86
474,306	0,86
474,76	0,86
475,213	0,86
475,667	0,86
476,12	0,86
476,574	0,87
477,027	0,87
477,481	0,87
477,934	0,87
478,388	0,87
478,841	0,88
479,294	0,88
479,748	0,88
480,201	0,88
480,654	0,88
481,107	0,89
481,561	0,89
482,014	0,89
482,467	0,89
482,92	0,89
483,373	0,89
483,826	0,89
484,279	0,9
484,732	0,9
485,185	0,9
485,638	0,9
486,091	0,91
486,544	0,91
486,997	0,91
487,449	0,91
487,902	0,92
488,355	0,92
488,808	0,92
489,26	0,93
489,713	0,93
490,166	0,93
490,618	0,93
491,071	0,94
491,523	0,94
491,976	0,94
492,429	0,95
492,881	0,95
493,333	0,95
493,786	0,96
494,238	0,96
494,691	0,96
495,143	0,97
495,595	0,97
496,048	0,97
496,5	0,98
496,952	0,98
497,404	0,99
497,856	0,99
498,309	0,99
498,761	1
499,213	1
499,665	1,01
500,117	1,01
500,569	1,02
501,021	1,02
501,473	1,02
501,925	1,03
502,377	1,03
502,828	1,04
503,28	1,04
503,732	1,05
504,184	1,05
504,636	1,05
505,087	1,06
505,539	1,06
505,991	1,07
506,442	1,07
506,894	1,07
507,345	1,08
507,797	1,08
508,249	1,09
508,7	1,09
509,151	1,1
509,603	1,1
510,054	1,1
510,506	1,11
510,957	1,11
511,408	1,12
511,86	1,12
512,311	1,13
512,762	1,13
513,213	1,13
513,665	1,14
514,116	1,14
514,567	1,14
515,018	1,15
515,469	1,15
515,92	1,15
516,371	1,16
516,822	1,16
517,273	1,16
517,724	1,17
518,175	1,17
518,626	1,17
519,076	1,17
519,527	1,18
519,978	1,18
520,429	1,18
520,88	1,18
521,33	1,19
521,781	1,19
522,232	1,19
522,682	1,19
523,133	1,19
523,583	1,2
524,034	1,2
524,484	1,2
524,935	1,2
525,385	1,2
525,836	1,2
526,286	1,2
526,736	1,2
527,187	1,2
527,637	1,2
528,087	1,2
528,538	1,2
528,988	1,2
529,438	1,2
529,888	1,2
530,338	1,19
530,788	1,19
531,238	1,19
531,688	1,19
532,139	1,19
532,589	1,19
533,038	1,19
533,488	1,18
533,938	1,18
534,388	1,18
534,838	1,18
535,288	1,17
535,738	1,17
536,187	1,16
536,637	1,16
537,087	1,16
537,537	1,15
537,986	1,15
538,436	1,14
538,885	1,14
539,335	1,13
539,785	1,12
540,234	1,12
540,684	1,12
541,133	1,11
541,582	1,11
542,032	1,1
542,481	1,09
542,931	1,09
543,38	1,08
543,829	1,08
544,278	1,07
544,728	1,07
545,177	1,06
545,626	1,06
546,075	1,05
546,524	1,05
546,973	1,04
547,422	1,04
547,871	1,03
548,32	1,03
548,769	1,03
549,218	1,02
549,667	1,02
550,116	1,01
550,565	1,01
551,014	1
551,463	1
551,911	0,99
552,36	0,99
552,809	0,98
553,258	0,98
553,706	0,97
554,155	0,97
554,603	0,96
555,052	0,96
555,501	0,95
555,949	0,95
556,398	0,94
556,846	0,94
557,294	0,93
557,743	0,93
558,191	0,92
558,64	0,92
559,088	0,91
559,536	0,9
559,985	0,9
560,433	0,89
560,881	0,89
561,329	0,88
561,777	0,88
562,225	0,88
562,674	0,87
563,122	0,87
563,57	0,86
564,018	0,86
564,466	0,85
564,914	0,85
565,362	0,84
565,809	0,84
566,257	0,83
566,705	0,83
567,153	0,82
567,601	0,82
568,048	0,81
568,496	0,81
568,944	0,81
569,392	0,8
569,839	0,8
570,287	0,79
570,734	0,79
571,182	0,79
571,63	0,78
572,077	0,78
572,525	0,78
572,972	0,77
573,419	0,77
573,867	0,76
574,314	0,76
574,761	0,76
575,209	0,75
575,656	0,75
576,103	0,74
576,551	0,74
576,998	0,74
577,445	0,73
577,892	0,73
578,339	0,73
578,786	0,72
579,233	0,72
579,68	0,72
580,127	0,71
580,574	0,71
581,021	0,71
581,468	0,7
581,915	0,7
582,362	0,7
582,809	0,69
583,255	0,69
583,702	0,69
584,149	0,69
584,596	0,68
585,042	0,68
585,489	0,68
585,936	0,67
586,382	0,67
586,829	0,67
587,275	0,67
587,722	0,67
588,168	0,66
588,615	0,66
589,061	0,66
589,508	0,66
589,954	0,65
590,4	0,65
590,847	0,65
591,293	0,65
591,739	0,64
592,185	0,64
592,632	0,64
593,078	0,64
593,524	0,64
593,97	0,64
594,416	0,63
594,862	0,63
595,308	0,63
595,754	0,63
596,2	0,63
596,646	0,63
597,092	0,62
597,538	0,62
597,984	0,62
598,43	0,62
598,876	0,62
599,321	0,62
599,767	0,61
600,213	0,61
600,659	0,61
601,104	0,61
601,55	0,61
601,995	0,61
602,441	0,6
602,887	0,6
603,332	0,6
603,778	0,6
604,223	0,6
604,668	0,6
605,114	0,6
605,559	0,6
606,005	0,59
606,45	0,59
606,895	0,59
607,341	0,59
607,786	0,59
608,231	0,59
608,676	0,58
609,121	0,58
609,566	0,57
610,012	0,56
610,457	0,56
610,902	0,56
611,347	0,55
611,792	0,55
612,237	0,55
612,682	0,55
613,127	0,55
613,571	0,55
614,016	0,55
614,461	0,55
614,906	0,56
615,351	0,56
615,795	0,56
616,24	0,56
616,685	0,56
617,129	0,56
617,574	0,56
618,019	0,56
618,463	0,56
618,908	0,56
619,352	0,56
619,797	0,56
620,241	0,56
620,686	0,55
621,13	0,55
621,574	0,55
622,019	0,55
622,463	0,55
622,907	0,55
623,352	0,55
623,796	0,55
624,24	0,55
624,684	0,54
625,128	0,54
625,572	0,54
626,016	0,54
626,461	0,54
626,905	0,54
627,349	0,54
627,793	0,54
628,236	0,54
628,68	0,54
629,124	0,54
629,568	0,54
630,012	0,54
630,456	0,54
630,9	0,54
631,343	0,54
631,787	0,54
632,231	0,54
632,674	0,54
633,118	0,54
633,562	0,54
634,005	0,54
634,449	0,54
634,892	0,54
635,336	0,54
635,779	0,54
636,223	0,54
636,666	0,53
637,109	0,53
637,553	0,53
637,996	0,53
638,439	0,53
638,883	0,53
639,326	0,53
639,769	0,53
640,212	0,53
640,655	0,53
641,099	0,53
641,542	0,53
641,985	0,53
642,428	0,52
642,871	0,52
643,314	0,52
643,757	0,52
644,2	0,52
644,643	0,52
645,085	0,52
645,528	0,52
645,971	0,52
646,414	0,52
646,857	0,52
647,299	0,52
647,742	0,52
648,185	0,52
648,627	0,52
649,07	0,52
649,513	0,52
649,955	0,52
650,398	0,52
650,84	0,52
651,283	0,52
651,725	0,52
652,168	0,52
652,61	0,52
653,052	0,52
653,495	0,52
653,937	0,43
654,379	0,37
654,821	0,38
655,264	0,38
655,706	0,38
656,148	0,38
656,59	0,38
657,032	0,38
657,474	0,38
657,916	0,38
658,358	0,37
658,8	0,43
659,242	0,51
659,684	0,51
660,126	0,51
660,568	0,51
661,01	0,51
661,452	0,51
661,894	0,51
662,335	0,51
662,777	0,51
663,219	0,51
663,661	0,51
664,102	0,51
664,544	0,51
664,985	0,51
665,427	0,51
665,869	0,51
666,31	0,51
666,752	0,51
667,193	0,51
667,634	0,51
668,076	0,51
668,517	0,51
668,959	0,51
669,4	0,51
669,841	0,51
670,282	0,51
670,724	0,51
671,165	0,51
671,606	0,51
672,047	0,51
672,488	0,51
672,929	0,51
673,37	0,51
673,811	0,5
674,252	0,5
674,693	0,5
675,134	0,5
675,575	0,5
676,016	0,5
676,457	0,5
676,898	0,5
677,339	0,5
677,78	0,5
678,22	0,5
678,661	0,5
679,102	0,5
679,542	0,5
679,983	0,5
680,424	0,5
680,864	0,5
681,305	0,5
681,745	0,5
682,186	0,5
682,626	0,5
683,067	0,5
683,507	0,5
683,948	0,5
684,388	0,5
684,828	0,5
685,269	0,5
685,709	0,5
686,149	0,5
686,589	0,5
687,029	0,5
687,47	0,49
687,91	0,49
688,35	0,49
688,79	0,49
689,23	0,49
689,67	0,49
690,11	0,49
690,55	0,49
690,99	0,49
691,43	0,49
691,87	0,49
692,31	0,49
692,749	0,49
693,189	0,48
693,629	0,48
694,069	0,48
694,508	0,48
694,948	0,48
695,388	0,48
695,827	0,48
696,267	0,48
696,706	0,48
697,146	0,49
697,586	0,49
698,025	0,49
698,464	0,49
698,904	0,49
699,343	0,49
699,783	0,49
700,222	0,49
700,661	0,49
701,101	0,49
701,54	0,49
701,979	0,49
702,418	0,49
702,857	0,49
703,297	0,49
703,736	0,49
704,175	0,49
704,614	0,49
705,053	0,49
705,492	0,49
705,931	0,49
706,37	0,49
706,809	0,49
707,248	0,48
707,687	0,48
708,125	0,48
708,564	0,48
709,003	0,48
709,442	0,48
709,88	0,48
710,319	0,48
710,758	0,48
711,196	0,48
711,635	0,48
712,074	0,48
712,512	0,48
712,951	0,48
713,389	0,48
713,828	0,48
714,266	0,48
714,705	0,47
715,143	0,47
715,581	0,47
716,02	0,48
716,458	0,48
716,896	0,48
717,334	0,48
717,773	0,48
718,211	0,48
718,649	0,48
719,087	0,48
719,525	0,48
719,963	0,48
720,401	0,48
720,839	0,48
721,277	0,48
721,715	0,48
722,153	0,48
722,591	0,48
723,029	0,48
723,467	0,48
723,905	0,48
724,342	0,48
724,78	0,48
725,218	0,48
725,656	0,48
726,093	0,48
726,531	0,48
726,969	0,48
727,406	0,48
727,844	0,48
728,281	0,48
728,719	0,48
729,156	0,48
729,594	0,47
730,031	0,47
730,469	0,47
730,906	0,47
731,343	0,47
731,781	0,47
732,218	0,47
732,655	0,47
733,092	0,47
733,53	0,47
733,967	0,47
734,404	0,46
734,841	0,46
735,278	0,46
735,715	0,46
736,152	0,46
736,589	0,46
737,026	0,46
737,463	0,46
737,9	0,46
738,337	0,46
738,774	0,46
739,211	0,46
739,647	0,46
740,084	0,46
740,521	0,46
740,958	0,46
741,394	0,46
741,831	0,47
742,268	0,46
742,704	0,46
743,141	0,46
743,577	0,46
744,014	0,46
744,45	0,46
744,887	0,46
745,323	0,46
745,76	0,46
746,196	0,46
746,632	0,46
747,069	0,46
747,505	0,46
747,941	0,46
748,378	0,46
748,814	0,46
749,25	0,46
749,686	0,46
750,122	0,46
750,558	0,46
750,994	0,46
751,43	0,46
751,866	0,46
752,302	0,46
752,738	0,47
753,174	0,47
753,61	0,47
754,046	0,46
754,482	0,46
754,918	0,46
755,354	0,46
755,789	0,46
756,225	0,46
756,661	0,46
757,096	0,46
757,532	0,45
757,968	0,45
758,403	0,45
758,839	0,45
759,274	0,44
759,71	0,44
760,145	0,43
760,581	0,43
761,016	0,42
761,452	0,42
761,887	0,41
762,322	0,41
762,758	0,4
763,193	0,4
763,628	0,39
764,063	0,38
764,499	0,38
764,934	0,37
765,369	0,36
765,804	0,35
766,239	0,35
766,674	0,34
767,109	0,33
767,544	0,32
767,979	0,31
768,414	0,3
768,849	0,29
769,284	0,28
769,719	0,26
770,154	0,26
770,588	0,25
771,023	0,24
771,458	0,23
771,893	0,21
772,327	0,2
772,762	0,2
773,197	0,19
773,631	0,18
774,066	0,17
774,5	0,16
774,935	0,15
775,369	0,14
775,804	0,13
776,238	0,12
776,673	0,11
777,107	0,1
777,541	0,08
777,976	0,07
778,41	0,06
778,844	0,05
779,279	0,04
779,713	0,03
780,147	0,02
780,581	0,02
781,015	0,01
781,449	0
781,883	-0,01
782,317	-0,02
782,751	-0,04
783,185	-0,04
783,619	-0,05
784,053	-0,06
784,487	-0,07
784,921	-0,08
785,355	-0,09
785,789	-0,1
786,223	-0,12
786,656	-0,12
787,09	-0,13
787,524	-0,14
787,957	-0,15
788,391	-0,17
788,825	-0,18
789,258	-0,2
789,692	-0,21
790,125	-0,22
790,559	-0,24
790,992	-0,26
791,426	-0,28
791,859	-0,29
792,293	-0,32
792,726	-0,34
793,159	-0,36
793,593	-0,38
794,026	-0,4
794,459	-0,43
794,892	-0,46
795,326	-0,48
795,759	-0,52
796,192	-0,56
796,625	-0,61
797,058	-0,63
797,491	-0,67
797,924	-0,71
798,357	-0,76
798,79	-0,8
799,223	-0,84
799,656	-0,89
800,089	-0,94
800,522	-0,98
800,955	-1,03
801,387	-1,08
801,82	-1,14
802,253	-1,2
802,686	-1,28
803,118	-1,34
803,551	-1,39
803,984	-1,43
804,416	-1,47
804,849	-1,49
805,281	-1,59
805,714	-1,93
806,146	-2,42
806,579	-2,69
807,011	-2,86
807,444	-2,96
807,876	-3,04
808,308	-3,07
808,741	-3,1
809,173	-3,15
809,605	-3,17
810,037	-3,25
810,47	-3,18
810,902	-2,98
811,334	-2,82
811,766	-2,66
812,198	-2,41
812,63	-1,98
813,062	-1,77
813,494	-1,68
813,926	-1,59
814,358	-1,54
814,79	-1,46
815,222	-1,4
815,654	-1,35
816,086	-1,29
816,518	-1,24
816,949	-1,19
817,381	-1,14
817,813	-1,13
818,245	-1,09
818,676	-1,05
819,108	-1,02
819,54	-1
819,971	-0,98
820,403	-0,93
820,834	-0,92
821,266	-0,87
821,697	-0,85
822,129	-0,84
822,56	-0,81
822,991	-0,79
823,423	-0,76
823,854	-0,76
824,286	-0,74
824,717	-0,73
825,148	-0,72
825,579	-0,71
826,01	-0,7
826,442	-0,69
826,873	-0,67
827,304	-0,64
827,735	-0,63
828,166	-0,63
828,597	-0,63
829,028	-0,61
829,459	-0,62
829,89	-0,62
830,321	-0,58
830,752	-0,59
831,183	-0,58
831,613	-0,58
832,044	-0,57
832,475	-0,57
832,906	-0,58
833,336	-0,58
833,767	-0,58
834,198	-0,57
834,628	-0,55
835,059	-0,58
835,49	-0,59
835,92	-0,56
836,351	-0,56
836,781	-0,56
837,212	-0,57
837,642	-0,57
838,072	-0,56
838,503	-0,57
838,933	-0,54
839,364	-0,55
839,794	-0,53
840,224	-0,52
840,654	-0,56
841,085	-0,57
841,515	-0,55
841,945	-0,55
842,375	-0,5
842,805	-0,49
843,235	-0,48
843,665	-0,49
844,095	-0,48
844,525	-0,5
844,955	-0,51
845,385	-0,49
845,815	-0,47
846,245	-0,49
846,675	-0,5
847,105	-0,51
847,534	-0,51
847,964	-0,5
848,394	-0,49
848,824	-0,53
849,253	-0,52
849,683	-0,52
850,112	-0,52
850,542	-0,57
850,972	-0,57
851,401	-0,55
851,831	-0,53
852,26	-0,54
852,69	-0,57
853,119	-0,56
853,548	-0,56
853,978	-0,56
854,407	-0,54
854,836	-0,54
855,266	-0,53
855,695	-0,54
856,124	-0,56
856,553	-0,57
856,983	-0,59
857,412	-0,58
857,841	-0,59
858,27	-0,59
858,699	-0,6
859,128	-0,63
859,557	-0,64
859,986	-0,66
860,415	-0,63
860,844	-0,6
861,273	-0,61
861,702	-0,62
862,13	-0,6
862,559	-0,63
862,988	-0,59
863,417	-0,59
863,845	-0,58
864,274	-0,58
864,703	-0,58
865,131	-0,58
865,56	-0,59
865,989	-0,61
866,417	-0,58
866,846	-0,58
867,274	-0,57
867,703	-0,6
868,131	-0,61
868,559	-0,61
868,988	-0,64
869,416	-0,62
869,844	-0,64
870,273	-0,67
870,701	-0,64
871,129	-0,68
871,557	-0,7
871,986	-0,7
872,414	-0,71
872,842	-0,68
873,27	-0,66
873,698	-0,63
874,126	-0,67
874,554	-0,65
874,982	-0,65
875,41	-0,68
875,838	-0,64
876,266	-0,62
876,694	-0,62
877,122	-0,62
877,549	-0,67
877,977	-0,64
878,405	-0,67
878,833	-0,64
879,26	-0,62
879,688	-0,61
880,116	-0,59
880,543	-0,57
880,971	-0,56
881,399	-0,59
881,826	-0,6
882,254	-0,58
882,681	-0,62
883,109	-0,58
883,536	-0,59
883,963	-0,62
884,391	-0,61
884,818	-0,58
885,245	-0,62
885,673	-0,63
886,1	-0,61
886,527	-0,6
886,954	-0,56
887,381	-0,58
887,809	-0,59
888,236	-0,6
888,663	-0,6
889,09	-0,64
889,517	-0,67
889,944	-0,66
890,371	-0,65
890,798	-0,66
891,225	-0,66
891,652	-0,69
892,078	-0,66
892,505	-0,68
892,932	-0,64
893,359	-0,65
893,786	-0,64
894,212	-0,61
894,639	-0,62
895,066	-0,65
895,492	-0,59
895,919	-0,59
896,346	-0,58
896,772	-0,59
897,199	-0,56
897,625	-0,59
898,052	-0,55
898,478	-0,53
898,904	-0,55
899,331	-0,53
899,757	-0,54
900,183	-0,57
900,61	-0,55
901,036	-0,56
901,462	-0,55
901,888	-0,55
902,315	-0,54
902,741	-0,59
903,167	-0,58
903,593	-0,61
904,019	-0,6
904,445	-0,57
904,871	-0,6
905,297	-0,62
905,723	-0,61
906,149	-0,6
906,575	-0,61
907,001	-0,61
907,427	-0,58
907,852	-0,57
908,278	-0,57
908,704	-0,56
909,13	-0,55
909,555	-0,54
909,981	-0,53
910,407	-0,54
910,832	-0,53
911,258	-0,54
911,684	-0,54
912,109	-0,54
912,535	-0,56
912,96	-0,52
913,386	-0,56
913,811	-0,56
914,236	-0,58
914,662	-0,56
915,087	-0,59
915,512	-0,59
915,938	-0,61
916,363	-0,6
916,788	-0,61
917,213	-0,59
917,639	-0,65
918,064	-0,62
918,489	-0,62
918,914	-0,63
919,339	-0,64
919,764	-0,6
920,189	-0,6
920,614	-0,63
921,039	-0,63
921,464	-0,59
921,889	-0,62
922,314	-0,62
922,738	-0,65
923,163	-0,66
923,588	-0,65
924,013	-0,65
924,437	-0,66
924,862	-0,67
925,287	-0,62
925,711	-0,63
926,136	-0,64
926,561	-0,61
926,985	-0,61
927,41	-0,58
927,834	-0,56
928,259	-0,54
928,683	-0,52
929,108	-0,49
929,532	-0,5
929,956	-0,5
930,381	-0,49
930,805	-0,5
931,229	-0,49
931,653	-0,47
932,078	-0,46
932,502	-0,47
932,926	-0,48
933,35	-0,48
933,774	-0,48
934,198	-0,46
934,622	-0,45
935,046	-0,45
935,47	-0,46
935,894	-0,46
936,318	-0,45
936,742	-0,46
937,166	-0,46
937,59	-0,46
938,014	-0,48
938,437	-0,48
938,861	-0,5
939,285	-0,51
939,709	-0,51
940,132	-0,51
940,556	-0,52
940,98	-0,52
941,403	-0,51
941,827	-0,51
942,25	-0,53
942,674	-0,51
943,097	-0,51
943,521	-0,5
943,944	-0,51
944,368	-0,5
944,791	-0,48
945,214	-0,5
945,638	-0,51
946,061	-0,55
946,484	-0,55
946,907	-0,53
947,331	-0,53
947,754	-0,56
948,177	-0,53
948,6	-0,53
949,023	-0,53
949,446	-0,54
949,869	-0,52
950,292	-0,5
950,715	-0,47
951,138	-0,46
951,561	-0,45
951,984	-0,46
952,407	-0,44
952,83	-0,43
953,252	-0,39
953,675	-0,39
954,098	-0,4
954,521	-0,39
954,943	-0,39
955,366	-0,39
955,789	-0,37
956,211	-0,39
956,634	-0,39
957,056	-0,36
957,479	-0,38
957,902	-0,39
958,324	-0,4
958,746	-0,38
959,169	-0,39
959,591	-0,39
960,014	-0,41
960,436	-0,4
960,858	-0,4
961,281	-0,39
961,703	-0,41
962,125	-0,41
962,547	-0,39
962,969	-0,39
963,391	-0,39
963,814	-0,4
964,236	-0,4
964,658	-0,36
965,08	-0,37
965,502	-0,36
965,924	-0,34
966,346	-0,34
966,768	-0,33
967,189	-0,36
967,611	-0,35
968,033	-0,35
968,455	-0,33
968,877	-0,34
969,298	-0,35
969,72	-0,37
970,142	-0,36
970,563	-0,37
970,985	-0,35
971,407	-0,34
971,828	-0,32
972,25	-0,31
972,671	-0,29
973,093	-0,29
973,514	-0,28
973,936	-0,26
974,357	-0,24
974,778	-0,24
975,2	-0,24
975,621	-0,24
976,042	-0,22
976,464	-0,22
976,885	-0,21
977,306	-0,2
977,727	-0,19
978,148	-0,18
978,57	-0,16
978,991	-0,14
979,412	-0,13
979,833	-0,11
980,254	-0,1
980,675	-0,1
981,096	-0,09
981,517	-0,07
981,937	-0,07
982,358	-0,05
982,779	-0,04
983,2	-0,03
983,621	-0,03
984,042	-0,01
984,462	0,01
984,883	0,02
985,304	0,05
985,724	0,06
986,145	0,07
986,565	0,09
986,986	0,1
987,407	0,11
987,827	0,12
988,248	0,14
988,668	0,15
989,088	0,16
989,509	0,17
989,929	0,18
990,35	0,2
990,77	0,22
991,19	0,22
991,61	0,24
992,031	0,24
992,451	0,25
992,871	0,26
993,291	0,28
993,711	0,29
994,131	0,29
994,551	0,3
994,971	0,31
995,391	0,31
995,811	0,33
996,231	0,33
996,651	0,34
997,071	0,34
997,491	0,35
997,911	0,36
998,331	0,37
998,75	0,38
999,17	0,38
999,59	0,39
1000,009	0,39
1000,429	0,4
1000,849	0,41
1001,268	0,41
1001,688	0,42
1002,107	0,42
1002,527	0,42
1002,946	0,43
1003,366	0,43
1003,785	0,44
1004,205	0,44
1004,624	0,44
1005,044	0,45
1005,463	0,45
1005,882	0,45
1006,301	0,45
1006,721	0,45
1007,14	0,46
1007,559	0,46
1007,978	0,46
1008,397	0,46
1008,816	0,46
1009,235	0,46
1009,655	0,46
1010,074	0,46
1010,492	0,46
1010,911	0,46
1011,33	0,46
1011,749	0,46
1012,168	0,46
1012,587	0,46
1013,006	0,46
1013,425	0,46
1013,843	0,45
1014,262	0,45
1014,681	0,45
1015,099	0,45
1015,518	0,45
1015,937	0,45
1016,355	0,45
1016,774	0,45
1017,192	0,45
1017,611	0,45
1018,029	0,45
1018,448	0,45
1018,866	0,45
1019,285	0,45
1019,703	0,45
1020,121	0,45
1020,54	0,45
1020,958	0,45
1021,376	0,45
1021,794	0,45
1022,213	0,45
1022,631	0,45
1023,049	0,45
1023,467	0,44
1023,885	0,44
1024,303	0,44
1024,721	0,44
1025,139	0,44
1025,557	0,44
1025,975	0,44
1026,393	0,44
1026,811	0,44
1027,229	0,44
1027,647	0,44
1028,065	0,44
1028,482	0,44
1028,9	0,44
1029,318	0,43
1029,735	0,43
1030,153	0,43
1030,571	0,43
1030,988	0,43
1031,406	0,43
1031,823	0,43
1032,241	0,43
1032,659	0,43
1033,076	0,44
1033,493	0,44
1033,911	0,44
1034,328	0,44
1034,746	0,44
1035,163	0,44
1035,58	0,44
1035,997	0,44
1036,415	0,44
1036,832	0,44
1037,249	0,44
1037,666	0,44
1038,083	0,44
1038,501	0,44
1038,918	0,44
1039,335	0,44
1039,752	0,44
1040,169	0,44
1040,586	0,44
1041,003	0,44
1041,419	0,44
1041,836	0,44
1042,253	0,44
1042,67	0,44
1043,087	0,44
1043,504	0,44
1043,92	0,44
1044,337	0,44
1044,754	0,43
1045,17	0,43
1045,587	0,43
1046,004	0,43
1046,42	0,43
1046,837	0,43
1047,253	0,43
1047,67	0,43
1048,086	0,43
1048,503	0,43
1048,919	0,43
1049,335	0,43
1049,752	0,43
1050,168	0,43
1050,584	0,43
1051,001	0,43
1051,417	0,43
1051,833	0,43
1052,249	0,43
1052,665	0,43
1053,081	0,44
1053,497	0,44
1053,914	0,44
1054,33	0,44
1054,746	0,44
1055,162	0,44
1055,578	0,44
1055,993	0,44
1056,409	0,44
1056,825	0,44
1057,241	0,44
1057,657	0,44
1058,073	0,44
1058,488	0,45
1058,904	0,45
1059,32	0,44
1059,736	0,44
1060,151	0,44
1060,567	0,44
1060,982	0,45
1061,398	0,44
1061,813	0,44
1062,229	0,44
1062,644	0,44
1063,06	0,44
1063,475	0,44
1063,891	0,44
1064,306	0,44
1064,721	0,44
1065,137	0,44
1065,552	0,44
1065,967	0,44
1066,382	0,44
1066,798	0,44
1067,213	0,44
1067,628	0,44
1068,043	0,44
1068,458	0,44
1068,873	0,44
1069,288	0,44
1069,703	0,44
1070,118	0,44
1070,533	0,44
1070,948	0,44
1071,363	0,44
1071,778	0,44
1072,193	0,44
1072,607	0,44
1073,022	0,44
1073,437	0,44
1073,852	0,44
1074,266	0,44
1074,681	0,44
1075,096	0,44
1075,51	0,44
1075,925	0,44
1076,339	0,44
1076,754	0,44
1077,168	0,44
1077,583	0,44
1077,997	0,44
1078,412	0,44
1078,826	0,43
1079,24	0,43
1079,655	0,43
1080,069	0,43
1080,483	0,43
1080,897	0,43
1081,312	0,43
1081,726	0,43
1082,14	0,43
1082,554	0,43
1082,968	0,43
1083,382	0,43
1083,796	0,43
1084,21	0,43
1084,624	0,42
1085,038	0,42
1085,452	0,42
1085,866	0,42
1086,28	0,42
1086,694	0,42
1087,108	0,42
1087,521	0,41
1087,935	0,41
1088,349	0,41
1088,763	0,41
1089,176	0,4
1089,59	0,4
1090,004	0,4
1090,417	0,39
1090,831	0,39
1091,244	0,39
1091,658	0,38
1092,071	0,38
1092,485	0,38
1092,898	0,37
1093,312	0,37
1093,725	0,37
1094,138	0,37
1094,552	0,36
1094,965	0,36
1095,378	0,36
1095,791	0,35
1096,205	0,35
1096,618	0,35
1097,031	0,35
1097,444	0,35
1097,857	0,34
1098,27	0,34
1098,683	0,34
1099,096	0,33
1099,509	0,33
1099,922	0,32
1100,335	0,32
1100,748	0,31
1101,161	0,3
1101,574	0,3
1101,986	0,29
1102,399	0,29
1102,812	0,29
1103,225	0,28
1103,637	0,28
1104,05	0,28
1104,463	0,28
1104,875	0,28
1105,288	0,28
1105,7	0,27
1106,113	0,27
1106,525	0,27
1106,938	0,26
1107,35	0,25
1107,763	0,25
1108,175	0,24
1108,588	0,24
1109	0,23
1109,412	0,22
1109,824	0,22
1110,237	0,21
1110,649	0,2
1111,061	0,18
