Data from 18C-808nm-8A-cont_Absorbance__174__01603.txt Node

Date: Mon Jul 17 17:23:50 CEST 2023
User: Laser008
Spectrometer: MAYP115816
Trigger mode: 0
Integration Time (sec): 2,500000E-1
Scans to average: 10
Electric dark correction enabled: true
Nonlinearity correction enabled: true
Boxcar width: 5
XAxis mode: Wavelengths
Number of Pixels in Spectrum: 2068
>>>>>Begin Spectral Data<<<<<
198,914	-0,77
199,384	-0,52
199,855	-0,39
200,325	-0,29
200,796	-0,25
201,266	-0,2
201,737	-0,17
202,207	-0,16
202,677	-0,15
203,147	-0,13
203,618	-0,09
204,088	-0,08
204,558	-0,07
205,028	-0,06
205,498	-0,07
205,968	-0,07
206,439	-0,09
206,909	-0,08
207,379	-0,09
207,849	-0,1
208,319	-0,11
208,789	-0,12
209,258	-0,11
209,728	-0,12
210,198	-0,12
210,668	-0,11
211,138	-0,11
211,608	-0,11
212,077	-0,11
212,547	-0,1
213,017	-0,09
213,486	-0,1
213,956	-0,11
214,426	-0,11
214,895	-0,11
215,365	-0,13
215,834	-0,14
216,304	-0,15
216,773	-0,15
217,243	-0,17
217,712	-0,19
218,181	-0,18
218,651	-0,18
219,12	-0,18
219,589	-0,18
220,058	-0,18
220,528	-0,19
220,997	-0,18
221,466	-0,2
221,935	-0,2
222,404	-0,19
222,873	-0,18
223,342	-0,17
223,812	-0,18
224,281	-0,18
224,749	-0,18
225,218	-0,2
225,687	-0,19
226,156	-0,19
226,625	-0,16
227,094	-0,16
227,563	-0,16
228,031	-0,17
228,5	-0,17
228,969	-0,17
229,438	-0,16
229,906	-0,15
230,375	-0,13
230,844	-0,13
231,312	-0,12
231,781	-0,14
232,249	-0,13
232,718	-0,13
233,186	-0,11
233,655	-0,12
234,123	-0,11
234,591	-0,12
235,06	-0,12
235,528	-0,13
235,996	-0,12
236,465	-0,12
236,933	-0,11
237,401	-0,11
237,869	-0,1
238,337	-0,11
238,805	-0,09
239,274	-0,09
239,742	-0,08
240,21	-0,08
240,678	-0,08
241,146	-0,07
241,614	-0,08
242,081	-0,08
242,549	-0,08
243,017	-0,09
243,485	-0,09
243,953	-0,09
244,421	-0,09
244,888	-0,09
245,356	-0,09
245,824	-0,09
246,291	-0,09
246,759	-0,1
247,227	-0,09
247,694	-0,08
248,162	-0,07
248,629	-0,07
249,097	-0,08
249,564	-0,09
250,032	-0,09
250,499	-0,1
250,967	-0,1
251,434	-0,1
251,901	-0,1
252,369	-0,11
252,836	-0,12
253,303	-0,13
253,77	-0,14
254,237	-0,14
254,705	-0,14
255,172	-0,13
255,639	-0,14
256,106	-0,15
256,573	-0,15
257,04	-0,16
257,507	-0,15
257,974	-0,16
258,441	-0,14
258,908	-0,14
259,375	-0,16
259,841	-0,16
260,308	-0,16
260,775	-0,17
261,242	-0,16
261,709	-0,17
262,175	-0,17
262,642	-0,17
263,109	-0,16
263,575	-0,18
264,042	-0,15
264,508	-0,15
264,975	-0,16
265,441	-0,17
265,908	-0,17
266,374	-0,16
266,841	-0,16
267,307	-0,16
267,773	-0,16
268,24	-0,16
268,706	-0,18
269,172	-0,2
269,639	-0,21
270,105	-0,19
270,571	-0,19
271,037	-0,18
271,503	-0,18
271,969	-0,18
272,435	-0,19
272,902	-0,21
273,368	-0,22
273,834	-0,21
274,3	-0,21
274,765	-0,21
275,231	-0,22
275,697	-0,21
276,163	-0,21
276,629	-0,22
277,095	-0,23
277,56	-0,22
278,026	-0,22
278,492	-0,2
278,958	-0,2
279,423	-0,2
279,889	-0,19
280,354	-0,19
280,82	-0,19
281,286	-0,2
281,751	-0,2
282,217	-0,18
282,682	-0,19
283,147	-0,19
283,613	-0,2
284,078	-0,2
284,544	-0,21
285,009	-0,23
285,474	-0,22
285,939	-0,24
286,405	-0,23
286,87	-0,22
287,335	-0,22
287,8	-0,22
288,265	-0,2
288,73	-0,21
289,195	-0,23
289,66	-0,23
290,125	-0,21
290,59	-0,21
291,055	-0,2
291,52	-0,2
291,985	-0,22
292,45	-0,22
292,915	-0,23
293,38	-0,23
293,844	-0,22
294,309	-0,21
294,774	-0,19
295,239	-0,2
295,703	-0,21
296,168	-0,21
296,632	-0,2
297,097	-0,18
297,562	-0,17
298,026	-0,17
298,491	-0,18
298,955	-0,17
299,419	-0,17
299,884	-0,17
300,348	-0,16
300,813	-0,15
301,277	-0,16
301,741	-0,16
302,205	-0,16
302,67	-0,16
303,134	-0,15
303,598	-0,15
304,062	-0,14
304,526	-0,14
304,99	-0,15
305,454	-0,14
305,919	-0,14
306,383	-0,13
306,847	-0,13
307,31	-0,14
307,774	-0,14
308,238	-0,14
308,702	-0,13
309,166	-0,15
309,63	-0,14
310,094	-0,12
310,557	-0,12
311,021	-0,11
311,485	-0,12
311,948	-0,12
312,412	-0,1
312,876	-0,1
313,339	-0,1
313,803	-0,11
314,266	-0,1
314,73	-0,11
315,193	-0,11
315,657	-0,09
316,12	-0,09
316,584	-0,08
317,047	-0,07
317,51	-0,07
317,973	-0,06
318,437	-0,05
318,9	-0,04
319,363	-0,02
319,826	-0,02
320,29	-0,03
320,753	-0,04
321,216	-0,04
321,679	-0,04
322,142	-0,04
322,605	-0,05
323,068	-0,05
323,531	-0,05
323,994	-0,05
324,457	-0,06
324,92	-0,05
325,382	-0,04
325,845	-0,04
326,308	-0,03
326,771	-0,03
327,233	-0,02
327,696	-0,01
328,159	0
328,622	0,01
329,084	0,01
329,547	0,02
330,009	0,03
330,472	0,04
330,934	0,05
331,397	0,06
331,859	0,06
332,322	0,06
332,784	0,05
333,246	0,06
333,709	0,06
334,171	0,06
334,633	0,07
335,096	0,06
335,558	0,06
336,02	0,06
336,482	0,06
336,944	0,07
337,406	0,08
337,868	0,09
338,331	0,09
338,793	0,1
339,255	0,11
339,717	0,11
340,178	0,12
340,64	0,13
341,102	0,14
341,564	0,15
342,026	0,15
342,488	0,16
342,949	0,17
343,411	0,2
343,873	0,22
344,335	0,25
344,796	0,28
345,258	0,32
345,719	0,36
346,181	0,4
346,643	0,44
347,104	0,47
347,566	0,5
348,027	0,53
348,488	0,54
348,95	0,56
349,411	0,58
349,873	0,59
350,334	0,61
350,795	0,62
351,256	0,63
351,718	0,64
352,179	0,64
352,64	0,64
353,101	0,65
353,562	0,65
354,023	0,65
354,484	0,65
354,945	0,65
355,406	0,65
355,867	0,66
356,328	0,66
356,789	0,67
357,25	0,67
357,711	0,67
358,172	0,67
358,633	0,67
359,093	0,67
359,554	0,67
360,015	0,67
360,476	0,67
360,936	0,67
361,397	0,68
361,858	0,67
362,318	0,67
362,779	0,67
363,239	0,67
363,7	0,67
364,16	0,67
364,621	0,68
365,081	0,68
365,541	0,68
366,002	0,67
366,462	0,67
366,922	0,67
367,383	0,67
367,843	0,67
368,303	0,67
368,763	0,67
369,223	0,68
369,684	0,68
370,144	0,68
370,604	0,68
371,064	0,68
371,524	0,68
371,984	0,68
372,444	0,68
372,904	0,67
373,363	0,67
373,823	0,67
374,283	0,67
374,743	0,67
375,203	0,67
375,663	0,67
376,122	0,67
376,582	0,67
377,042	0,67
377,501	0,67
377,961	0,67
378,42	0,67
378,88	0,67
379,34	0,67
379,799	0,67
380,259	0,67
380,718	0,67
381,177	0,67
381,637	0,67
382,096	0,67
382,555	0,67
383,015	0,67
383,474	0,67
383,933	0,67
384,393	0,67
384,852	0,67
385,311	0,67
385,77	0,67
386,229	0,67
386,688	0,66
387,147	0,66
387,606	0,66
388,065	0,66
388,524	0,66
388,983	0,66
389,442	0,66
389,901	0,66
390,36	0,66
390,819	0,66
391,277	0,66
391,736	0,66
392,195	0,66
392,654	0,66
393,112	0,66
393,571	0,66
394,03	0,66
394,488	0,66
394,947	0,66
395,405	0,66
395,864	0,66
396,322	0,66
396,781	0,66
397,239	0,66
397,698	0,66
398,156	0,66
398,614	0,66
399,073	0,66
399,531	0,66
399,989	0,66
400,447	0,66
400,905	0,66
401,364	0,66
401,822	0,66
402,28	0,65
402,738	0,65
403,196	0,65
403,654	0,65
404,112	0,65
404,57	0,65
405,028	0,65
405,486	0,65
405,944	0,65
406,402	0,65
406,859	0,65
407,317	0,65
407,775	0,65
408,233	0,65
408,691	0,65
409,148	0,65
409,606	0,65
410,064	0,65
410,521	0,65
410,979	0,65
411,436	0,65
411,894	0,65
412,351	0,65
412,809	0,65
413,266	0,65
413,724	0,65
414,181	0,65
414,638	0,65
415,096	0,65
415,553	0,65
416,01	0,65
416,467	0,65
416,925	0,65
417,382	0,65
417,839	0,65
418,296	0,65
418,753	0,65
419,21	0,65
419,667	0,65
420,124	0,65
420,581	0,65
421,038	0,65
421,495	0,65
421,952	0,65
422,409	0,65
422,866	0,65
423,322	0,65
423,779	0,65
424,236	0,65
424,693	0,65
425,149	0,65
425,606	0,65
426,063	0,65
426,519	0,65
426,976	0,65
427,433	0,65
427,889	0,65
428,346	0,65
428,802	0,65
429,258	0,65
429,715	0,65
430,171	0,64
430,628	0,64
431,084	0,64
431,54	0,64
431,997	0,64
432,453	0,64
432,909	0,64
433,365	0,64
433,821	0,64
434,277	0,64
434,734	0,64
435,19	0,64
435,646	0,64
436,102	0,64
436,558	0,64
437,014	0,64
437,47	0,64
437,925	0,64
438,381	0,64
438,837	0,64
439,293	0,64
439,749	0,64
440,205	0,64
440,66	0,64
441,116	0,64
441,572	0,64
442,027	0,64
442,483	0,64
442,939	0,64
443,394	0,64
443,85	0,64
444,305	0,64
444,761	0,64
445,216	0,65
445,672	0,65
446,127	0,65
446,582	0,65
447,038	0,65
447,493	0,65
447,948	0,65
448,403	0,65
448,859	0,65
449,314	0,65
449,769	0,65
450,224	0,65
450,679	0,65
451,134	0,65
451,589	0,65
452,044	0,65
452,499	0,65
452,954	0,65
453,409	0,65
453,864	0,65
454,319	0,65
454,774	0,65
455,229	0,65
455,684	0,65
456,138	0,65
456,593	0,65
457,048	0,65
457,503	0,65
457,957	0,65
458,412	0,65
458,866	0,65
459,321	0,65
459,776	0,65
460,23	0,65
460,685	0,65
461,139	0,65
461,593	0,65
462,048	0,65
462,502	0,66
462,957	0,66
463,411	0,66
463,865	0,66
464,319	0,66
464,774	0,66
465,228	0,66
465,682	0,66
466,136	0,66
466,59	0,66
467,044	0,66
467,499	0,66
467,953	0,66
468,407	0,66
468,861	0,66
469,315	0,66
469,768	0,67
470,222	0,67
470,676	0,67
471,13	0,67
471,584	0,67
472,038	0,67
472,491	0,67
472,945	0,67
473,399	0,67
473,852	0,67
474,306	0,67
474,76	0,67
475,213	0,68
475,667	0,68
476,12	0,68
476,574	0,68
477,027	0,68
477,481	0,68
477,934	0,68
478,388	0,68
478,841	0,69
479,294	0,69
479,748	0,69
480,201	0,69
480,654	0,69
481,107	0,69
481,561	0,69
482,014	0,7
482,467	0,7
482,92	0,7
483,373	0,7
483,826	0,7
484,279	0,7
484,732	0,7
485,185	0,71
485,638	0,71
486,091	0,71
486,544	0,71
486,997	0,71
487,449	0,71
487,902	0,72
488,355	0,72
488,808	0,72
489,26	0,72
489,713	0,72
490,166	0,73
490,618	0,73
491,071	0,73
491,523	0,73
491,976	0,74
492,429	0,74
492,881	0,74
493,333	0,74
493,786	0,75
494,238	0,75
494,691	0,75
495,143	0,76
495,595	0,76
496,048	0,76
496,5	0,76
496,952	0,77
497,404	0,77
497,856	0,77
498,309	0,78
498,761	0,78
499,213	0,78
499,665	0,79
500,117	0,79
500,569	0,79
501,021	0,8
501,473	0,8
501,925	0,8
502,377	0,81
502,828	0,81
503,28	0,81
503,732	0,82
504,184	0,82
504,636	0,82
505,087	0,83
505,539	0,83
505,991	0,83
506,442	0,84
506,894	0,84
507,345	0,84
507,797	0,85
508,249	0,85
508,7	0,85
509,151	0,86
509,603	0,86
510,054	0,86
510,506	0,87
510,957	0,87
511,408	0,87
511,86	0,88
512,311	0,88
512,762	0,88
513,213	0,88
513,665	0,89
514,116	0,89
514,567	0,89
515,018	0,9
515,469	0,9
515,92	0,9
516,371	0,91
516,822	0,91
517,273	0,91
517,724	0,91
518,175	0,92
518,626	0,92
519,076	0,92
519,527	0,92
519,978	0,92
520,429	0,93
520,88	0,93
521,33	0,93
521,781	0,93
522,232	0,93
522,682	0,93
523,133	0,94
523,583	0,94
524,034	0,94
524,484	0,94
524,935	0,94
525,385	0,94
525,836	0,94
526,286	0,94
526,736	0,94
527,187	0,94
527,637	0,94
528,087	0,94
528,538	0,94
528,988	0,94
529,438	0,94
529,888	0,94
530,338	0,94
530,788	0,94
531,238	0,93
531,688	0,93
532,139	0,93
532,589	0,93
533,038	0,93
533,488	0,93
533,938	0,93
534,388	0,92
534,838	0,92
535,288	0,92
535,738	0,92
536,187	0,91
536,637	0,91
537,087	0,91
537,537	0,91
537,986	0,9
538,436	0,9
538,885	0,9
539,335	0,89
539,785	0,89
540,234	0,88
540,684	0,88
541,133	0,88
541,582	0,87
542,032	0,87
542,481	0,86
542,931	0,86
543,38	0,86
543,829	0,85
544,278	0,85
544,728	0,84
545,177	0,84
545,626	0,84
546,075	0,83
546,524	0,83
546,973	0,83
547,422	0,82
547,871	0,82
548,32	0,82
548,769	0,82
549,218	0,81
549,667	0,81
550,116	0,81
550,565	0,81
551,014	0,8
551,463	0,8
551,911	0,79
552,36	0,79
552,809	0,79
553,258	0,78
553,706	0,78
554,155	0,78
554,603	0,77
555,052	0,77
555,501	0,77
555,949	0,76
556,398	0,76
556,846	0,75
557,294	0,75
557,743	0,75
558,191	0,74
558,64	0,74
559,088	0,73
559,536	0,73
559,985	0,73
560,433	0,72
560,881	0,72
561,329	0,71
561,777	0,71
562,225	0,71
562,674	0,71
563,122	0,7
563,57	0,7
564,018	0,7
564,466	0,69
564,914	0,69
565,362	0,69
565,809	0,68
566,257	0,68
566,705	0,68
567,153	0,67
567,601	0,67
568,048	0,67
568,496	0,66
568,944	0,66
569,392	0,66
569,839	0,66
570,287	0,65
570,734	0,65
571,182	0,65
571,63	0,64
572,077	0,64
572,525	0,64
572,972	0,63
573,419	0,63
573,867	0,63
574,314	0,62
574,761	0,62
575,209	0,62
575,656	0,62
576,103	0,61
576,551	0,61
576,998	0,61
577,445	0,61
577,892	0,6
578,339	0,6
578,786	0,6
579,233	0,6
579,68	0,59
580,127	0,59
580,574	0,59
581,021	0,59
581,468	0,59
581,915	0,58
582,362	0,58
582,809	0,58
583,255	0,58
583,702	0,58
584,149	0,57
584,596	0,57
585,042	0,57
585,489	0,57
585,936	0,57
586,382	0,56
586,829	0,56
587,275	0,56
587,722	0,56
588,168	0,56
588,615	0,56
589,061	0,55
589,508	0,55
589,954	0,55
590,4	0,55
590,847	0,55
591,293	0,55
591,739	0,55
592,185	0,54
592,632	0,54
593,078	0,54
593,524	0,54
593,97	0,54
594,416	0,54
594,862	0,54
595,308	0,54
595,754	0,54
596,2	0,53
596,646	0,53
597,092	0,53
597,538	0,53
597,984	0,53
598,43	0,53
598,876	0,53
599,321	0,53
599,767	0,53
600,213	0,52
600,659	0,52
601,104	0,52
601,55	0,52
601,995	0,52
602,441	0,52
602,887	0,52
603,332	0,51
603,778	0,51
604,223	0,51
604,668	0,51
605,114	0,51
605,559	0,51
606,005	0,51
606,45	0,51
606,895	0,51
607,341	0,51
607,786	0,51
608,231	0,5
608,676	0,5
609,121	0,5
609,566	0,49
610,012	0,49
610,457	0,48
610,902	0,48
611,347	0,48
611,792	0,48
612,237	0,47
612,682	0,47
613,127	0,47
613,571	0,47
614,016	0,48
614,461	0,48
614,906	0,48
615,351	0,48
615,795	0,48
616,24	0,48
616,685	0,48
617,129	0,48
617,574	0,48
618,019	0,48
618,463	0,48
618,908	0,48
619,352	0,48
619,797	0,48
620,241	0,48
620,686	0,48
621,13	0,48
621,574	0,48
622,019	0,48
622,463	0,48
622,907	0,48
623,352	0,47
623,796	0,47
624,24	0,47
624,684	0,47
625,128	0,47
625,572	0,47
626,016	0,47
626,461	0,47
626,905	0,47
627,349	0,47
627,793	0,47
628,236	0,47
628,68	0,47
629,124	0,47
629,568	0,47
630,012	0,47
630,456	0,47
630,9	0,47
631,343	0,47
631,787	0,47
632,231	0,47
632,674	0,47
633,118	0,47
633,562	0,47
634,005	0,47
634,449	0,47
634,892	0,47
635,336	0,47
635,779	0,47
636,223	0,47
636,666	0,47
637,109	0,47
637,553	0,47
637,996	0,47
638,439	0,47
638,883	0,47
639,326	0,47
639,769	0,47
640,212	0,46
640,655	0,46
641,099	0,46
641,542	0,46
641,985	0,46
642,428	0,46
642,871	0,46
643,314	0,46
643,757	0,46
644,2	0,46
644,643	0,46
645,085	0,46
645,528	0,46
645,971	0,46
646,414	0,46
646,857	0,46
647,299	0,45
647,742	0,45
648,185	0,45
648,627	0,45
649,07	0,45
649,513	0,45
649,955	0,45
650,398	0,45
650,84	0,45
651,283	0,45
651,725	0,45
652,168	0,45
652,61	0,46
653,052	0,46
653,495	0,45
653,937	0,37
654,379	0,31
654,821	0,32
655,264	0,32
655,706	0,32
656,148	0,32
656,59	0,32
657,032	0,32
657,474	0,32
657,916	0,32
658,358	0,31
658,8	0,37
659,242	0,45
659,684	0,45
660,126	0,45
660,568	0,45
661,01	0,45
661,452	0,45
661,894	0,45
662,335	0,45
662,777	0,45
663,219	0,45
663,661	0,45
664,102	0,45
664,544	0,45
664,985	0,45
665,427	0,45
665,869	0,44
666,31	0,45
666,752	0,45
667,193	0,45
667,634	0,45
668,076	0,45
668,517	0,45
668,959	0,45
669,4	0,45
669,841	0,45
670,282	0,45
670,724	0,45
671,165	0,45
671,606	0,45
672,047	0,45
672,488	0,45
672,929	0,45
673,37	0,45
673,811	0,45
674,252	0,44
674,693	0,44
675,134	0,44
675,575	0,44
676,016	0,44
676,457	0,44
676,898	0,44
677,339	0,44
677,78	0,44
678,22	0,44
678,661	0,44
679,102	0,44
679,542	0,44
679,983	0,44
680,424	0,44
680,864	0,44
681,305	0,44
681,745	0,44
682,186	0,44
682,626	0,44
683,067	0,44
683,507	0,44
683,948	0,44
684,388	0,44
684,828	0,44
685,269	0,44
685,709	0,44
686,149	0,43
686,589	0,43
687,029	0,43
687,47	0,43
687,91	0,43
688,35	0,43
688,79	0,43
689,23	0,43
689,67	0,43
690,11	0,43
690,55	0,43
690,99	0,43
691,43	0,43
691,87	0,43
692,31	0,43
692,749	0,43
693,189	0,43
693,629	0,42
694,069	0,42
694,508	0,42
694,948	0,42
695,388	0,42
695,827	0,42
696,267	0,42
696,706	0,42
697,146	0,43
697,586	0,43
698,025	0,43
698,464	0,43
698,904	0,43
699,343	0,43
699,783	0,43
700,222	0,43
700,661	0,43
701,101	0,43
701,54	0,43
701,979	0,43
702,418	0,43
702,857	0,43
703,297	0,43
703,736	0,43
704,175	0,43
704,614	0,43
705,053	0,43
705,492	0,43
705,931	0,43
706,37	0,43
706,809	0,43
707,248	0,42
707,687	0,42
708,125	0,42
708,564	0,42
709,003	0,42
709,442	0,42
709,88	0,42
710,319	0,42
710,758	0,42
711,196	0,42
711,635	0,42
712,074	0,42
712,512	0,42
712,951	0,42
713,389	0,42
713,828	0,41
714,266	0,41
714,705	0,41
715,143	0,41
715,581	0,41
716,02	0,41
716,458	0,41
716,896	0,41
717,334	0,41
717,773	0,41
718,211	0,41
718,649	0,41
719,087	0,41
719,525	0,41
719,963	0,42
720,401	0,42
720,839	0,42
721,277	0,42
721,715	0,42
722,153	0,42
722,591	0,42
723,029	0,42
723,467	0,41
723,905	0,41
724,342	0,41
724,78	0,41
725,218	0,41
725,656	0,41
726,093	0,41
726,531	0,41
726,969	0,41
727,406	0,42
727,844	0,42
728,281	0,41
728,719	0,41
729,156	0,41
729,594	0,41
730,031	0,41
730,469	0,41
730,906	0,41
731,343	0,41
731,781	0,41
732,218	0,41
732,655	0,41
733,092	0,41
733,53	0,41
733,967	0,41
734,404	0,41
734,841	0,41
735,278	0,41
735,715	0,4
736,152	0,4
736,589	0,4
737,026	0,4
737,463	0,4
737,9	0,4
738,337	0,4
738,774	0,4
739,211	0,4
739,647	0,4
740,084	0,4
740,521	0,4
740,958	0,4
741,394	0,4
741,831	0,4
742,268	0,4
742,704	0,4
743,141	0,4
743,577	0,4
744,014	0,4
744,45	0,4
744,887	0,4
745,323	0,4
745,76	0,39
746,196	0,39
746,632	0,39
747,069	0,39
747,505	0,39
747,941	0,39
748,378	0,39
748,814	0,39
749,25	0,39
749,686	0,39
750,122	0,39
750,558	0,4
750,994	0,4
751,43	0,4
751,866	0,4
752,302	0,4
752,738	0,4
753,174	0,4
753,61	0,4
754,046	0,4
754,482	0,4
754,918	0,4
755,354	0,4
755,789	0,4
756,225	0,4
756,661	0,4
757,096	0,4
757,532	0,4
757,968	0,39
758,403	0,39
758,839	0,39
759,274	0,39
759,71	0,38
760,145	0,38
760,581	0,37
761,016	0,37
761,452	0,36
761,887	0,36
762,322	0,36
762,758	0,35
763,193	0,35
763,628	0,34
764,063	0,33
764,499	0,33
764,934	0,32
765,369	0,32
765,804	0,31
766,239	0,3
766,674	0,3
767,109	0,29
767,544	0,28
767,979	0,27
768,414	0,27
768,849	0,26
769,284	0,25
769,719	0,24
770,154	0,24
770,588	0,23
771,023	0,22
771,458	0,21
771,893	0,2
772,327	0,18
772,762	0,17
773,197	0,16
773,631	0,15
774,066	0,15
774,5	0,13
774,935	0,13
775,369	0,12
775,804	0,11
776,238	0,11
776,673	0,1
777,107	0,09
777,541	0,08
777,976	0,07
778,41	0,06
778,844	0,05
779,279	0,05
779,713	0,04
780,147	0,02
780,581	0,01
781,015	-0
781,449	-0,01
781,883	-0,02
782,317	-0,03
782,751	-0,03
783,185	-0,04
783,619	-0,05
784,053	-0,06
784,487	-0,07
784,921	-0,07
785,355	-0,08
785,789	-0,09
786,223	-0,09
786,656	-0,11
787,09	-0,12
787,524	-0,12
787,957	-0,14
788,391	-0,15
788,825	-0,17
789,258	-0,18
789,692	-0,19
790,125	-0,21
790,559	-0,23
790,992	-0,25
791,426	-0,27
791,859	-0,29
792,293	-0,32
792,726	-0,34
793,159	-0,36
793,593	-0,38
794,026	-0,41
794,459	-0,44
794,892	-0,47
795,326	-0,49
795,759	-0,53
796,192	-0,57
796,625	-0,62
797,058	-0,64
797,491	-0,69
797,924	-0,72
798,357	-0,77
798,79	-0,82
799,223	-0,86
799,656	-0,91
800,089	-0,96
800,522	-1,01
800,955	-1,05
801,387	-1,11
801,82	-1,16
802,253	-1,22
802,686	-1,3
803,118	-1,36
803,551	-1,41
803,984	-1,46
804,416	-1,49
804,849	-1,53
805,281	-1,64
805,714	-2,02
806,146	-2,46
806,579	-2,72
807,011	-2,88
807,444	-2,97
807,876	-3,05
808,308	-3,09
808,741	-3,12
809,173	-3,17
809,605	-3,19
810,037	-3,26
810,47	-3,18
810,902	-2,98
811,334	-2,83
811,766	-2,67
812,198	-2,43
812,63	-2
813,062	-1,79
813,494	-1,7
813,926	-1,61
814,358	-1,56
814,79	-1,48
815,222	-1,42
815,654	-1,37
816,086	-1,3
816,518	-1,25
816,949	-1,2
817,381	-1,15
817,813	-1,13
818,245	-1,09
818,676	-1,06
819,108	-1,02
819,54	-1,01
819,971	-0,98
820,403	-0,93
820,834	-0,92
821,266	-0,88
821,697	-0,85
822,129	-0,84
822,56	-0,81
822,991	-0,79
823,423	-0,76
823,854	-0,75
824,286	-0,73
824,717	-0,71
825,148	-0,69
825,579	-0,68
826,01	-0,67
826,442	-0,66
826,873	-0,64
827,304	-0,61
827,735	-0,6
828,166	-0,6
828,597	-0,59
829,028	-0,58
829,459	-0,59
829,89	-0,59
830,321	-0,55
830,752	-0,55
831,183	-0,54
831,613	-0,53
832,044	-0,53
832,475	-0,52
832,906	-0,54
833,336	-0,54
833,767	-0,55
834,198	-0,54
834,628	-0,52
835,059	-0,55
835,49	-0,56
835,92	-0,54
836,351	-0,53
836,781	-0,53
837,212	-0,55
837,642	-0,54
838,072	-0,53
838,503	-0,54
838,933	-0,51
839,364	-0,52
839,794	-0,5
840,224	-0,49
840,654	-0,54
841,085	-0,55
841,515	-0,53
841,945	-0,53
842,375	-0,49
842,805	-0,48
843,235	-0,46
843,665	-0,48
844,095	-0,46
844,525	-0,47
844,955	-0,47
845,385	-0,45
845,815	-0,43
846,245	-0,45
846,675	-0,45
847,105	-0,46
847,534	-0,46
847,964	-0,45
848,394	-0,43
848,824	-0,47
849,253	-0,46
849,683	-0,45
850,112	-0,46
850,542	-0,5
850,972	-0,5
851,401	-0,48
851,831	-0,46
852,26	-0,47
852,69	-0,51
853,119	-0,5
853,548	-0,5
853,978	-0,51
854,407	-0,49
854,836	-0,5
855,266	-0,49
855,695	-0,51
856,124	-0,52
856,553	-0,53
856,983	-0,55
857,412	-0,54
857,841	-0,55
858,27	-0,55
858,699	-0,56
859,128	-0,59
859,557	-0,6
859,986	-0,61
860,415	-0,59
860,844	-0,56
861,273	-0,56
861,702	-0,57
862,13	-0,54
862,559	-0,56
862,988	-0,54
863,417	-0,54
863,845	-0,53
864,274	-0,54
864,703	-0,54
865,131	-0,54
865,56	-0,55
865,989	-0,58
866,417	-0,56
866,846	-0,56
867,274	-0,56
867,703	-0,58
868,131	-0,59
868,559	-0,58
868,988	-0,6
869,416	-0,58
869,844	-0,59
870,273	-0,61
870,701	-0,59
871,129	-0,62
871,557	-0,64
871,986	-0,65
872,414	-0,65
872,842	-0,62
873,27	-0,6
873,698	-0,57
874,126	-0,62
874,554	-0,6
874,982	-0,6
875,41	-0,63
875,838	-0,57
876,266	-0,55
876,694	-0,55
877,122	-0,54
877,549	-0,6
877,977	-0,57
878,405	-0,59
878,833	-0,55
879,26	-0,54
879,688	-0,54
880,116	-0,51
880,543	-0,5
880,971	-0,49
881,399	-0,52
881,826	-0,53
882,254	-0,52
882,681	-0,55
883,109	-0,52
883,536	-0,54
883,963	-0,56
884,391	-0,55
884,818	-0,54
885,245	-0,59
885,673	-0,61
886,1	-0,57
886,527	-0,56
886,954	-0,53
887,381	-0,54
887,809	-0,55
888,236	-0,55
888,663	-0,56
889,09	-0,59
889,517	-0,61
889,944	-0,61
890,371	-0,59
890,798	-0,6
891,225	-0,61
891,652	-0,64
892,078	-0,61
892,505	-0,64
892,932	-0,6
893,359	-0,61
893,786	-0,6
894,212	-0,57
894,639	-0,59
895,066	-0,61
895,492	-0,56
895,919	-0,56
896,346	-0,56
896,772	-0,56
897,199	-0,53
897,625	-0,56
898,052	-0,52
898,478	-0,51
898,904	-0,52
899,331	-0,52
899,757	-0,53
900,183	-0,55
900,61	-0,54
901,036	-0,54
901,462	-0,54
901,888	-0,54
902,315	-0,52
902,741	-0,57
903,167	-0,55
903,593	-0,58
904,019	-0,56
904,445	-0,53
904,871	-0,57
905,297	-0,58
905,723	-0,57
906,149	-0,56
906,575	-0,57
907,001	-0,57
907,427	-0,55
907,852	-0,55
908,278	-0,56
908,704	-0,53
909,13	-0,52
909,555	-0,5
909,981	-0,5
910,407	-0,5
910,832	-0,5
911,258	-0,49
911,684	-0,49
912,109	-0,5
912,535	-0,52
912,96	-0,48
913,386	-0,52
913,811	-0,52
914,236	-0,54
914,662	-0,51
915,087	-0,55
915,512	-0,55
915,938	-0,57
916,363	-0,56
916,788	-0,58
917,213	-0,55
917,639	-0,6
918,064	-0,58
918,489	-0,57
918,914	-0,58
919,339	-0,59
919,764	-0,56
920,189	-0,56
920,614	-0,58
921,039	-0,59
921,464	-0,54
921,889	-0,57
922,314	-0,57
922,738	-0,6
923,163	-0,62
923,588	-0,61
924,013	-0,61
924,437	-0,61
924,862	-0,63
925,287	-0,59
925,711	-0,6
926,136	-0,61
926,561	-0,6
926,985	-0,59
927,41	-0,56
927,834	-0,54
928,259	-0,51
928,683	-0,49
929,108	-0,46
929,532	-0,46
929,956	-0,46
930,381	-0,45
930,805	-0,45
931,229	-0,44
931,653	-0,43
932,078	-0,42
932,502	-0,43
932,926	-0,45
933,35	-0,44
933,774	-0,44
934,198	-0,42
934,622	-0,41
935,046	-0,42
935,47	-0,42
935,894	-0,42
936,318	-0,42
936,742	-0,42
937,166	-0,43
937,59	-0,42
938,014	-0,44
938,437	-0,44
938,861	-0,46
939,285	-0,48
939,709	-0,47
940,132	-0,47
940,556	-0,48
940,98	-0,48
941,403	-0,46
941,827	-0,46
942,25	-0,48
942,674	-0,47
943,097	-0,47
943,521	-0,46
943,944	-0,48
944,368	-0,47
944,791	-0,45
945,214	-0,48
945,638	-0,49
946,061	-0,52
946,484	-0,52
946,907	-0,51
947,331	-0,51
947,754	-0,55
948,177	-0,52
948,6	-0,51
949,023	-0,51
949,446	-0,51
949,869	-0,48
950,292	-0,48
950,715	-0,45
951,138	-0,43
951,561	-0,41
951,984	-0,41
952,407	-0,39
952,83	-0,38
953,252	-0,34
953,675	-0,34
954,098	-0,35
954,521	-0,34
954,943	-0,34
955,366	-0,35
955,789	-0,33
956,211	-0,35
956,634	-0,36
957,056	-0,34
957,479	-0,35
957,902	-0,37
958,324	-0,37
958,746	-0,35
959,169	-0,36
959,591	-0,37
960,014	-0,38
960,436	-0,38
960,858	-0,37
961,281	-0,37
961,703	-0,37
962,125	-0,37
962,547	-0,36
962,969	-0,37
963,391	-0,38
963,814	-0,4
964,236	-0,38
964,658	-0,35
965,08	-0,36
965,502	-0,34
965,924	-0,32
966,346	-0,32
966,768	-0,31
967,189	-0,32
967,611	-0,32
968,033	-0,3
968,455	-0,28
968,877	-0,3
969,298	-0,31
969,72	-0,32
970,142	-0,31
970,563	-0,31
970,985	-0,3
971,407	-0,3
971,828	-0,28
972,25	-0,27
972,671	-0,25
973,093	-0,25
973,514	-0,23
973,936	-0,21
974,357	-0,2
974,778	-0,2
975,2	-0,19
975,621	-0,18
976,042	-0,17
976,464	-0,16
976,885	-0,15
977,306	-0,14
977,727	-0,14
978,148	-0,13
978,57	-0,12
978,991	-0,1
979,412	-0,09
979,833	-0,08
980,254	-0,07
980,675	-0,08
981,096	-0,07
981,517	-0,05
981,937	-0,05
982,358	-0,03
982,779	-0,02
983,2	-0,02
983,621	-0,02
984,042	-0,01
984,462	0
984,883	0,02
985,304	0,03
985,724	0,04
986,145	0,05
986,565	0,07
986,986	0,07
987,407	0,09
987,827	0,1
988,248	0,12
988,668	0,12
989,088	0,13
989,509	0,14
989,929	0,16
990,35	0,17
990,77	0,18
991,19	0,19
991,61	0,2
992,031	0,21
992,451	0,22
992,871	0,23
993,291	0,24
993,711	0,25
994,131	0,26
994,551	0,26
994,971	0,27
995,391	0,27
995,811	0,28
996,231	0,28
996,651	0,29
997,071	0,3
997,491	0,3
997,911	0,31
998,331	0,32
998,75	0,32
999,17	0,33
999,59	0,33
1000,009	0,34
1000,429	0,34
1000,849	0,35
1001,268	0,35
1001,688	0,35
1002,107	0,36
1002,527	0,36
1002,946	0,36
1003,366	0,36
1003,785	0,37
1004,205	0,37
1004,624	0,37
1005,044	0,37
1005,463	0,37
1005,882	0,37
1006,301	0,38
1006,721	0,38
1007,14	0,38
1007,559	0,38
1007,978	0,38
1008,397	0,38
1008,816	0,38
1009,235	0,38
1009,655	0,38
1010,074	0,38
1010,492	0,38
1010,911	0,38
1011,33	0,38
1011,749	0,38
1012,168	0,38
1012,587	0,38
1013,006	0,37
1013,425	0,37
1013,843	0,37
1014,262	0,37
1014,681	0,37
1015,099	0,37
1015,518	0,37
1015,937	0,37
1016,355	0,37
1016,774	0,37
1017,192	0,37
1017,611	0,37
1018,029	0,37
1018,448	0,37
1018,866	0,37
1019,285	0,37
1019,703	0,37
1020,121	0,37
1020,54	0,37
1020,958	0,37
1021,376	0,37
1021,794	0,37
1022,213	0,37
1022,631	0,37
1023,049	0,37
1023,467	0,36
1023,885	0,36
1024,303	0,36
1024,721	0,36
1025,139	0,36
1025,557	0,36
1025,975	0,36
1026,393	0,36
1026,811	0,36
1027,229	0,36
1027,647	0,36
1028,065	0,36
1028,482	0,36
1028,9	0,36
1029,318	0,36
1029,735	0,36
1030,153	0,36
1030,571	0,36
1030,988	0,36
1031,406	0,36
1031,823	0,36
1032,241	0,36
1032,659	0,36
1033,076	0,36
1033,493	0,36
1033,911	0,36
1034,328	0,36
1034,746	0,36
1035,163	0,36
1035,58	0,36
1035,997	0,36
1036,415	0,36
1036,832	0,36
1037,249	0,36
1037,666	0,36
1038,083	0,36
1038,501	0,36
1038,918	0,36
1039,335	0,36
1039,752	0,36
1040,169	0,36
1040,586	0,36
1041,003	0,36
1041,419	0,36
1041,836	0,36
1042,253	0,36
1042,67	0,36
1043,087	0,36
1043,504	0,36
1043,92	0,36
1044,337	0,36
1044,754	0,35
1045,17	0,35
1045,587	0,35
1046,004	0,35
1046,42	0,35
1046,837	0,35
1047,253	0,35
1047,67	0,35
1048,086	0,36
1048,503	0,36
1048,919	0,36
1049,335	0,36
1049,752	0,36
1050,168	0,36
1050,584	0,36
1051,001	0,36
1051,417	0,36
1051,833	0,36
1052,249	0,36
1052,665	0,36
1053,081	0,36
1053,497	0,36
1053,914	0,36
1054,33	0,36
1054,746	0,36
1055,162	0,37
1055,578	0,37
1055,993	0,37
1056,409	0,37
1056,825	0,37
1057,241	0,37
1057,657	0,37
1058,073	0,37
1058,488	0,37
1058,904	0,37
1059,32	0,37
1059,736	0,37
1060,151	0,37
1060,567	0,36
1060,982	0,36
1061,398	0,36
1061,813	0,36
1062,229	0,36
1062,644	0,36
1063,06	0,36
1063,475	0,36
1063,891	0,36
1064,306	0,36
1064,721	0,36
1065,137	0,36
1065,552	0,36
1065,967	0,36
1066,382	0,36
1066,798	0,36
1067,213	0,36
1067,628	0,36
1068,043	0,36
1068,458	0,36
1068,873	0,36
1069,288	0,36
1069,703	0,36
1070,118	0,36
1070,533	0,36
1070,948	0,36
1071,363	0,36
1071,778	0,36
1072,193	0,36
1072,607	0,36
1073,022	0,36
1073,437	0,36
1073,852	0,36
1074,266	0,36
1074,681	0,36
1075,096	0,36
1075,51	0,36
1075,925	0,36
1076,339	0,36
1076,754	0,36
1077,168	0,36
1077,583	0,36
1077,997	0,36
1078,412	0,36
1078,826	0,36
1079,24	0,36
1079,655	0,36
1080,069	0,36
1080,483	0,36
1080,897	0,36
1081,312	0,36
1081,726	0,36
1082,14	0,36
1082,554	0,35
1082,968	0,35
1083,382	0,35
1083,796	0,35
1084,21	0,35
1084,624	0,35
1085,038	0,35
1085,452	0,35
1085,866	0,35
1086,28	0,34
1086,694	0,34
1087,108	0,34
1087,521	0,34
1087,935	0,34
1088,349	0,34
1088,763	0,34
1089,176	0,33
1089,59	0,33
1090,004	0,33
1090,417	0,32
1090,831	0,32
1091,244	0,32
1091,658	0,32
1092,071	0,31
1092,485	0,31
1092,898	0,31
1093,312	0,31
1093,725	0,31
1094,138	0,3
1094,552	0,3
1094,965	0,3
1095,378	0,3
1095,791	0,3
1096,205	0,3
1096,618	0,29
1097,031	0,29
1097,444	0,29
1097,857	0,28
1098,27	0,28
1098,683	0,28
1099,096	0,27
1099,509	0,27
1099,922	0,27
1100,335	0,26
1100,748	0,26
1101,161	0,25
1101,574	0,25
1101,986	0,25
1102,399	0,25
1102,812	0,24
1103,225	0,24
1103,637	0,24
1104,05	0,24
1104,463	0,24
1104,875	0,23
1105,288	0,23
1105,7	0,22
1106,113	0,22
1106,525	0,22
1106,938	0,22
1107,35	0,21
1107,763	0,21
1108,175	0,2
1108,588	0,2
1109	0,2
1109,412	0,2
1109,824	0,2
1110,237	0,21
1110,649	0,21
1111,061	0,2
