Data from 18C-808nm-8A-cont_Absorbance__209__01638.txt Node

Date: Mon Jul 17 17:25:18 CEST 2023
User: Laser008
Spectrometer: MAYP115816
Trigger mode: 0
Integration Time (sec): 2,500000E-1
Scans to average: 10
Electric dark correction enabled: true
Nonlinearity correction enabled: true
Boxcar width: 5
XAxis mode: Wavelengths
Number of Pixels in Spectrum: 2068
>>>>>Begin Spectral Data<<<<<
198,914	-0,69
199,384	-0,47
199,855	-0,34
200,325	-0,24
200,796	-0,21
201,266	-0,17
201,737	-0,15
202,207	-0,14
202,677	-0,14
203,147	-0,13
203,618	-0,1
204,088	-0,09
204,558	-0,07
205,028	-0,07
205,498	-0,08
205,968	-0,08
206,439	-0,09
206,909	-0,09
207,379	-0,09
207,849	-0,09
208,319	-0,09
208,789	-0,09
209,258	-0,08
209,728	-0,1
210,198	-0,1
210,668	-0,1
211,138	-0,1
211,608	-0,11
212,077	-0,11
212,547	-0,12
213,017	-0,12
213,486	-0,13
213,956	-0,13
214,426	-0,15
214,895	-0,14
215,365	-0,15
215,834	-0,15
216,304	-0,16
216,773	-0,16
217,243	-0,17
217,712	-0,18
218,181	-0,18
218,651	-0,18
219,12	-0,19
219,589	-0,18
220,058	-0,17
220,528	-0,19
220,997	-0,19
221,466	-0,2
221,935	-0,2
222,404	-0,2
222,873	-0,18
223,342	-0,19
223,812	-0,18
224,281	-0,18
224,749	-0,18
225,218	-0,2
225,687	-0,19
226,156	-0,18
226,625	-0,16
227,094	-0,16
227,563	-0,16
228,031	-0,18
228,5	-0,17
228,969	-0,18
229,438	-0,16
229,906	-0,15
230,375	-0,14
230,844	-0,13
231,312	-0,14
231,781	-0,15
232,249	-0,13
232,718	-0,13
233,186	-0,12
233,655	-0,12
234,123	-0,12
234,591	-0,13
235,06	-0,13
235,528	-0,13
235,996	-0,13
236,465	-0,13
236,933	-0,12
237,401	-0,13
237,869	-0,12
238,337	-0,11
238,805	-0,11
239,274	-0,1
239,742	-0,1
240,21	-0,11
240,678	-0,1
241,146	-0,1
241,614	-0,1
242,081	-0,1
242,549	-0,09
243,017	-0,1
243,485	-0,1
243,953	-0,1
244,421	-0,1
244,888	-0,1
245,356	-0,09
245,824	-0,09
246,291	-0,09
246,759	-0,09
247,227	-0,1
247,694	-0,09
248,162	-0,08
248,629	-0,07
249,097	-0,08
249,564	-0,09
250,032	-0,09
250,499	-0,09
250,967	-0,1
251,434	-0,11
251,901	-0,11
252,369	-0,1
252,836	-0,12
253,303	-0,13
253,77	-0,14
254,237	-0,14
254,705	-0,14
255,172	-0,14
255,639	-0,14
256,106	-0,15
256,573	-0,15
257,04	-0,15
257,507	-0,16
257,974	-0,16
258,441	-0,14
258,908	-0,14
259,375	-0,15
259,841	-0,15
260,308	-0,16
260,775	-0,16
261,242	-0,14
261,709	-0,16
262,175	-0,16
262,642	-0,16
263,109	-0,16
263,575	-0,18
264,042	-0,17
264,508	-0,16
264,975	-0,18
265,441	-0,18
265,908	-0,18
266,374	-0,18
266,841	-0,18
267,307	-0,18
267,773	-0,16
268,24	-0,16
268,706	-0,17
269,172	-0,18
269,639	-0,2
270,105	-0,18
270,571	-0,18
271,037	-0,19
271,503	-0,19
271,969	-0,18
272,435	-0,18
272,902	-0,21
273,368	-0,22
273,834	-0,21
274,3	-0,21
274,765	-0,21
275,231	-0,21
275,697	-0,19
276,163	-0,19
276,629	-0,19
277,095	-0,19
277,56	-0,19
278,026	-0,19
278,492	-0,17
278,958	-0,17
279,423	-0,17
279,889	-0,17
280,354	-0,17
280,82	-0,17
281,286	-0,2
281,751	-0,2
282,217	-0,19
282,682	-0,19
283,147	-0,19
283,613	-0,2
284,078	-0,2
284,544	-0,22
285,009	-0,23
285,474	-0,23
285,939	-0,25
286,405	-0,23
286,87	-0,23
287,335	-0,23
287,8	-0,21
288,265	-0,2
288,73	-0,21
289,195	-0,23
289,66	-0,22
290,125	-0,2
290,59	-0,2
291,055	-0,19
291,52	-0,19
291,985	-0,19
292,45	-0,21
292,915	-0,21
293,38	-0,22
293,844	-0,21
294,309	-0,19
294,774	-0,18
295,239	-0,2
295,703	-0,2
296,168	-0,19
296,632	-0,19
297,097	-0,17
297,562	-0,16
298,026	-0,16
298,491	-0,16
298,955	-0,15
299,419	-0,15
299,884	-0,15
300,348	-0,13
300,813	-0,12
301,277	-0,13
301,741	-0,13
302,205	-0,14
302,67	-0,14
303,134	-0,14
303,598	-0,13
304,062	-0,12
304,526	-0,12
304,99	-0,13
305,454	-0,14
305,919	-0,14
306,383	-0,13
306,847	-0,12
307,31	-0,13
307,774	-0,13
308,238	-0,12
308,702	-0,12
309,166	-0,14
309,63	-0,13
310,094	-0,11
310,557	-0,11
311,021	-0,11
311,485	-0,11
311,948	-0,11
312,412	-0,11
312,876	-0,11
313,339	-0,11
313,803	-0,13
314,266	-0,11
314,73	-0,12
315,193	-0,12
315,657	-0,11
316,12	-0,11
316,584	-0,1
317,047	-0,1
317,51	-0,08
317,973	-0,08
318,437	-0,07
318,9	-0,05
319,363	-0,04
319,826	-0,04
320,29	-0,04
320,753	-0,05
321,216	-0,05
321,679	-0,05
322,142	-0,05
322,605	-0,06
323,068	-0,06
323,531	-0,07
323,994	-0,06
324,457	-0,06
324,92	-0,05
325,382	-0,04
325,845	-0,04
326,308	-0,02
326,771	-0,02
327,233	-0,02
327,696	-0,01
328,159	0
328,622	0,01
329,084	0,01
329,547	0,02
330,009	0,02
330,472	0,03
330,934	0,03
331,397	0,03
331,859	0,04
332,322	0,04
332,784	0,04
333,246	0,04
333,709	0,05
334,171	0,06
334,633	0,06
335,096	0,05
335,558	0,05
336,02	0,05
336,482	0,06
336,944	0,07
337,406	0,08
337,868	0,09
338,331	0,09
338,793	0,1
339,255	0,1
339,717	0,12
340,178	0,13
340,64	0,14
341,102	0,15
341,564	0,16
342,026	0,17
342,488	0,18
342,949	0,19
343,411	0,22
343,873	0,25
344,335	0,27
344,796	0,3
345,258	0,35
345,719	0,38
346,181	0,42
346,643	0,45
347,104	0,48
347,566	0,51
348,027	0,53
348,488	0,55
348,95	0,56
349,411	0,58
349,873	0,6
350,334	0,62
350,795	0,64
351,256	0,64
351,718	0,65
352,179	0,65
352,64	0,66
353,101	0,66
353,562	0,66
354,023	0,67
354,484	0,67
354,945	0,67
355,406	0,67
355,867	0,67
356,328	0,68
356,789	0,68
357,25	0,68
357,711	0,68
358,172	0,68
358,633	0,68
359,093	0,69
359,554	0,69
360,015	0,69
360,476	0,69
360,936	0,69
361,397	0,69
361,858	0,69
362,318	0,69
362,779	0,69
363,239	0,69
363,7	0,69
364,16	0,69
364,621	0,69
365,081	0,69
365,541	0,69
366,002	0,69
366,462	0,69
366,922	0,69
367,383	0,69
367,843	0,69
368,303	0,69
368,763	0,69
369,223	0,69
369,684	0,69
370,144	0,69
370,604	0,69
371,064	0,69
371,524	0,69
371,984	0,69
372,444	0,69
372,904	0,69
373,363	0,69
373,823	0,69
374,283	0,69
374,743	0,69
375,203	0,69
375,663	0,69
376,122	0,69
376,582	0,69
377,042	0,69
377,501	0,69
377,961	0,69
378,42	0,69
378,88	0,69
379,34	0,69
379,799	0,69
380,259	0,69
380,718	0,69
381,177	0,69
381,637	0,69
382,096	0,69
382,555	0,69
383,015	0,69
383,474	0,69
383,933	0,68
384,393	0,68
384,852	0,68
385,311	0,68
385,77	0,68
386,229	0,68
386,688	0,68
387,147	0,68
387,606	0,68
388,065	0,68
388,524	0,68
388,983	0,68
389,442	0,68
389,901	0,68
390,36	0,68
390,819	0,68
391,277	0,68
391,736	0,68
392,195	0,68
392,654	0,68
393,112	0,68
393,571	0,68
394,03	0,68
394,488	0,68
394,947	0,68
395,405	0,68
395,864	0,68
396,322	0,68
396,781	0,68
397,239	0,68
397,698	0,68
398,156	0,68
398,614	0,68
399,073	0,68
399,531	0,67
399,989	0,67
400,447	0,67
400,905	0,67
401,364	0,67
401,822	0,67
402,28	0,67
402,738	0,67
403,196	0,67
403,654	0,67
404,112	0,67
404,57	0,67
405,028	0,67
405,486	0,67
405,944	0,67
406,402	0,67
406,859	0,67
407,317	0,67
407,775	0,67
408,233	0,67
408,691	0,67
409,148	0,67
409,606	0,67
410,064	0,67
410,521	0,67
410,979	0,67
411,436	0,67
411,894	0,67
412,351	0,67
412,809	0,67
413,266	0,67
413,724	0,67
414,181	0,67
414,638	0,67
415,096	0,67
415,553	0,67
416,01	0,67
416,467	0,67
416,925	0,67
417,382	0,67
417,839	0,67
418,296	0,67
418,753	0,67
419,21	0,66
419,667	0,66
420,124	0,66
420,581	0,66
421,038	0,66
421,495	0,66
421,952	0,66
422,409	0,66
422,866	0,66
423,322	0,66
423,779	0,66
424,236	0,66
424,693	0,66
425,149	0,66
425,606	0,67
426,063	0,67
426,519	0,66
426,976	0,66
427,433	0,66
427,889	0,66
428,346	0,66
428,802	0,66
429,258	0,66
429,715	0,66
430,171	0,66
430,628	0,66
431,084	0,66
431,54	0,66
431,997	0,66
432,453	0,66
432,909	0,66
433,365	0,66
433,821	0,66
434,277	0,66
434,734	0,66
435,19	0,66
435,646	0,66
436,102	0,66
436,558	0,66
437,014	0,66
437,47	0,66
437,925	0,66
438,381	0,66
438,837	0,66
439,293	0,66
439,749	0,66
440,205	0,66
440,66	0,66
441,116	0,66
441,572	0,66
442,027	0,66
442,483	0,66
442,939	0,66
443,394	0,66
443,85	0,66
444,305	0,66
444,761	0,66
445,216	0,66
445,672	0,66
446,127	0,66
446,582	0,66
447,038	0,66
447,493	0,66
447,948	0,66
448,403	0,66
448,859	0,66
449,314	0,67
449,769	0,67
450,224	0,67
450,679	0,67
451,134	0,67
451,589	0,67
452,044	0,67
452,499	0,67
452,954	0,67
453,409	0,67
453,864	0,67
454,319	0,67
454,774	0,67
455,229	0,67
455,684	0,67
456,138	0,67
456,593	0,67
457,048	0,67
457,503	0,67
457,957	0,67
458,412	0,67
458,866	0,67
459,321	0,67
459,776	0,67
460,23	0,67
460,685	0,67
461,139	0,67
461,593	0,67
462,048	0,67
462,502	0,67
462,957	0,67
463,411	0,68
463,865	0,68
464,319	0,68
464,774	0,68
465,228	0,68
465,682	0,68
466,136	0,68
466,59	0,68
467,044	0,68
467,499	0,68
467,953	0,68
468,407	0,68
468,861	0,68
469,315	0,68
469,768	0,68
470,222	0,69
470,676	0,69
471,13	0,69
471,584	0,69
472,038	0,69
472,491	0,69
472,945	0,69
473,399	0,69
473,852	0,69
474,306	0,69
474,76	0,69
475,213	0,69
475,667	0,7
476,12	0,7
476,574	0,7
477,027	0,7
477,481	0,7
477,934	0,7
478,388	0,7
478,841	0,7
479,294	0,71
479,748	0,71
480,201	0,71
480,654	0,71
481,107	0,71
481,561	0,71
482,014	0,72
482,467	0,72
482,92	0,72
483,373	0,72
483,826	0,72
484,279	0,72
484,732	0,72
485,185	0,73
485,638	0,73
486,091	0,73
486,544	0,73
486,997	0,73
487,449	0,74
487,902	0,74
488,355	0,74
488,808	0,74
489,26	0,74
489,713	0,75
490,166	0,75
490,618	0,75
491,071	0,75
491,523	0,76
491,976	0,76
492,429	0,76
492,881	0,76
493,333	0,77
493,786	0,77
494,238	0,77
494,691	0,77
495,143	0,78
495,595	0,78
496,048	0,78
496,5	0,79
496,952	0,79
497,404	0,79
497,856	0,8
498,309	0,8
498,761	0,8
499,213	0,81
499,665	0,81
500,117	0,81
500,569	0,82
501,021	0,82
501,473	0,82
501,925	0,83
502,377	0,83
502,828	0,83
503,28	0,84
503,732	0,84
504,184	0,84
504,636	0,85
505,087	0,85
505,539	0,86
505,991	0,86
506,442	0,86
506,894	0,87
507,345	0,87
507,797	0,87
508,249	0,87
508,7	0,88
509,151	0,88
509,603	0,89
510,054	0,89
510,506	0,89
510,957	0,9
511,408	0,9
511,86	0,9
512,311	0,9
512,762	0,91
513,213	0,91
513,665	0,91
514,116	0,92
514,567	0,92
515,018	0,92
515,469	0,93
515,92	0,93
516,371	0,93
516,822	0,93
517,273	0,94
517,724	0,94
518,175	0,94
518,626	0,95
519,076	0,95
519,527	0,95
519,978	0,95
520,429	0,95
520,88	0,95
521,33	0,96
521,781	0,96
522,232	0,96
522,682	0,96
523,133	0,96
523,583	0,96
524,034	0,97
524,484	0,97
524,935	0,97
525,385	0,97
525,836	0,97
526,286	0,97
526,736	0,97
527,187	0,97
527,637	0,97
528,087	0,97
528,538	0,97
528,988	0,97
529,438	0,97
529,888	0,97
530,338	0,96
530,788	0,96
531,238	0,96
531,688	0,96
532,139	0,96
532,589	0,96
533,038	0,96
533,488	0,95
533,938	0,95
534,388	0,95
534,838	0,95
535,288	0,95
535,738	0,94
536,187	0,94
536,637	0,94
537,087	0,94
537,537	0,93
537,986	0,93
538,436	0,93
538,885	0,92
539,335	0,92
539,785	0,91
540,234	0,91
540,684	0,9
541,133	0,9
541,582	0,9
542,032	0,89
542,481	0,89
542,931	0,88
543,38	0,88
543,829	0,87
544,278	0,87
544,728	0,87
545,177	0,86
545,626	0,86
546,075	0,86
546,524	0,85
546,973	0,85
547,422	0,85
547,871	0,84
548,32	0,84
548,769	0,84
549,218	0,84
549,667	0,83
550,116	0,83
550,565	0,83
551,014	0,82
551,463	0,82
551,911	0,81
552,36	0,81
552,809	0,81
553,258	0,8
553,706	0,8
554,155	0,8
554,603	0,79
555,052	0,79
555,501	0,79
555,949	0,78
556,398	0,78
556,846	0,77
557,294	0,77
557,743	0,77
558,191	0,76
558,64	0,76
559,088	0,75
559,536	0,75
559,985	0,74
560,433	0,74
560,881	0,74
561,329	0,73
561,777	0,73
562,225	0,73
562,674	0,72
563,122	0,72
563,57	0,72
564,018	0,71
564,466	0,71
564,914	0,71
565,362	0,7
565,809	0,7
566,257	0,69
566,705	0,69
567,153	0,69
567,601	0,69
568,048	0,68
568,496	0,68
568,944	0,68
569,392	0,67
569,839	0,67
570,287	0,67
570,734	0,66
571,182	0,66
571,63	0,66
572,077	0,65
572,525	0,65
572,972	0,65
573,419	0,65
573,867	0,64
574,314	0,64
574,761	0,64
575,209	0,63
575,656	0,63
576,103	0,63
576,551	0,62
576,998	0,62
577,445	0,62
577,892	0,62
578,339	0,61
578,786	0,61
579,233	0,61
579,68	0,61
580,127	0,6
580,574	0,6
581,021	0,6
581,468	0,6
581,915	0,59
582,362	0,59
582,809	0,59
583,255	0,59
583,702	0,59
584,149	0,59
584,596	0,58
585,042	0,58
585,489	0,58
585,936	0,58
586,382	0,58
586,829	0,57
587,275	0,57
587,722	0,57
588,168	0,57
588,615	0,57
589,061	0,56
589,508	0,56
589,954	0,56
590,4	0,56
590,847	0,56
591,293	0,56
591,739	0,55
592,185	0,55
592,632	0,55
593,078	0,55
593,524	0,55
593,97	0,55
594,416	0,55
594,862	0,55
595,308	0,55
595,754	0,55
596,2	0,54
596,646	0,54
597,092	0,54
597,538	0,54
597,984	0,54
598,43	0,54
598,876	0,54
599,321	0,54
599,767	0,53
600,213	0,53
600,659	0,53
601,104	0,53
601,55	0,53
601,995	0,53
602,441	0,53
602,887	0,52
603,332	0,52
603,778	0,52
604,223	0,52
604,668	0,52
605,114	0,52
605,559	0,52
606,005	0,52
606,45	0,52
606,895	0,52
607,341	0,52
607,786	0,51
608,231	0,51
608,676	0,51
609,121	0,5
609,566	0,5
610,012	0,49
610,457	0,49
610,902	0,49
611,347	0,49
611,792	0,48
612,237	0,48
612,682	0,48
613,127	0,48
613,571	0,48
614,016	0,48
614,461	0,49
614,906	0,49
615,351	0,49
615,795	0,49
616,24	0,49
616,685	0,49
617,129	0,49
617,574	0,49
618,019	0,49
618,463	0,49
618,908	0,49
619,352	0,49
619,797	0,49
620,241	0,49
620,686	0,49
621,13	0,49
621,574	0,49
622,019	0,48
622,463	0,48
622,907	0,48
623,352	0,48
623,796	0,48
624,24	0,48
624,684	0,48
625,128	0,48
625,572	0,48
626,016	0,48
626,461	0,48
626,905	0,48
627,349	0,48
627,793	0,48
628,236	0,48
628,68	0,48
629,124	0,48
629,568	0,48
630,012	0,48
630,456	0,48
630,9	0,48
631,343	0,48
631,787	0,48
632,231	0,48
632,674	0,48
633,118	0,48
633,562	0,48
634,005	0,48
634,449	0,48
634,892	0,48
635,336	0,48
635,779	0,47
636,223	0,47
636,666	0,47
637,109	0,47
637,553	0,47
637,996	0,47
638,439	0,47
638,883	0,47
639,326	0,47
639,769	0,47
640,212	0,47
640,655	0,47
641,099	0,47
641,542	0,47
641,985	0,47
642,428	0,47
642,871	0,46
643,314	0,46
643,757	0,46
644,2	0,46
644,643	0,46
645,085	0,46
645,528	0,46
645,971	0,46
646,414	0,46
646,857	0,46
647,299	0,46
647,742	0,46
648,185	0,46
648,627	0,46
649,07	0,46
649,513	0,46
649,955	0,46
650,398	0,46
650,84	0,46
651,283	0,46
651,725	0,46
652,168	0,46
652,61	0,46
653,052	0,46
653,495	0,46
653,937	0,38
654,379	0,32
654,821	0,32
655,264	0,33
655,706	0,33
656,148	0,33
656,59	0,33
657,032	0,33
657,474	0,33
657,916	0,32
658,358	0,32
658,8	0,38
659,242	0,46
659,684	0,46
660,126	0,46
660,568	0,46
661,01	0,46
661,452	0,46
661,894	0,46
662,335	0,45
662,777	0,45
663,219	0,45
663,661	0,45
664,102	0,45
664,544	0,45
664,985	0,45
665,427	0,45
665,869	0,45
666,31	0,45
666,752	0,45
667,193	0,45
667,634	0,45
668,076	0,45
668,517	0,45
668,959	0,45
669,4	0,45
669,841	0,45
670,282	0,45
670,724	0,45
671,165	0,45
671,606	0,45
672,047	0,45
672,488	0,45
672,929	0,45
673,37	0,45
673,811	0,45
674,252	0,45
674,693	0,45
675,134	0,45
675,575	0,44
676,016	0,44
676,457	0,44
676,898	0,44
677,339	0,44
677,78	0,44
678,22	0,44
678,661	0,44
679,102	0,44
679,542	0,44
679,983	0,44
680,424	0,44
680,864	0,44
681,305	0,44
681,745	0,44
682,186	0,44
682,626	0,44
683,067	0,44
683,507	0,44
683,948	0,44
684,388	0,44
684,828	0,44
685,269	0,44
685,709	0,44
686,149	0,44
686,589	0,44
687,029	0,44
687,47	0,44
687,91	0,44
688,35	0,44
688,79	0,44
689,23	0,44
689,67	0,44
690,11	0,44
690,55	0,44
690,99	0,44
691,43	0,43
691,87	0,43
692,31	0,43
692,749	0,43
693,189	0,43
693,629	0,43
694,069	0,43
694,508	0,43
694,948	0,43
695,388	0,43
695,827	0,43
696,267	0,43
696,706	0,43
697,146	0,43
697,586	0,43
698,025	0,43
698,464	0,43
698,904	0,43
699,343	0,43
699,783	0,43
700,222	0,43
700,661	0,43
701,101	0,44
701,54	0,44
701,979	0,44
702,418	0,44
702,857	0,44
703,297	0,44
703,736	0,44
704,175	0,44
704,614	0,44
705,053	0,44
705,492	0,43
705,931	0,43
706,37	0,43
706,809	0,43
707,248	0,43
707,687	0,43
708,125	0,43
708,564	0,43
709,003	0,43
709,442	0,43
709,88	0,43
710,319	0,43
710,758	0,43
711,196	0,42
711,635	0,42
712,074	0,42
712,512	0,42
712,951	0,42
713,389	0,42
713,828	0,42
714,266	0,42
714,705	0,42
715,143	0,42
715,581	0,42
716,02	0,42
716,458	0,42
716,896	0,42
717,334	0,42
717,773	0,42
718,211	0,42
718,649	0,42
719,087	0,42
719,525	0,42
719,963	0,42
720,401	0,42
720,839	0,42
721,277	0,42
721,715	0,42
722,153	0,42
722,591	0,42
723,029	0,42
723,467	0,42
723,905	0,42
724,342	0,42
724,78	0,42
725,218	0,42
725,656	0,42
726,093	0,42
726,531	0,42
726,969	0,42
727,406	0,42
727,844	0,42
728,281	0,42
728,719	0,42
729,156	0,42
729,594	0,42
730,031	0,42
730,469	0,42
730,906	0,42
731,343	0,42
731,781	0,42
732,218	0,42
732,655	0,42
733,092	0,41
733,53	0,41
733,967	0,41
734,404	0,41
734,841	0,41
735,278	0,41
735,715	0,41
736,152	0,41
736,589	0,41
737,026	0,41
737,463	0,41
737,9	0,41
738,337	0,41
738,774	0,4
739,211	0,4
739,647	0,4
740,084	0,4
740,521	0,41
740,958	0,41
741,394	0,41
741,831	0,41
742,268	0,4
742,704	0,4
743,141	0,4
743,577	0,4
744,014	0,4
744,45	0,4
744,887	0,4
745,323	0,4
745,76	0,4
746,196	0,4
746,632	0,4
747,069	0,4
747,505	0,4
747,941	0,4
748,378	0,4
748,814	0,4
749,25	0,4
749,686	0,4
750,122	0,4
750,558	0,4
750,994	0,4
751,43	0,4
751,866	0,41
752,302	0,41
752,738	0,41
753,174	0,41
753,61	0,41
754,046	0,41
754,482	0,41
754,918	0,41
755,354	0,41
755,789	0,41
756,225	0,4
756,661	0,4
757,096	0,4
757,532	0,4
757,968	0,4
758,403	0,4
758,839	0,39
759,274	0,39
759,71	0,39
760,145	0,38
760,581	0,38
761,016	0,37
761,452	0,37
761,887	0,37
762,322	0,36
762,758	0,36
763,193	0,35
763,628	0,35
764,063	0,34
764,499	0,33
764,934	0,33
765,369	0,32
765,804	0,31
766,239	0,31
766,674	0,3
767,109	0,29
767,544	0,28
767,979	0,28
768,414	0,27
768,849	0,26
769,284	0,25
769,719	0,24
770,154	0,23
770,588	0,22
771,023	0,21
771,458	0,2
771,893	0,19
772,327	0,18
772,762	0,17
773,197	0,16
773,631	0,15
774,066	0,15
774,5	0,14
774,935	0,13
775,369	0,12
775,804	0,11
776,238	0,11
776,673	0,1
777,107	0,09
777,541	0,08
777,976	0,07
778,41	0,06
778,844	0,05
779,279	0,05
779,713	0,04
780,147	0,02
780,581	0,01
781,015	0
781,449	-0,01
781,883	-0,01
782,317	-0,02
782,751	-0,04
783,185	-0,04
783,619	-0,05
784,053	-0,06
784,487	-0,07
784,921	-0,07
785,355	-0,07
785,789	-0,08
786,223	-0,09
786,656	-0,11
787,09	-0,12
787,524	-0,12
787,957	-0,13
788,391	-0,16
788,825	-0,17
789,258	-0,18
789,692	-0,2
790,125	-0,22
790,559	-0,24
790,992	-0,26
791,426	-0,28
791,859	-0,29
792,293	-0,33
792,726	-0,34
793,159	-0,36
793,593	-0,38
794,026	-0,4
794,459	-0,43
794,892	-0,46
795,326	-0,49
795,759	-0,52
796,192	-0,57
796,625	-0,61
797,058	-0,64
797,491	-0,68
797,924	-0,72
798,357	-0,77
798,79	-0,81
799,223	-0,85
799,656	-0,91
800,089	-0,96
800,522	-1
800,955	-1,04
801,387	-1,1
801,82	-1,15
802,253	-1,22
802,686	-1,3
803,118	-1,35
803,551	-1,41
803,984	-1,45
804,416	-1,49
804,849	-1,53
805,281	-1,64
805,714	-2
806,146	-2,46
806,579	-2,71
807,011	-2,87
807,444	-2,97
807,876	-3,05
808,308	-3,08
808,741	-3,11
809,173	-3,17
809,605	-3,19
810,037	-3,26
810,47	-3,18
810,902	-2,98
811,334	-2,83
811,766	-2,67
812,198	-2,43
812,63	-2
813,062	-1,79
813,494	-1,7
813,926	-1,61
814,358	-1,56
814,79	-1,48
815,222	-1,42
815,654	-1,37
816,086	-1,31
816,518	-1,25
816,949	-1,2
817,381	-1,15
817,813	-1,14
818,245	-1,1
818,676	-1,05
819,108	-1,02
819,54	-1
819,971	-0,98
820,403	-0,93
820,834	-0,92
821,266	-0,87
821,697	-0,85
822,129	-0,83
822,56	-0,81
822,991	-0,78
823,423	-0,76
823,854	-0,75
824,286	-0,73
824,717	-0,71
825,148	-0,7
825,579	-0,69
826,01	-0,68
826,442	-0,66
826,873	-0,64
827,304	-0,61
827,735	-0,6
828,166	-0,6
828,597	-0,6
829,028	-0,59
829,459	-0,6
829,89	-0,59
830,321	-0,55
830,752	-0,56
831,183	-0,54
831,613	-0,53
832,044	-0,53
832,475	-0,53
832,906	-0,54
833,336	-0,54
833,767	-0,54
834,198	-0,53
834,628	-0,51
835,059	-0,55
835,49	-0,56
835,92	-0,53
836,351	-0,53
836,781	-0,53
837,212	-0,55
837,642	-0,55
838,072	-0,53
838,503	-0,55
838,933	-0,52
839,364	-0,53
839,794	-0,51
840,224	-0,49
840,654	-0,54
841,085	-0,54
841,515	-0,52
841,945	-0,52
842,375	-0,47
842,805	-0,46
843,235	-0,44
843,665	-0,46
844,095	-0,45
844,525	-0,47
844,955	-0,47
845,385	-0,45
845,815	-0,45
846,245	-0,46
846,675	-0,47
847,105	-0,49
847,534	-0,49
847,964	-0,47
848,394	-0,46
848,824	-0,5
849,253	-0,48
849,683	-0,48
850,112	-0,5
850,542	-0,52
850,972	-0,53
851,401	-0,51
851,831	-0,49
852,26	-0,49
852,69	-0,52
853,119	-0,52
853,548	-0,51
853,978	-0,52
854,407	-0,5
854,836	-0,49
855,266	-0,49
855,695	-0,5
856,124	-0,51
856,553	-0,52
856,983	-0,55
857,412	-0,54
857,841	-0,56
858,27	-0,56
858,699	-0,57
859,128	-0,6
859,557	-0,61
859,986	-0,62
860,415	-0,6
860,844	-0,58
861,273	-0,59
861,702	-0,59
862,13	-0,57
862,559	-0,58
862,988	-0,56
863,417	-0,54
863,845	-0,54
864,274	-0,55
864,703	-0,55
865,131	-0,55
865,56	-0,56
865,989	-0,58
866,417	-0,56
866,846	-0,55
867,274	-0,54
867,703	-0,56
868,131	-0,57
868,559	-0,57
868,988	-0,58
869,416	-0,57
869,844	-0,58
870,273	-0,62
870,701	-0,6
871,129	-0,62
871,557	-0,64
871,986	-0,64
872,414	-0,67
872,842	-0,64
873,27	-0,62
873,698	-0,59
874,126	-0,63
874,554	-0,61
874,982	-0,6
875,41	-0,63
875,838	-0,6
876,266	-0,58
876,694	-0,58
877,122	-0,56
877,549	-0,62
877,977	-0,6
878,405	-0,63
878,833	-0,6
879,26	-0,58
879,688	-0,58
880,116	-0,57
880,543	-0,54
880,971	-0,53
881,399	-0,56
881,826	-0,56
882,254	-0,54
882,681	-0,57
883,109	-0,54
883,536	-0,54
883,963	-0,56
884,391	-0,55
884,818	-0,53
885,245	-0,57
885,673	-0,59
886,1	-0,56
886,527	-0,56
886,954	-0,52
887,381	-0,55
887,809	-0,55
888,236	-0,57
888,663	-0,58
889,09	-0,62
889,517	-0,63
889,944	-0,63
890,371	-0,62
890,798	-0,62
891,225	-0,63
891,652	-0,67
892,078	-0,64
892,505	-0,67
892,932	-0,63
893,359	-0,64
893,786	-0,63
894,212	-0,6
894,639	-0,62
895,066	-0,64
895,492	-0,59
895,919	-0,59
896,346	-0,57
896,772	-0,58
897,199	-0,55
897,625	-0,58
898,052	-0,54
898,478	-0,52
898,904	-0,54
899,331	-0,53
899,757	-0,54
900,183	-0,55
900,61	-0,52
901,036	-0,53
901,462	-0,52
901,888	-0,52
902,315	-0,51
902,741	-0,56
903,167	-0,55
903,593	-0,58
904,019	-0,57
904,445	-0,54
904,871	-0,58
905,297	-0,59
905,723	-0,59
906,149	-0,59
906,575	-0,59
907,001	-0,59
907,427	-0,56
907,852	-0,55
908,278	-0,56
908,704	-0,54
909,13	-0,53
909,555	-0,53
909,981	-0,51
910,407	-0,52
910,832	-0,51
911,258	-0,52
911,684	-0,51
912,109	-0,52
912,535	-0,53
912,96	-0,5
913,386	-0,54
913,811	-0,54
914,236	-0,56
914,662	-0,54
915,087	-0,57
915,512	-0,58
915,938	-0,6
916,363	-0,58
916,788	-0,59
917,213	-0,57
917,639	-0,61
918,064	-0,58
918,489	-0,58
918,914	-0,59
919,339	-0,6
919,764	-0,57
920,189	-0,57
920,614	-0,6
921,039	-0,6
921,464	-0,57
921,889	-0,59
922,314	-0,59
922,738	-0,62
923,163	-0,64
923,588	-0,64
924,013	-0,63
924,437	-0,63
924,862	-0,65
925,287	-0,6
925,711	-0,61
926,136	-0,63
926,561	-0,61
926,985	-0,6
927,41	-0,57
927,834	-0,55
928,259	-0,51
928,683	-0,49
929,108	-0,46
929,532	-0,47
929,956	-0,46
930,381	-0,45
930,805	-0,45
931,229	-0,45
931,653	-0,44
932,078	-0,43
932,502	-0,45
932,926	-0,46
933,35	-0,46
933,774	-0,45
934,198	-0,43
934,622	-0,42
935,046	-0,43
935,47	-0,44
935,894	-0,44
936,318	-0,44
936,742	-0,44
937,166	-0,44
937,59	-0,44
938,014	-0,47
938,437	-0,47
938,861	-0,48
939,285	-0,49
939,709	-0,48
940,132	-0,48
940,556	-0,49
940,98	-0,48
941,403	-0,47
941,827	-0,47
942,25	-0,48
942,674	-0,46
943,097	-0,47
943,521	-0,47
943,944	-0,49
944,368	-0,47
944,791	-0,46
945,214	-0,48
945,638	-0,49
946,061	-0,52
946,484	-0,53
946,907	-0,51
947,331	-0,51
947,754	-0,54
948,177	-0,51
948,6	-0,5
949,023	-0,5
949,446	-0,5
949,869	-0,48
950,292	-0,48
950,715	-0,44
951,138	-0,43
951,561	-0,41
951,984	-0,42
952,407	-0,41
952,83	-0,4
953,252	-0,36
953,675	-0,37
954,098	-0,37
954,521	-0,35
954,943	-0,35
955,366	-0,36
955,789	-0,34
956,211	-0,36
956,634	-0,37
957,056	-0,35
957,479	-0,35
957,902	-0,37
958,324	-0,37
958,746	-0,36
959,169	-0,37
959,591	-0,37
960,014	-0,38
960,436	-0,38
960,858	-0,36
961,281	-0,35
961,703	-0,36
962,125	-0,36
962,547	-0,34
962,969	-0,35
963,391	-0,35
963,814	-0,37
964,236	-0,36
964,658	-0,34
965,08	-0,35
965,502	-0,34
965,924	-0,32
966,346	-0,33
966,768	-0,32
967,189	-0,34
967,611	-0,33
968,033	-0,33
968,455	-0,31
968,877	-0,31
969,298	-0,32
969,72	-0,33
970,142	-0,33
970,563	-0,34
970,985	-0,32
971,407	-0,31
971,828	-0,29
972,25	-0,28
972,671	-0,25
973,093	-0,25
973,514	-0,23
973,936	-0,21
974,357	-0,2
974,778	-0,2
975,2	-0,19
975,621	-0,18
976,042	-0,16
976,464	-0,16
976,885	-0,15
977,306	-0,15
977,727	-0,15
978,148	-0,15
978,57	-0,13
978,991	-0,11
979,412	-0,1
979,833	-0,1
980,254	-0,09
980,675	-0,09
981,096	-0,07
981,517	-0,06
981,937	-0,05
982,358	-0,04
982,779	-0,02
983,2	-0,03
983,621	-0,03
984,042	-0
984,462	0,01
984,883	0,02
985,304	0,03
985,724	0,05
986,145	0,05
986,565	0,08
986,986	0,09
987,407	0,1
987,827	0,12
988,248	0,14
988,668	0,14
989,088	0,15
989,509	0,16
989,929	0,17
990,35	0,18
990,77	0,2
991,19	0,2
991,61	0,21
992,031	0,22
992,451	0,22
992,871	0,23
993,291	0,24
993,711	0,25
994,131	0,25
994,551	0,26
994,971	0,27
995,391	0,27
995,811	0,28
996,231	0,28
996,651	0,29
997,071	0,3
997,491	0,3
997,911	0,31
998,331	0,32
998,75	0,32
999,17	0,33
999,59	0,33
1000,009	0,34
1000,429	0,34
1000,849	0,35
1001,268	0,35
1001,688	0,35
1002,107	0,36
1002,527	0,36
1002,946	0,36
1003,366	0,37
1003,785	0,37
1004,205	0,37
1004,624	0,38
1005,044	0,38
1005,463	0,38
1005,882	0,38
1006,301	0,38
1006,721	0,39
1007,14	0,39
1007,559	0,39
1007,978	0,39
1008,397	0,39
1008,816	0,39
1009,235	0,39
1009,655	0,39
1010,074	0,39
1010,492	0,39
1010,911	0,39
1011,33	0,39
1011,749	0,39
1012,168	0,39
1012,587	0,38
1013,006	0,38
1013,425	0,38
1013,843	0,38
1014,262	0,38
1014,681	0,38
1015,099	0,38
1015,518	0,38
1015,937	0,38
1016,355	0,38
1016,774	0,38
1017,192	0,38
1017,611	0,38
1018,029	0,38
1018,448	0,38
1018,866	0,38
1019,285	0,38
1019,703	0,38
1020,121	0,38
1020,54	0,38
1020,958	0,38
1021,376	0,37
1021,794	0,37
1022,213	0,37
1022,631	0,37
1023,049	0,37
1023,467	0,37
1023,885	0,37
1024,303	0,37
1024,721	0,37
1025,139	0,37
1025,557	0,37
1025,975	0,37
1026,393	0,37
1026,811	0,37
1027,229	0,37
1027,647	0,37
1028,065	0,36
1028,482	0,36
1028,9	0,36
1029,318	0,36
1029,735	0,36
1030,153	0,36
1030,571	0,36
1030,988	0,36
1031,406	0,36
1031,823	0,36
1032,241	0,36
1032,659	0,36
1033,076	0,37
1033,493	0,37
1033,911	0,37
1034,328	0,37
1034,746	0,37
1035,163	0,37
1035,58	0,37
1035,997	0,37
1036,415	0,37
1036,832	0,37
1037,249	0,37
1037,666	0,37
1038,083	0,37
1038,501	0,37
1038,918	0,37
1039,335	0,37
1039,752	0,37
1040,169	0,37
1040,586	0,37
1041,003	0,37
1041,419	0,37
1041,836	0,37
1042,253	0,37
1042,67	0,37
1043,087	0,37
1043,504	0,37
1043,92	0,37
1044,337	0,36
1044,754	0,36
1045,17	0,36
1045,587	0,36
1046,004	0,36
1046,42	0,36
1046,837	0,36
1047,253	0,36
1047,67	0,36
1048,086	0,36
1048,503	0,36
1048,919	0,36
1049,335	0,36
1049,752	0,36
1050,168	0,36
1050,584	0,36
1051,001	0,36
1051,417	0,36
1051,833	0,37
1052,249	0,37
1052,665	0,37
1053,081	0,37
1053,497	0,37
1053,914	0,37
1054,33	0,37
1054,746	0,37
1055,162	0,37
1055,578	0,37
1055,993	0,37
1056,409	0,37
1056,825	0,37
1057,241	0,37
1057,657	0,37
1058,073	0,37
1058,488	0,37
1058,904	0,37
1059,32	0,37
1059,736	0,37
1060,151	0,37
1060,567	0,37
1060,982	0,37
1061,398	0,37
1061,813	0,37
1062,229	0,37
1062,644	0,37
1063,06	0,37
1063,475	0,37
1063,891	0,37
1064,306	0,37
1064,721	0,37
1065,137	0,37
1065,552	0,37
1065,967	0,37
1066,382	0,37
1066,798	0,37
1067,213	0,37
1067,628	0,37
1068,043	0,37
1068,458	0,37
1068,873	0,37
1069,288	0,37
1069,703	0,37
1070,118	0,37
1070,533	0,37
1070,948	0,37
1071,363	0,37
1071,778	0,37
1072,193	0,37
1072,607	0,37
1073,022	0,37
1073,437	0,37
1073,852	0,37
1074,266	0,37
1074,681	0,37
1075,096	0,37
1075,51	0,37
1075,925	0,37
1076,339	0,37
1076,754	0,37
1077,168	0,37
1077,583	0,36
1077,997	0,37
1078,412	0,36
1078,826	0,36
1079,24	0,36
1079,655	0,36
1080,069	0,36
1080,483	0,36
1080,897	0,36
1081,312	0,36
1081,726	0,36
1082,14	0,36
1082,554	0,36
1082,968	0,36
1083,382	0,36
1083,796	0,36
1084,21	0,36
1084,624	0,36
1085,038	0,35
1085,452	0,36
1085,866	0,35
1086,28	0,35
1086,694	0,35
1087,108	0,35
1087,521	0,35
1087,935	0,34
1088,349	0,34
1088,763	0,34
1089,176	0,34
1089,59	0,33
1090,004	0,33
1090,417	0,33
1090,831	0,33
1091,244	0,32
1091,658	0,32
1092,071	0,32
1092,485	0,32
1092,898	0,31
1093,312	0,31
1093,725	0,31
1094,138	0,31
1094,552	0,31
1094,965	0,3
1095,378	0,3
1095,791	0,3
1096,205	0,3
1096,618	0,3
1097,031	0,29
1097,444	0,29
1097,857	0,29
1098,27	0,29
1098,683	0,28
1099,096	0,28
1099,509	0,28
1099,922	0,27
1100,335	0,26
1100,748	0,26
1101,161	0,26
1101,574	0,25
1101,986	0,25
1102,399	0,25
1102,812	0,25
1103,225	0,24
1103,637	0,24
1104,05	0,23
1104,463	0,24
1104,875	0,23
1105,288	0,23
1105,7	0,22
1106,113	0,22
1106,525	0,22
1106,938	0,22
1107,35	0,21
1107,763	0,21
1108,175	0,21
1108,588	0,21
1109	0,2
1109,412	0,2
1109,824	0,21
1110,237	0,2
1110,649	0,2
1111,061	0,18
