Data from 18C-808nm-8A-cont_Absorbance__221__01650.txt Node

Date: Mon Jul 17 17:25:48 CEST 2023
User: Laser008
Spectrometer: MAYP115816
Trigger mode: 0
Integration Time (sec): 2,500000E-1
Scans to average: 10
Electric dark correction enabled: true
Nonlinearity correction enabled: true
Boxcar width: 5
XAxis mode: Wavelengths
Number of Pixels in Spectrum: 2068
>>>>>Begin Spectral Data<<<<<
198,914	-0,69
199,384	-0,45
199,855	-0,34
200,325	-0,27
200,796	-0,24
201,266	-0,2
201,737	-0,18
202,207	-0,17
202,677	-0,17
203,147	-0,16
203,618	-0,12
204,088	-0,11
204,558	-0,1
205,028	-0,1
205,498	-0,1
205,968	-0,1
206,439	-0,11
206,909	-0,1
207,379	-0,11
207,849	-0,11
208,319	-0,11
208,789	-0,12
209,258	-0,12
209,728	-0,13
210,198	-0,12
210,668	-0,13
211,138	-0,12
211,608	-0,11
212,077	-0,12
212,547	-0,11
213,017	-0,11
213,486	-0,12
213,956	-0,13
214,426	-0,14
214,895	-0,13
215,365	-0,14
215,834	-0,14
216,304	-0,15
216,773	-0,16
217,243	-0,17
217,712	-0,18
218,181	-0,17
218,651	-0,16
219,12	-0,16
219,589	-0,16
220,058	-0,15
220,528	-0,17
220,997	-0,18
221,466	-0,19
221,935	-0,19
222,404	-0,19
222,873	-0,18
223,342	-0,19
223,812	-0,19
224,281	-0,19
224,749	-0,19
225,218	-0,2
225,687	-0,2
226,156	-0,18
226,625	-0,17
227,094	-0,17
227,563	-0,17
228,031	-0,18
228,5	-0,18
228,969	-0,19
229,438	-0,18
229,906	-0,17
230,375	-0,16
230,844	-0,16
231,312	-0,16
231,781	-0,16
232,249	-0,15
232,718	-0,15
233,186	-0,13
233,655	-0,14
234,123	-0,13
234,591	-0,13
235,06	-0,13
235,528	-0,13
235,996	-0,13
236,465	-0,13
236,933	-0,13
237,401	-0,13
237,869	-0,13
238,337	-0,13
238,805	-0,11
239,274	-0,1
239,742	-0,1
240,21	-0,1
240,678	-0,09
241,146	-0,08
241,614	-0,08
242,081	-0,08
242,549	-0,08
243,017	-0,09
243,485	-0,09
243,953	-0,1
244,421	-0,09
244,888	-0,08
245,356	-0,09
245,824	-0,09
246,291	-0,09
246,759	-0,1
247,227	-0,1
247,694	-0,09
248,162	-0,08
248,629	-0,07
249,097	-0,07
249,564	-0,09
250,032	-0,09
250,499	-0,1
250,967	-0,11
251,434	-0,12
251,901	-0,11
252,369	-0,11
252,836	-0,13
253,303	-0,15
253,77	-0,16
254,237	-0,16
254,705	-0,15
255,172	-0,14
255,639	-0,15
256,106	-0,16
256,573	-0,17
257,04	-0,17
257,507	-0,17
257,974	-0,17
258,441	-0,15
258,908	-0,16
259,375	-0,17
259,841	-0,17
260,308	-0,18
260,775	-0,18
261,242	-0,17
261,709	-0,18
262,175	-0,19
262,642	-0,18
263,109	-0,18
263,575	-0,19
264,042	-0,18
264,508	-0,18
264,975	-0,19
265,441	-0,2
265,908	-0,2
266,374	-0,2
266,841	-0,19
267,307	-0,19
267,773	-0,18
268,24	-0,18
268,706	-0,18
269,172	-0,19
269,639	-0,2
270,105	-0,19
270,571	-0,19
271,037	-0,19
271,503	-0,2
271,969	-0,19
272,435	-0,19
272,902	-0,21
273,368	-0,22
273,834	-0,23
274,3	-0,23
274,765	-0,24
275,231	-0,23
275,697	-0,23
276,163	-0,22
276,629	-0,22
277,095	-0,23
277,56	-0,23
278,026	-0,23
278,492	-0,22
278,958	-0,21
279,423	-0,21
279,889	-0,2
280,354	-0,21
280,82	-0,21
281,286	-0,22
281,751	-0,22
282,217	-0,21
282,682	-0,2
283,147	-0,2
283,613	-0,2
284,078	-0,21
284,544	-0,22
285,009	-0,22
285,474	-0,22
285,939	-0,23
286,405	-0,21
286,87	-0,21
287,335	-0,21
287,8	-0,21
288,265	-0,2
288,73	-0,21
289,195	-0,23
289,66	-0,22
290,125	-0,21
290,59	-0,22
291,055	-0,21
291,52	-0,21
291,985	-0,21
292,45	-0,23
292,915	-0,23
293,38	-0,23
293,844	-0,22
294,309	-0,19
294,774	-0,19
295,239	-0,2
295,703	-0,2
296,168	-0,19
296,632	-0,18
297,097	-0,17
297,562	-0,16
298,026	-0,17
298,491	-0,17
298,955	-0,17
299,419	-0,17
299,884	-0,17
300,348	-0,16
300,813	-0,15
301,277	-0,15
301,741	-0,16
302,205	-0,15
302,67	-0,14
303,134	-0,13
303,598	-0,13
304,062	-0,12
304,526	-0,12
304,99	-0,13
305,454	-0,13
305,919	-0,14
306,383	-0,14
306,847	-0,14
307,31	-0,15
307,774	-0,16
308,238	-0,15
308,702	-0,15
309,166	-0,16
309,63	-0,17
310,094	-0,13
310,557	-0,13
311,021	-0,13
311,485	-0,12
311,948	-0,12
312,412	-0,1
312,876	-0,1
313,339	-0,1
313,803	-0,11
314,266	-0,1
314,73	-0,09
315,193	-0,11
315,657	-0,1
316,12	-0,09
316,584	-0,08
317,047	-0,08
317,51	-0,07
317,973	-0,07
318,437	-0,06
318,9	-0,05
319,363	-0,04
319,826	-0,04
320,29	-0,04
320,753	-0,05
321,216	-0,04
321,679	-0,04
322,142	-0,04
322,605	-0,05
323,068	-0,04
323,531	-0,04
323,994	-0,04
324,457	-0,04
324,92	-0,03
325,382	-0,03
325,845	-0,02
326,308	-0,02
326,771	-0,01
327,233	-0,01
327,696	-0
328,159	-0
328,622	0
329,084	-0
329,547	0,01
330,009	0,01
330,472	0,02
330,934	0,03
331,397	0,03
331,859	0,02
332,322	0,03
332,784	0,03
333,246	0,04
333,709	0,04
334,171	0,05
334,633	0,05
335,096	0,05
335,558	0,05
336,02	0,05
336,482	0,05
336,944	0,07
337,406	0,07
337,868	0,08
338,331	0,08
338,793	0,09
339,255	0,09
339,717	0,1
340,178	0,11
340,64	0,11
341,102	0,12
341,564	0,14
342,026	0,15
342,488	0,15
342,949	0,17
343,411	0,2
343,873	0,22
344,335	0,25
344,796	0,28
345,258	0,33
345,719	0,37
346,181	0,41
346,643	0,44
347,104	0,47
347,566	0,5
348,027	0,52
348,488	0,54
348,95	0,56
349,411	0,58
349,873	0,6
350,334	0,62
350,795	0,63
351,256	0,64
351,718	0,65
352,179	0,65
352,64	0,65
353,101	0,66
353,562	0,66
354,023	0,66
354,484	0,66
354,945	0,67
355,406	0,67
355,867	0,67
356,328	0,67
356,789	0,67
357,25	0,67
357,711	0,68
358,172	0,68
358,633	0,68
359,093	0,68
359,554	0,68
360,015	0,68
360,476	0,68
360,936	0,69
361,397	0,69
361,858	0,69
362,318	0,69
362,779	0,69
363,239	0,69
363,7	0,69
364,16	0,69
364,621	0,69
365,081	0,69
365,541	0,69
366,002	0,69
366,462	0,69
366,922	0,69
367,383	0,69
367,843	0,69
368,303	0,69
368,763	0,69
369,223	0,69
369,684	0,69
370,144	0,69
370,604	0,69
371,064	0,69
371,524	0,69
371,984	0,69
372,444	0,69
372,904	0,69
373,363	0,69
373,823	0,69
374,283	0,69
374,743	0,69
375,203	0,69
375,663	0,69
376,122	0,69
376,582	0,69
377,042	0,68
377,501	0,68
377,961	0,68
378,42	0,68
378,88	0,68
379,34	0,68
379,799	0,68
380,259	0,68
380,718	0,68
381,177	0,68
381,637	0,68
382,096	0,68
382,555	0,68
383,015	0,68
383,474	0,68
383,933	0,68
384,393	0,68
384,852	0,68
385,311	0,68
385,77	0,68
386,229	0,68
386,688	0,68
387,147	0,68
387,606	0,68
388,065	0,68
388,524	0,68
388,983	0,68
389,442	0,68
389,901	0,68
390,36	0,67
390,819	0,67
391,277	0,67
391,736	0,67
392,195	0,67
392,654	0,67
393,112	0,67
393,571	0,67
394,03	0,67
394,488	0,67
394,947	0,67
395,405	0,67
395,864	0,67
396,322	0,67
396,781	0,67
397,239	0,67
397,698	0,67
398,156	0,67
398,614	0,67
399,073	0,67
399,531	0,67
399,989	0,67
400,447	0,67
400,905	0,67
401,364	0,67
401,822	0,67
402,28	0,67
402,738	0,67
403,196	0,67
403,654	0,67
404,112	0,67
404,57	0,67
405,028	0,67
405,486	0,67
405,944	0,66
406,402	0,66
406,859	0,66
407,317	0,66
407,775	0,67
408,233	0,66
408,691	0,66
409,148	0,66
409,606	0,66
410,064	0,66
410,521	0,66
410,979	0,66
411,436	0,66
411,894	0,66
412,351	0,66
412,809	0,66
413,266	0,66
413,724	0,66
414,181	0,66
414,638	0,66
415,096	0,66
415,553	0,66
416,01	0,66
416,467	0,66
416,925	0,66
417,382	0,66
417,839	0,66
418,296	0,66
418,753	0,66
419,21	0,66
419,667	0,66
420,124	0,66
420,581	0,66
421,038	0,66
421,495	0,66
421,952	0,66
422,409	0,66
422,866	0,66
423,322	0,66
423,779	0,66
424,236	0,66
424,693	0,66
425,149	0,66
425,606	0,66
426,063	0,66
426,519	0,66
426,976	0,66
427,433	0,66
427,889	0,66
428,346	0,66
428,802	0,66
429,258	0,66
429,715	0,66
430,171	0,66
430,628	0,66
431,084	0,66
431,54	0,66
431,997	0,66
432,453	0,66
432,909	0,66
433,365	0,65
433,821	0,65
434,277	0,65
434,734	0,65
435,19	0,65
435,646	0,65
436,102	0,65
436,558	0,65
437,014	0,65
437,47	0,65
437,925	0,65
438,381	0,65
438,837	0,66
439,293	0,66
439,749	0,66
440,205	0,66
440,66	0,66
441,116	0,66
441,572	0,66
442,027	0,66
442,483	0,66
442,939	0,66
443,394	0,66
443,85	0,66
444,305	0,66
444,761	0,66
445,216	0,66
445,672	0,66
446,127	0,66
446,582	0,66
447,038	0,66
447,493	0,66
447,948	0,66
448,403	0,66
448,859	0,66
449,314	0,66
449,769	0,66
450,224	0,66
450,679	0,66
451,134	0,66
451,589	0,66
452,044	0,66
452,499	0,66
452,954	0,66
453,409	0,66
453,864	0,66
454,319	0,66
454,774	0,66
455,229	0,66
455,684	0,66
456,138	0,66
456,593	0,66
457,048	0,66
457,503	0,66
457,957	0,66
458,412	0,66
458,866	0,66
459,321	0,66
459,776	0,66
460,23	0,66
460,685	0,66
461,139	0,66
461,593	0,67
462,048	0,67
462,502	0,67
462,957	0,67
463,411	0,67
463,865	0,67
464,319	0,67
464,774	0,67
465,228	0,67
465,682	0,67
466,136	0,67
466,59	0,67
467,044	0,68
467,499	0,68
467,953	0,68
468,407	0,68
468,861	0,68
469,315	0,68
469,768	0,68
470,222	0,68
470,676	0,68
471,13	0,68
471,584	0,68
472,038	0,68
472,491	0,68
472,945	0,68
473,399	0,68
473,852	0,69
474,306	0,69
474,76	0,69
475,213	0,69
475,667	0,69
476,12	0,69
476,574	0,69
477,027	0,69
477,481	0,69
477,934	0,7
478,388	0,7
478,841	0,7
479,294	0,7
479,748	0,7
480,201	0,7
480,654	0,71
481,107	0,71
481,561	0,71
482,014	0,71
482,467	0,71
482,92	0,71
483,373	0,71
483,826	0,72
484,279	0,72
484,732	0,72
485,185	0,72
485,638	0,72
486,091	0,72
486,544	0,73
486,997	0,73
487,449	0,73
487,902	0,73
488,355	0,73
488,808	0,74
489,26	0,74
489,713	0,74
490,166	0,74
490,618	0,75
491,071	0,75
491,523	0,75
491,976	0,75
492,429	0,76
492,881	0,76
493,333	0,76
493,786	0,76
494,238	0,77
494,691	0,77
495,143	0,77
495,595	0,78
496,048	0,78
496,5	0,78
496,952	0,79
497,404	0,79
497,856	0,79
498,309	0,79
498,761	0,8
499,213	0,8
499,665	0,81
500,117	0,81
500,569	0,81
501,021	0,82
501,473	0,82
501,925	0,82
502,377	0,83
502,828	0,83
503,28	0,83
503,732	0,84
504,184	0,84
504,636	0,84
505,087	0,85
505,539	0,85
505,991	0,85
506,442	0,86
506,894	0,86
507,345	0,86
507,797	0,87
508,249	0,87
508,7	0,87
509,151	0,88
509,603	0,88
510,054	0,88
510,506	0,89
510,957	0,89
511,408	0,89
511,86	0,9
512,311	0,9
512,762	0,9
513,213	0,91
513,665	0,91
514,116	0,91
514,567	0,92
515,018	0,92
515,469	0,92
515,92	0,93
516,371	0,93
516,822	0,93
517,273	0,93
517,724	0,94
518,175	0,94
518,626	0,94
519,076	0,94
519,527	0,95
519,978	0,95
520,429	0,95
520,88	0,95
521,33	0,95
521,781	0,96
522,232	0,96
522,682	0,96
523,133	0,96
523,583	0,96
524,034	0,96
524,484	0,96
524,935	0,96
525,385	0,97
525,836	0,97
526,286	0,97
526,736	0,97
527,187	0,97
527,637	0,97
528,087	0,97
528,538	0,96
528,988	0,96
529,438	0,96
529,888	0,96
530,338	0,96
530,788	0,96
531,238	0,96
531,688	0,96
532,139	0,96
532,589	0,96
533,038	0,95
533,488	0,95
533,938	0,95
534,388	0,95
534,838	0,95
535,288	0,94
535,738	0,94
536,187	0,94
536,637	0,93
537,087	0,93
537,537	0,93
537,986	0,92
538,436	0,92
538,885	0,92
539,335	0,91
539,785	0,91
540,234	0,9
540,684	0,9
541,133	0,9
541,582	0,89
542,032	0,89
542,481	0,88
542,931	0,88
543,38	0,88
543,829	0,87
544,278	0,87
544,728	0,86
545,177	0,86
545,626	0,86
546,075	0,85
546,524	0,85
546,973	0,85
547,422	0,84
547,871	0,84
548,32	0,84
548,769	0,83
549,218	0,83
549,667	0,83
550,116	0,82
550,565	0,82
551,014	0,82
551,463	0,81
551,911	0,81
552,36	0,81
552,809	0,8
553,258	0,8
553,706	0,79
554,155	0,79
554,603	0,79
555,052	0,78
555,501	0,78
555,949	0,77
556,398	0,77
556,846	0,77
557,294	0,76
557,743	0,76
558,191	0,75
558,64	0,75
559,088	0,75
559,536	0,74
559,985	0,74
560,433	0,73
560,881	0,73
561,329	0,73
561,777	0,72
562,225	0,72
562,674	0,72
563,122	0,71
563,57	0,71
564,018	0,71
564,466	0,7
564,914	0,7
565,362	0,69
565,809	0,69
566,257	0,69
566,705	0,68
567,153	0,68
567,601	0,68
568,048	0,67
568,496	0,67
568,944	0,67
569,392	0,66
569,839	0,66
570,287	0,66
570,734	0,66
571,182	0,65
571,63	0,65
572,077	0,65
572,525	0,64
572,972	0,64
573,419	0,64
573,867	0,63
574,314	0,63
574,761	0,63
575,209	0,62
575,656	0,62
576,103	0,62
576,551	0,62
576,998	0,61
577,445	0,61
577,892	0,61
578,339	0,61
578,786	0,6
579,233	0,6
579,68	0,6
580,127	0,6
580,574	0,59
581,021	0,59
581,468	0,59
581,915	0,59
582,362	0,58
582,809	0,58
583,255	0,58
583,702	0,58
584,149	0,58
584,596	0,57
585,042	0,57
585,489	0,57
585,936	0,57
586,382	0,57
586,829	0,56
587,275	0,56
587,722	0,56
588,168	0,56
588,615	0,56
589,061	0,55
589,508	0,55
589,954	0,55
590,4	0,55
590,847	0,55
591,293	0,55
591,739	0,54
592,185	0,54
592,632	0,54
593,078	0,54
593,524	0,54
593,97	0,54
594,416	0,54
594,862	0,54
595,308	0,54
595,754	0,53
596,2	0,53
596,646	0,53
597,092	0,53
597,538	0,53
597,984	0,53
598,43	0,53
598,876	0,52
599,321	0,52
599,767	0,52
600,213	0,52
600,659	0,52
601,104	0,52
601,55	0,52
601,995	0,52
602,441	0,52
602,887	0,51
603,332	0,51
603,778	0,51
604,223	0,51
604,668	0,51
605,114	0,51
605,559	0,51
606,005	0,51
606,45	0,51
606,895	0,51
607,341	0,5
607,786	0,5
608,231	0,5
608,676	0,5
609,121	0,49
609,566	0,49
610,012	0,48
610,457	0,48
610,902	0,48
611,347	0,47
611,792	0,47
612,237	0,47
612,682	0,47
613,127	0,47
613,571	0,47
614,016	0,47
614,461	0,48
614,906	0,48
615,351	0,48
615,795	0,48
616,24	0,48
616,685	0,48
617,129	0,48
617,574	0,48
618,019	0,48
618,463	0,48
618,908	0,48
619,352	0,48
619,797	0,48
620,241	0,48
620,686	0,48
621,13	0,48
621,574	0,47
622,019	0,47
622,463	0,47
622,907	0,47
623,352	0,47
623,796	0,47
624,24	0,47
624,684	0,47
625,128	0,47
625,572	0,47
626,016	0,47
626,461	0,47
626,905	0,47
627,349	0,47
627,793	0,47
628,236	0,47
628,68	0,47
629,124	0,47
629,568	0,47
630,012	0,46
630,456	0,46
630,9	0,46
631,343	0,46
631,787	0,46
632,231	0,46
632,674	0,46
633,118	0,46
633,562	0,46
634,005	0,46
634,449	0,46
634,892	0,46
635,336	0,46
635,779	0,46
636,223	0,46
636,666	0,46
637,109	0,46
637,553	0,46
637,996	0,46
638,439	0,46
638,883	0,46
639,326	0,46
639,769	0,46
640,212	0,46
640,655	0,46
641,099	0,46
641,542	0,46
641,985	0,45
642,428	0,45
642,871	0,45
643,314	0,45
643,757	0,45
644,2	0,45
644,643	0,45
645,085	0,45
645,528	0,45
645,971	0,45
646,414	0,45
646,857	0,45
647,299	0,45
647,742	0,45
648,185	0,45
648,627	0,45
649,07	0,45
649,513	0,45
649,955	0,45
650,398	0,45
650,84	0,45
651,283	0,45
651,725	0,45
652,168	0,45
652,61	0,45
653,052	0,45
653,495	0,45
653,937	0,36
654,379	0,31
654,821	0,31
655,264	0,31
655,706	0,31
656,148	0,31
656,59	0,31
657,032	0,31
657,474	0,31
657,916	0,31
658,358	0,3
658,8	0,36
659,242	0,45
659,684	0,45
660,126	0,45
660,568	0,44
661,01	0,44
661,452	0,44
661,894	0,44
662,335	0,44
662,777	0,44
663,219	0,44
663,661	0,44
664,102	0,44
664,544	0,44
664,985	0,44
665,427	0,44
665,869	0,44
666,31	0,44
666,752	0,44
667,193	0,44
667,634	0,44
668,076	0,44
668,517	0,44
668,959	0,44
669,4	0,44
669,841	0,44
670,282	0,44
670,724	0,44
671,165	0,44
671,606	0,44
672,047	0,44
672,488	0,44
672,929	0,44
673,37	0,44
673,811	0,44
674,252	0,44
674,693	0,43
675,134	0,43
675,575	0,43
676,016	0,43
676,457	0,43
676,898	0,43
677,339	0,43
677,78	0,43
678,22	0,43
678,661	0,43
679,102	0,43
679,542	0,43
679,983	0,43
680,424	0,43
680,864	0,43
681,305	0,43
681,745	0,43
682,186	0,43
682,626	0,43
683,067	0,43
683,507	0,43
683,948	0,43
684,388	0,43
684,828	0,43
685,269	0,43
685,709	0,43
686,149	0,43
686,589	0,43
687,029	0,43
687,47	0,43
687,91	0,42
688,35	0,42
688,79	0,42
689,23	0,42
689,67	0,42
690,11	0,42
690,55	0,42
690,99	0,42
691,43	0,42
691,87	0,42
692,31	0,42
692,749	0,42
693,189	0,42
693,629	0,42
694,069	0,42
694,508	0,42
694,948	0,41
695,388	0,41
695,827	0,42
696,267	0,42
696,706	0,42
697,146	0,42
697,586	0,42
698,025	0,42
698,464	0,42
698,904	0,42
699,343	0,42
699,783	0,42
700,222	0,42
700,661	0,42
701,101	0,42
701,54	0,42
701,979	0,42
702,418	0,42
702,857	0,42
703,297	0,42
703,736	0,42
704,175	0,42
704,614	0,42
705,053	0,42
705,492	0,42
705,931	0,42
706,37	0,42
706,809	0,42
707,248	0,42
707,687	0,42
708,125	0,42
708,564	0,42
709,003	0,42
709,442	0,42
709,88	0,42
710,319	0,41
710,758	0,41
711,196	0,41
711,635	0,41
712,074	0,41
712,512	0,41
712,951	0,41
713,389	0,41
713,828	0,41
714,266	0,41
714,705	0,41
715,143	0,41
715,581	0,41
716,02	0,41
716,458	0,41
716,896	0,41
717,334	0,41
717,773	0,41
718,211	0,41
718,649	0,41
719,087	0,41
719,525	0,41
719,963	0,41
720,401	0,41
720,839	0,41
721,277	0,41
721,715	0,41
722,153	0,41
722,591	0,41
723,029	0,41
723,467	0,41
723,905	0,41
724,342	0,41
724,78	0,41
725,218	0,41
725,656	0,41
726,093	0,41
726,531	0,41
726,969	0,41
727,406	0,41
727,844	0,41
728,281	0,41
728,719	0,41
729,156	0,41
729,594	0,41
730,031	0,41
730,469	0,41
730,906	0,4
731,343	0,4
731,781	0,4
732,218	0,4
732,655	0,4
733,092	0,4
733,53	0,4
733,967	0,4
734,404	0,4
734,841	0,4
735,278	0,4
735,715	0,4
736,152	0,4
736,589	0,39
737,026	0,39
737,463	0,39
737,9	0,39
738,337	0,39
738,774	0,39
739,211	0,39
739,647	0,39
740,084	0,39
740,521	0,39
740,958	0,39
741,394	0,39
741,831	0,39
742,268	0,39
742,704	0,39
743,141	0,39
743,577	0,39
744,014	0,39
744,45	0,39
744,887	0,39
745,323	0,39
745,76	0,39
746,196	0,39
746,632	0,38
747,069	0,38
747,505	0,38
747,941	0,38
748,378	0,38
748,814	0,38
749,25	0,38
749,686	0,39
750,122	0,39
750,558	0,39
750,994	0,39
751,43	0,39
751,866	0,39
752,302	0,39
752,738	0,4
753,174	0,4
753,61	0,4
754,046	0,4
754,482	0,4
754,918	0,4
755,354	0,4
755,789	0,4
756,225	0,39
756,661	0,39
757,096	0,39
757,532	0,39
757,968	0,39
758,403	0,39
758,839	0,38
759,274	0,38
759,71	0,38
760,145	0,37
760,581	0,37
761,016	0,36
761,452	0,36
761,887	0,35
762,322	0,35
762,758	0,35
763,193	0,34
763,628	0,34
764,063	0,33
764,499	0,33
764,934	0,32
765,369	0,31
765,804	0,31
766,239	0,3
766,674	0,29
767,109	0,29
767,544	0,28
767,979	0,27
768,414	0,26
768,849	0,25
769,284	0,24
769,719	0,23
770,154	0,23
770,588	0,22
771,023	0,21
771,458	0,2
771,893	0,19
772,327	0,18
772,762	0,16
773,197	0,15
773,631	0,15
774,066	0,14
774,5	0,13
774,935	0,12
775,369	0,11
775,804	0,1
776,238	0,09
776,673	0,08
777,107	0,07
777,541	0,06
777,976	0,05
778,41	0,04
778,844	0,03
779,279	0,02
779,713	0,01
780,147	0
780,581	-0,01
781,015	-0,01
781,449	-0,01
781,883	-0,02
782,317	-0,04
782,751	-0,04
783,185	-0,05
783,619	-0,05
784,053	-0,06
784,487	-0,07
784,921	-0,08
785,355	-0,09
785,789	-0,1
786,223	-0,11
786,656	-0,12
787,09	-0,12
787,524	-0,13
787,957	-0,14
788,391	-0,16
788,825	-0,18
789,258	-0,19
789,692	-0,2
790,125	-0,21
790,559	-0,23
790,992	-0,24
791,426	-0,27
791,859	-0,29
792,293	-0,32
792,726	-0,34
793,159	-0,36
793,593	-0,38
794,026	-0,4
794,459	-0,43
794,892	-0,45
795,326	-0,48
795,759	-0,52
796,192	-0,56
796,625	-0,61
797,058	-0,63
797,491	-0,67
797,924	-0,71
798,357	-0,76
798,79	-0,8
799,223	-0,85
799,656	-0,9
800,089	-0,95
800,522	-0,99
800,955	-1,04
801,387	-1,1
801,82	-1,15
802,253	-1,21
802,686	-1,29
803,118	-1,35
803,551	-1,4
803,984	-1,44
804,416	-1,48
804,849	-1,52
805,281	-1,63
805,714	-1,99
806,146	-2,45
806,579	-2,71
807,011	-2,87
807,444	-2,97
807,876	-3,05
808,308	-3,09
808,741	-3,11
809,173	-3,17
809,605	-3,19
810,037	-3,26
810,47	-3,18
810,902	-2,98
811,334	-2,83
811,766	-2,68
812,198	-2,43
812,63	-2,01
813,062	-1,79
813,494	-1,69
813,926	-1,61
814,358	-1,55
814,79	-1,47
815,222	-1,41
815,654	-1,36
816,086	-1,3
816,518	-1,25
816,949	-1,19
817,381	-1,15
817,813	-1,13
818,245	-1,09
818,676	-1,05
819,108	-1,02
819,54	-1
819,971	-0,98
820,403	-0,93
820,834	-0,91
821,266	-0,87
821,697	-0,84
822,129	-0,83
822,56	-0,8
822,991	-0,78
823,423	-0,76
823,854	-0,75
824,286	-0,72
824,717	-0,71
825,148	-0,7
825,579	-0,69
826,01	-0,68
826,442	-0,67
826,873	-0,65
827,304	-0,62
827,735	-0,61
828,166	-0,62
828,597	-0,61
829,028	-0,61
829,459	-0,61
829,89	-0,61
830,321	-0,56
830,752	-0,57
831,183	-0,56
831,613	-0,55
832,044	-0,54
832,475	-0,52
832,906	-0,53
833,336	-0,54
833,767	-0,55
834,198	-0,54
834,628	-0,53
835,059	-0,55
835,49	-0,56
835,92	-0,53
836,351	-0,53
836,781	-0,54
837,212	-0,56
837,642	-0,56
838,072	-0,53
838,503	-0,52
838,933	-0,5
839,364	-0,51
839,794	-0,49
840,224	-0,49
840,654	-0,53
841,085	-0,53
841,515	-0,51
841,945	-0,51
842,375	-0,47
842,805	-0,46
843,235	-0,45
843,665	-0,47
844,095	-0,46
844,525	-0,47
844,955	-0,47
845,385	-0,45
845,815	-0,44
846,245	-0,46
846,675	-0,46
847,105	-0,48
847,534	-0,48
847,964	-0,47
848,394	-0,45
848,824	-0,48
849,253	-0,48
849,683	-0,48
850,112	-0,49
850,542	-0,52
850,972	-0,52
851,401	-0,5
851,831	-0,48
852,26	-0,49
852,69	-0,53
853,119	-0,53
853,548	-0,53
853,978	-0,53
854,407	-0,52
854,836	-0,52
855,266	-0,51
855,695	-0,53
856,124	-0,54
856,553	-0,55
856,983	-0,57
857,412	-0,56
857,841	-0,58
858,27	-0,58
858,699	-0,58
859,128	-0,61
859,557	-0,62
859,986	-0,64
860,415	-0,62
860,844	-0,59
861,273	-0,59
861,702	-0,59
862,13	-0,56
862,559	-0,58
862,988	-0,55
863,417	-0,54
863,845	-0,53
864,274	-0,53
864,703	-0,53
865,131	-0,53
865,56	-0,54
865,989	-0,57
866,417	-0,55
866,846	-0,55
867,274	-0,54
867,703	-0,56
868,131	-0,57
868,559	-0,58
868,988	-0,6
869,416	-0,59
869,844	-0,61
870,273	-0,64
870,701	-0,62
871,129	-0,66
871,557	-0,68
871,986	-0,69
872,414	-0,7
872,842	-0,68
873,27	-0,66
873,698	-0,63
874,126	-0,67
874,554	-0,66
874,982	-0,65
875,41	-0,67
875,838	-0,63
876,266	-0,61
876,694	-0,6
877,122	-0,59
877,549	-0,64
877,977	-0,61
878,405	-0,64
878,833	-0,6
879,26	-0,58
879,688	-0,58
880,116	-0,56
880,543	-0,55
880,971	-0,53
881,399	-0,55
881,826	-0,57
882,254	-0,55
882,681	-0,59
883,109	-0,55
883,536	-0,56
883,963	-0,58
884,391	-0,56
884,818	-0,54
885,245	-0,58
885,673	-0,61
886,1	-0,58
886,527	-0,58
886,954	-0,54
887,381	-0,55
887,809	-0,57
888,236	-0,58
888,663	-0,58
889,09	-0,62
889,517	-0,65
889,944	-0,64
890,371	-0,62
890,798	-0,62
891,225	-0,62
891,652	-0,65
892,078	-0,62
892,505	-0,65
892,932	-0,6
893,359	-0,61
893,786	-0,61
894,212	-0,57
894,639	-0,59
895,066	-0,62
895,492	-0,56
895,919	-0,57
896,346	-0,56
896,772	-0,56
897,199	-0,53
897,625	-0,56
898,052	-0,53
898,478	-0,51
898,904	-0,52
899,331	-0,52
899,757	-0,54
900,183	-0,55
900,61	-0,53
901,036	-0,54
901,462	-0,54
901,888	-0,53
902,315	-0,52
902,741	-0,57
903,167	-0,56
903,593	-0,59
904,019	-0,57
904,445	-0,54
904,871	-0,57
905,297	-0,59
905,723	-0,59
906,149	-0,57
906,575	-0,59
907,001	-0,59
907,427	-0,56
907,852	-0,56
908,278	-0,56
908,704	-0,54
909,13	-0,53
909,555	-0,52
909,981	-0,51
910,407	-0,52
910,832	-0,51
911,258	-0,5
911,684	-0,5
912,109	-0,5
912,535	-0,53
912,96	-0,49
913,386	-0,53
913,811	-0,53
914,236	-0,55
914,662	-0,52
915,087	-0,56
915,512	-0,56
915,938	-0,58
916,363	-0,58
916,788	-0,6
917,213	-0,57
917,639	-0,61
918,064	-0,58
918,489	-0,59
918,914	-0,59
919,339	-0,61
919,764	-0,58
920,189	-0,59
920,614	-0,6
921,039	-0,6
921,464	-0,56
921,889	-0,6
922,314	-0,61
922,738	-0,64
923,163	-0,65
923,588	-0,65
924,013	-0,64
924,437	-0,64
924,862	-0,65
925,287	-0,61
925,711	-0,62
926,136	-0,63
926,561	-0,61
926,985	-0,59
927,41	-0,56
927,834	-0,54
928,259	-0,51
928,683	-0,5
929,108	-0,47
929,532	-0,48
929,956	-0,47
930,381	-0,47
930,805	-0,47
931,229	-0,46
931,653	-0,45
932,078	-0,45
932,502	-0,46
932,926	-0,46
933,35	-0,46
933,774	-0,46
934,198	-0,44
934,622	-0,43
935,046	-0,44
935,47	-0,43
935,894	-0,43
936,318	-0,42
936,742	-0,43
937,166	-0,43
937,59	-0,43
938,014	-0,45
938,437	-0,46
938,861	-0,48
939,285	-0,48
939,709	-0,47
940,132	-0,47
940,556	-0,48
940,98	-0,48
941,403	-0,47
941,827	-0,47
942,25	-0,48
942,674	-0,48
943,097	-0,47
943,521	-0,46
943,944	-0,48
944,368	-0,47
944,791	-0,46
945,214	-0,48
945,638	-0,49
946,061	-0,52
946,484	-0,53
946,907	-0,52
947,331	-0,51
947,754	-0,55
948,177	-0,53
948,6	-0,52
949,023	-0,52
949,446	-0,51
949,869	-0,49
950,292	-0,48
950,715	-0,44
951,138	-0,42
951,561	-0,4
951,984	-0,4
952,407	-0,39
952,83	-0,37
953,252	-0,34
953,675	-0,34
954,098	-0,36
954,521	-0,34
954,943	-0,34
955,366	-0,35
955,789	-0,34
956,211	-0,36
956,634	-0,36
957,056	-0,35
957,479	-0,36
957,902	-0,38
958,324	-0,37
958,746	-0,36
959,169	-0,37
959,591	-0,37
960,014	-0,38
960,436	-0,38
960,858	-0,37
961,281	-0,36
961,703	-0,37
962,125	-0,36
962,547	-0,34
962,969	-0,35
963,391	-0,35
963,814	-0,36
964,236	-0,35
964,658	-0,32
965,08	-0,33
965,502	-0,33
965,924	-0,3
966,346	-0,29
966,768	-0,3
967,189	-0,32
967,611	-0,31
968,033	-0,31
968,455	-0,29
968,877	-0,3
969,298	-0,31
969,72	-0,32
970,142	-0,31
970,563	-0,32
970,985	-0,31
971,407	-0,29
971,828	-0,27
972,25	-0,26
972,671	-0,25
973,093	-0,24
973,514	-0,23
973,936	-0,21
974,357	-0,2
974,778	-0,2
975,2	-0,2
975,621	-0,2
976,042	-0,19
976,464	-0,18
976,885	-0,18
977,306	-0,17
977,727	-0,17
978,148	-0,16
978,57	-0,15
978,991	-0,13
979,412	-0,12
979,833	-0,1
980,254	-0,09
980,675	-0,09
981,096	-0,08
981,517	-0,06
981,937	-0,06
982,358	-0,04
982,779	-0,02
983,2	-0,02
983,621	-0,02
984,042	-0,01
984,462	-0
984,883	0,02
985,304	0,03
985,724	0,05
986,145	0,05
986,565	0,07
986,986	0,08
987,407	0,09
987,827	0,1
988,248	0,12
988,668	0,13
989,088	0,14
989,509	0,15
989,929	0,16
990,35	0,17
990,77	0,18
991,19	0,19
991,61	0,2
992,031	0,21
992,451	0,22
992,871	0,22
993,291	0,23
993,711	0,24
994,131	0,25
994,551	0,25
994,971	0,26
995,391	0,26
995,811	0,27
996,231	0,27
996,651	0,28
997,071	0,29
997,491	0,29
997,911	0,3
998,331	0,31
998,75	0,31
999,17	0,32
999,59	0,32
1000,009	0,32
1000,429	0,33
1000,849	0,34
1001,268	0,34
1001,688	0,35
1002,107	0,35
1002,527	0,35
1002,946	0,35
1003,366	0,36
1003,785	0,36
1004,205	0,36
1004,624	0,37
1005,044	0,37
1005,463	0,37
1005,882	0,37
1006,301	0,37
1006,721	0,37
1007,14	0,38
1007,559	0,38
1007,978	0,38
1008,397	0,38
1008,816	0,38
1009,235	0,38
1009,655	0,38
1010,074	0,38
1010,492	0,38
1010,911	0,38
1011,33	0,38
1011,749	0,37
1012,168	0,37
1012,587	0,37
1013,006	0,37
1013,425	0,37
1013,843	0,37
1014,262	0,37
1014,681	0,37
1015,099	0,37
1015,518	0,37
1015,937	0,37
1016,355	0,37
1016,774	0,37
1017,192	0,37
1017,611	0,37
1018,029	0,37
1018,448	0,37
1018,866	0,37
1019,285	0,37
1019,703	0,36
1020,121	0,36
1020,54	0,36
1020,958	0,36
1021,376	0,36
1021,794	0,36
1022,213	0,36
1022,631	0,36
1023,049	0,36
1023,467	0,36
1023,885	0,36
1024,303	0,36
1024,721	0,36
1025,139	0,36
1025,557	0,36
1025,975	0,36
1026,393	0,36
1026,811	0,36
1027,229	0,35
1027,647	0,35
1028,065	0,35
1028,482	0,35
1028,9	0,35
1029,318	0,35
1029,735	0,35
1030,153	0,35
1030,571	0,35
1030,988	0,35
1031,406	0,35
1031,823	0,35
1032,241	0,35
1032,659	0,35
1033,076	0,35
1033,493	0,35
1033,911	0,35
1034,328	0,35
1034,746	0,36
1035,163	0,36
1035,58	0,36
1035,997	0,36
1036,415	0,36
1036,832	0,36
1037,249	0,36
1037,666	0,36
1038,083	0,36
1038,501	0,36
1038,918	0,36
1039,335	0,36
1039,752	0,36
1040,169	0,36
1040,586	0,35
1041,003	0,35
1041,419	0,35
1041,836	0,35
1042,253	0,35
1042,67	0,35
1043,087	0,35
1043,504	0,35
1043,92	0,35
1044,337	0,35
1044,754	0,35
1045,17	0,35
1045,587	0,35
1046,004	0,35
1046,42	0,35
1046,837	0,35
1047,253	0,35
1047,67	0,35
1048,086	0,35
1048,503	0,35
1048,919	0,35
1049,335	0,35
1049,752	0,35
1050,168	0,35
1050,584	0,35
1051,001	0,35
1051,417	0,35
1051,833	0,35
1052,249	0,35
1052,665	0,36
1053,081	0,36
1053,497	0,36
1053,914	0,36
1054,33	0,36
1054,746	0,36
1055,162	0,36
1055,578	0,36
1055,993	0,36
1056,409	0,36
1056,825	0,36
1057,241	0,36
1057,657	0,36
1058,073	0,36
1058,488	0,36
1058,904	0,36
1059,32	0,36
1059,736	0,36
1060,151	0,36
1060,567	0,36
1060,982	0,36
1061,398	0,36
1061,813	0,36
1062,229	0,36
1062,644	0,36
1063,06	0,36
1063,475	0,36
1063,891	0,36
1064,306	0,36
1064,721	0,36
1065,137	0,36
1065,552	0,36
1065,967	0,35
1066,382	0,36
1066,798	0,36
1067,213	0,36
1067,628	0,36
1068,043	0,36
1068,458	0,36
1068,873	0,36
1069,288	0,36
1069,703	0,36
1070,118	0,36
1070,533	0,36
1070,948	0,36
1071,363	0,36
1071,778	0,36
1072,193	0,36
1072,607	0,36
1073,022	0,36
1073,437	0,36
1073,852	0,36
1074,266	0,36
1074,681	0,36
1075,096	0,36
1075,51	0,36
1075,925	0,36
1076,339	0,35
1076,754	0,35
1077,168	0,35
1077,583	0,35
1077,997	0,35
1078,412	0,35
1078,826	0,35
1079,24	0,35
1079,655	0,35
1080,069	0,35
1080,483	0,35
1080,897	0,35
1081,312	0,35
1081,726	0,35
1082,14	0,35
1082,554	0,35
1082,968	0,35
1083,382	0,35
1083,796	0,35
1084,21	0,35
1084,624	0,35
1085,038	0,34
1085,452	0,34
1085,866	0,34
1086,28	0,34
1086,694	0,34
1087,108	0,34
1087,521	0,34
1087,935	0,34
1088,349	0,34
1088,763	0,33
1089,176	0,33
1089,59	0,33
1090,004	0,33
1090,417	0,32
1090,831	0,32
1091,244	0,32
1091,658	0,31
1092,071	0,31
1092,485	0,31
1092,898	0,3
1093,312	0,3
1093,725	0,3
1094,138	0,3
1094,552	0,3
1094,965	0,29
1095,378	0,29
1095,791	0,29
1096,205	0,29
1096,618	0,29
1097,031	0,28
1097,444	0,28
1097,857	0,28
1098,27	0,27
1098,683	0,27
1099,096	0,27
1099,509	0,27
1099,922	0,26
1100,335	0,26
1100,748	0,25
1101,161	0,25
1101,574	0,25
1101,986	0,24
1102,399	0,24
1102,812	0,23
1103,225	0,23
1103,637	0,22
1104,05	0,22
1104,463	0,22
1104,875	0,22
1105,288	0,22
1105,7	0,21
1106,113	0,21
1106,525	0,21
1106,938	0,21
1107,35	0,2
1107,763	0,2
1108,175	0,2
1108,588	0,2
1109	0,19
1109,412	0,18
1109,824	0,18
1110,237	0,19
1110,649	0,19
1111,061	0,17
