Data from 18C-808nm-8A-cont_Absorbance__446__01875.txt Node

Date: Mon Jul 17 17:35:10 CEST 2023
User: Laser008
Spectrometer: MAYP115816
Trigger mode: 0
Integration Time (sec): 2,500000E-1
Scans to average: 10
Electric dark correction enabled: true
Nonlinearity correction enabled: true
Boxcar width: 5
XAxis mode: Wavelengths
Number of Pixels in Spectrum: 2068
>>>>>Begin Spectral Data<<<<<
198,914	-0,7
199,384	-0,48
199,855	-0,35
200,325	-0,26
200,796	-0,23
201,266	-0,18
201,737	-0,17
202,207	-0,16
202,677	-0,14
203,147	-0,13
203,618	-0,1
204,088	-0,08
204,558	-0,07
205,028	-0,06
205,498	-0,07
205,968	-0,07
206,439	-0,1
206,909	-0,09
207,379	-0,1
207,849	-0,11
208,319	-0,12
208,789	-0,11
209,258	-0,11
209,728	-0,12
210,198	-0,12
210,668	-0,11
211,138	-0,12
211,608	-0,1
212,077	-0,11
212,547	-0,11
213,017	-0,11
213,486	-0,12
213,956	-0,13
214,426	-0,15
214,895	-0,15
215,365	-0,16
215,834	-0,17
216,304	-0,17
216,773	-0,16
217,243	-0,17
217,712	-0,19
218,181	-0,18
218,651	-0,18
219,12	-0,18
219,589	-0,16
220,058	-0,16
220,528	-0,17
220,997	-0,18
221,466	-0,19
221,935	-0,2
222,404	-0,2
222,873	-0,19
223,342	-0,19
223,812	-0,19
224,281	-0,18
224,749	-0,19
225,218	-0,21
225,687	-0,21
226,156	-0,19
226,625	-0,18
227,094	-0,18
227,563	-0,18
228,031	-0,2
228,5	-0,2
228,969	-0,21
229,438	-0,2
229,906	-0,19
230,375	-0,18
230,844	-0,17
231,312	-0,17
231,781	-0,18
232,249	-0,17
232,718	-0,15
233,186	-0,13
233,655	-0,14
234,123	-0,13
234,591	-0,14
235,06	-0,14
235,528	-0,16
235,996	-0,15
236,465	-0,15
236,933	-0,15
237,401	-0,15
237,869	-0,14
238,337	-0,15
238,805	-0,13
239,274	-0,13
239,742	-0,12
240,21	-0,11
240,678	-0,1
241,146	-0,09
241,614	-0,09
242,081	-0,08
242,549	-0,08
243,017	-0,09
243,485	-0,09
243,953	-0,1
244,421	-0,09
244,888	-0,09
245,356	-0,09
245,824	-0,09
246,291	-0,1
246,759	-0,11
247,227	-0,11
247,694	-0,1
248,162	-0,09
248,629	-0,09
249,097	-0,09
249,564	-0,11
250,032	-0,11
250,499	-0,11
250,967	-0,12
251,434	-0,12
251,901	-0,12
252,369	-0,12
252,836	-0,14
253,303	-0,15
253,77	-0,17
254,237	-0,16
254,705	-0,16
255,172	-0,16
255,639	-0,17
256,106	-0,18
256,573	-0,18
257,04	-0,18
257,507	-0,18
257,974	-0,18
258,441	-0,15
258,908	-0,15
259,375	-0,17
259,841	-0,17
260,308	-0,17
260,775	-0,17
261,242	-0,16
261,709	-0,16
262,175	-0,18
262,642	-0,17
263,109	-0,17
263,575	-0,19
264,042	-0,17
264,508	-0,17
264,975	-0,18
265,441	-0,19
265,908	-0,19
266,374	-0,19
266,841	-0,19
267,307	-0,19
267,773	-0,19
268,24	-0,19
268,706	-0,18
269,172	-0,19
269,639	-0,2
270,105	-0,17
270,571	-0,18
271,037	-0,19
271,503	-0,2
271,969	-0,2
272,435	-0,2
272,902	-0,22
273,368	-0,23
273,834	-0,23
274,3	-0,24
274,765	-0,25
275,231	-0,25
275,697	-0,24
276,163	-0,23
276,629	-0,23
277,095	-0,23
277,56	-0,23
278,026	-0,23
278,492	-0,21
278,958	-0,21
279,423	-0,21
279,889	-0,21
280,354	-0,22
280,82	-0,22
281,286	-0,24
281,751	-0,24
282,217	-0,23
282,682	-0,23
283,147	-0,24
283,613	-0,25
284,078	-0,24
284,544	-0,25
285,009	-0,26
285,474	-0,25
285,939	-0,26
286,405	-0,25
286,87	-0,24
287,335	-0,23
287,8	-0,22
288,265	-0,2
288,73	-0,22
289,195	-0,23
289,66	-0,22
290,125	-0,21
290,59	-0,22
291,055	-0,2
291,52	-0,21
291,985	-0,21
292,45	-0,23
292,915	-0,22
293,38	-0,23
293,844	-0,21
294,309	-0,2
294,774	-0,19
295,239	-0,21
295,703	-0,21
296,168	-0,2
296,632	-0,2
297,097	-0,18
297,562	-0,17
298,026	-0,18
298,491	-0,18
298,955	-0,18
299,419	-0,18
299,884	-0,17
300,348	-0,16
300,813	-0,15
301,277	-0,16
301,741	-0,15
302,205	-0,15
302,67	-0,14
303,134	-0,14
303,598	-0,13
304,062	-0,13
304,526	-0,12
304,99	-0,13
305,454	-0,14
305,919	-0,14
306,383	-0,14
306,847	-0,15
307,31	-0,16
307,774	-0,17
308,238	-0,17
308,702	-0,17
309,166	-0,18
309,63	-0,18
310,094	-0,15
310,557	-0,14
311,021	-0,14
311,485	-0,13
311,948	-0,11
312,412	-0,11
312,876	-0,1
313,339	-0,11
313,803	-0,12
314,266	-0,11
314,73	-0,1
315,193	-0,11
315,657	-0,1
316,12	-0,09
316,584	-0,08
317,047	-0,1
317,51	-0,08
317,973	-0,08
318,437	-0,06
318,9	-0,04
319,363	-0,03
319,826	-0,03
320,29	-0,04
320,753	-0,04
321,216	-0,04
321,679	-0,05
322,142	-0,03
322,605	-0,05
323,068	-0,05
323,531	-0,06
323,994	-0,06
324,457	-0,06
324,92	-0,05
325,382	-0,04
325,845	-0,04
326,308	-0,04
326,771	-0,03
327,233	-0,04
327,696	-0,03
328,159	-0,02
328,622	-0
329,084	-0
329,547	0,01
330,009	0
330,472	0,01
330,934	0,01
331,397	0,02
331,859	0,03
332,322	0,03
332,784	0,03
333,246	0,03
333,709	0,03
334,171	0,04
334,633	0,05
335,096	0,05
335,558	0,05
336,02	0,05
336,482	0,05
336,944	0,07
337,406	0,08
337,868	0,09
338,331	0,09
338,793	0,09
339,255	0,1
339,717	0,11
340,178	0,12
340,64	0,12
341,102	0,12
341,564	0,14
342,026	0,15
342,488	0,16
342,949	0,17
343,411	0,21
343,873	0,23
344,335	0,26
344,796	0,3
345,258	0,35
345,719	0,4
346,181	0,45
346,643	0,49
347,104	0,53
347,566	0,56
348,027	0,6
348,488	0,62
348,95	0,65
349,411	0,68
349,873	0,7
350,334	0,73
350,795	0,75
351,256	0,76
351,718	0,77
352,179	0,78
352,64	0,78
353,101	0,78
353,562	0,79
354,023	0,79
354,484	0,79
354,945	0,8
355,406	0,8
355,867	0,8
356,328	0,8
356,789	0,81
357,25	0,81
357,711	0,81
358,172	0,81
358,633	0,81
359,093	0,82
359,554	0,82
360,015	0,82
360,476	0,82
360,936	0,82
361,397	0,82
361,858	0,82
362,318	0,83
362,779	0,83
363,239	0,83
363,7	0,83
364,16	0,83
364,621	0,83
365,081	0,83
365,541	0,83
366,002	0,83
366,462	0,83
366,922	0,83
367,383	0,83
367,843	0,83
368,303	0,83
368,763	0,83
369,223	0,83
369,684	0,83
370,144	0,83
370,604	0,83
371,064	0,83
371,524	0,83
371,984	0,83
372,444	0,83
372,904	0,83
373,363	0,83
373,823	0,83
374,283	0,83
374,743	0,83
375,203	0,82
375,663	0,82
376,122	0,82
376,582	0,82
377,042	0,82
377,501	0,82
377,961	0,82
378,42	0,82
378,88	0,82
379,34	0,82
379,799	0,82
380,259	0,82
380,718	0,82
381,177	0,82
381,637	0,82
382,096	0,82
382,555	0,82
383,015	0,82
383,474	0,82
383,933	0,82
384,393	0,82
384,852	0,82
385,311	0,82
385,77	0,82
386,229	0,82
386,688	0,82
387,147	0,82
387,606	0,82
388,065	0,82
388,524	0,82
388,983	0,82
389,442	0,81
389,901	0,81
390,36	0,81
390,819	0,81
391,277	0,81
391,736	0,81
392,195	0,81
392,654	0,81
393,112	0,81
393,571	0,81
394,03	0,81
394,488	0,81
394,947	0,81
395,405	0,81
395,864	0,81
396,322	0,81
396,781	0,81
397,239	0,81
397,698	0,81
398,156	0,81
398,614	0,81
399,073	0,81
399,531	0,81
399,989	0,81
400,447	0,81
400,905	0,81
401,364	0,81
401,822	0,81
402,28	0,8
402,738	0,8
403,196	0,8
403,654	0,8
404,112	0,8
404,57	0,8
405,028	0,8
405,486	0,8
405,944	0,8
406,402	0,8
406,859	0,8
407,317	0,8
407,775	0,8
408,233	0,8
408,691	0,8
409,148	0,8
409,606	0,8
410,064	0,8
410,521	0,8
410,979	0,8
411,436	0,8
411,894	0,8
412,351	0,8
412,809	0,8
413,266	0,8
413,724	0,8
414,181	0,8
414,638	0,8
415,096	0,8
415,553	0,8
416,01	0,8
416,467	0,8
416,925	0,8
417,382	0,8
417,839	0,8
418,296	0,8
418,753	0,8
419,21	0,8
419,667	0,8
420,124	0,8
420,581	0,8
421,038	0,8
421,495	0,8
421,952	0,79
422,409	0,79
422,866	0,79
423,322	0,8
423,779	0,8
424,236	0,8
424,693	0,8
425,149	0,8
425,606	0,8
426,063	0,8
426,519	0,8
426,976	0,8
427,433	0,8
427,889	0,8
428,346	0,8
428,802	0,79
429,258	0,79
429,715	0,79
430,171	0,79
430,628	0,79
431,084	0,79
431,54	0,79
431,997	0,79
432,453	0,79
432,909	0,79
433,365	0,79
433,821	0,79
434,277	0,79
434,734	0,79
435,19	0,79
435,646	0,79
436,102	0,79
436,558	0,79
437,014	0,79
437,47	0,79
437,925	0,79
438,381	0,79
438,837	0,79
439,293	0,79
439,749	0,79
440,205	0,79
440,66	0,79
441,116	0,79
441,572	0,79
442,027	0,79
442,483	0,79
442,939	0,79
443,394	0,79
443,85	0,79
444,305	0,79
444,761	0,79
445,216	0,79
445,672	0,8
446,127	0,8
446,582	0,8
447,038	0,8
447,493	0,8
447,948	0,8
448,403	0,8
448,859	0,8
449,314	0,8
449,769	0,8
450,224	0,8
450,679	0,8
451,134	0,8
451,589	0,8
452,044	0,8
452,499	0,8
452,954	0,8
453,409	0,8
453,864	0,8
454,319	0,8
454,774	0,8
455,229	0,8
455,684	0,8
456,138	0,8
456,593	0,8
457,048	0,8
457,503	0,8
457,957	0,8
458,412	0,8
458,866	0,8
459,321	0,8
459,776	0,8
460,23	0,81
460,685	0,81
461,139	0,81
461,593	0,81
462,048	0,81
462,502	0,81
462,957	0,81
463,411	0,81
463,865	0,81
464,319	0,81
464,774	0,81
465,228	0,82
465,682	0,82
466,136	0,82
466,59	0,82
467,044	0,82
467,499	0,82
467,953	0,82
468,407	0,82
468,861	0,82
469,315	0,82
469,768	0,82
470,222	0,82
470,676	0,82
471,13	0,83
471,584	0,83
472,038	0,83
472,491	0,83
472,945	0,83
473,399	0,83
473,852	0,83
474,306	0,83
474,76	0,83
475,213	0,84
475,667	0,84
476,12	0,84
476,574	0,84
477,027	0,84
477,481	0,84
477,934	0,85
478,388	0,85
478,841	0,85
479,294	0,85
479,748	0,85
480,201	0,86
480,654	0,86
481,107	0,86
481,561	0,86
482,014	0,86
482,467	0,86
482,92	0,87
483,373	0,87
483,826	0,87
484,279	0,87
484,732	0,87
485,185	0,88
485,638	0,88
486,091	0,88
486,544	0,88
486,997	0,88
487,449	0,89
487,902	0,89
488,355	0,89
488,808	0,9
489,26	0,9
489,713	0,9
490,166	0,9
490,618	0,91
491,071	0,91
491,523	0,91
491,976	0,92
492,429	0,92
492,881	0,92
493,333	0,92
493,786	0,93
494,238	0,93
494,691	0,94
495,143	0,94
495,595	0,94
496,048	0,95
496,5	0,95
496,952	0,95
497,404	0,96
497,856	0,96
498,309	0,97
498,761	0,97
499,213	0,97
499,665	0,98
500,117	0,98
500,569	0,99
501,021	0,99
501,473	1
501,925	1
502,377	1
502,828	1,01
503,28	1,01
503,732	1,02
504,184	1,02
504,636	1,02
505,087	1,03
505,539	1,03
505,991	1,04
506,442	1,04
506,894	1,04
507,345	1,05
507,797	1,05
508,249	1,06
508,7	1,06
509,151	1,07
509,603	1,07
510,054	1,07
510,506	1,08
510,957	1,08
511,408	1,09
511,86	1,09
512,311	1,1
512,762	1,1
513,213	1,1
513,665	1,11
514,116	1,11
514,567	1,11
515,018	1,12
515,469	1,12
515,92	1,12
516,371	1,12
516,822	1,13
517,273	1,13
517,724	1,13
518,175	1,14
518,626	1,14
519,076	1,14
519,527	1,14
519,978	1,15
520,429	1,15
520,88	1,15
521,33	1,15
521,781	1,15
522,232	1,16
522,682	1,16
523,133	1,16
523,583	1,16
524,034	1,16
524,484	1,17
524,935	1,17
525,385	1,17
525,836	1,17
526,286	1,17
526,736	1,17
527,187	1,17
527,637	1,17
528,087	1,17
528,538	1,17
528,988	1,17
529,438	1,17
529,888	1,16
530,338	1,16
530,788	1,16
531,238	1,16
531,688	1,16
532,139	1,16
532,589	1,15
533,038	1,15
533,488	1,15
533,938	1,15
534,388	1,15
534,838	1,14
535,288	1,14
535,738	1,14
536,187	1,13
536,637	1,13
537,087	1,12
537,537	1,12
537,986	1,12
538,436	1,11
538,885	1,11
539,335	1,1
539,785	1,1
540,234	1,09
540,684	1,09
541,133	1,08
541,582	1,08
542,032	1,07
542,481	1,07
542,931	1,06
543,38	1,05
543,829	1,05
544,278	1,04
544,728	1,04
545,177	1,03
545,626	1,03
546,075	1,02
546,524	1,02
546,973	1,02
547,422	1,01
547,871	1,01
548,32	1
548,769	1
549,218	1
549,667	0,99
550,116	0,99
550,565	0,98
551,014	0,98
551,463	0,97
551,911	0,97
552,36	0,96
552,809	0,96
553,258	0,95
553,706	0,95
554,155	0,94
554,603	0,94
555,052	0,93
555,501	0,93
555,949	0,92
556,398	0,92
556,846	0,91
557,294	0,91
557,743	0,9
558,191	0,9
558,64	0,89
559,088	0,88
559,536	0,88
559,985	0,87
560,433	0,87
560,881	0,86
561,329	0,86
561,777	0,85
562,225	0,85
562,674	0,85
563,122	0,84
563,57	0,84
564,018	0,83
564,466	0,83
564,914	0,82
565,362	0,82
565,809	0,82
566,257	0,81
566,705	0,81
567,153	0,8
567,601	0,8
568,048	0,79
568,496	0,79
568,944	0,78
569,392	0,78
569,839	0,78
570,287	0,77
570,734	0,77
571,182	0,77
571,63	0,76
572,077	0,76
572,525	0,75
572,972	0,75
573,419	0,75
573,867	0,74
574,314	0,74
574,761	0,73
575,209	0,73
575,656	0,73
576,103	0,72
576,551	0,72
576,998	0,72
577,445	0,71
577,892	0,71
578,339	0,71
578,786	0,7
579,233	0,7
579,68	0,7
580,127	0,69
580,574	0,69
581,021	0,69
581,468	0,68
581,915	0,68
582,362	0,68
582,809	0,68
583,255	0,67
583,702	0,67
584,149	0,67
584,596	0,67
585,042	0,66
585,489	0,66
585,936	0,66
586,382	0,65
586,829	0,65
587,275	0,65
587,722	0,65
588,168	0,65
588,615	0,64
589,061	0,64
589,508	0,64
589,954	0,64
590,4	0,63
590,847	0,63
591,293	0,63
591,739	0,62
592,185	0,62
592,632	0,62
593,078	0,62
593,524	0,62
593,97	0,62
594,416	0,62
594,862	0,61
595,308	0,61
595,754	0,61
596,2	0,61
596,646	0,61
597,092	0,6
597,538	0,6
597,984	0,6
598,43	0,6
598,876	0,6
599,321	0,6
599,767	0,6
600,213	0,59
600,659	0,59
601,104	0,59
601,55	0,59
601,995	0,59
602,441	0,59
602,887	0,59
603,332	0,58
603,778	0,58
604,223	0,58
604,668	0,58
605,114	0,58
605,559	0,58
606,005	0,58
606,45	0,58
606,895	0,58
607,341	0,57
607,786	0,57
608,231	0,57
608,676	0,56
609,121	0,56
609,566	0,55
610,012	0,55
610,457	0,54
610,902	0,54
611,347	0,54
611,792	0,53
612,237	0,53
612,682	0,53
613,127	0,53
613,571	0,53
614,016	0,54
614,461	0,54
614,906	0,54
615,351	0,54
615,795	0,54
616,24	0,54
616,685	0,54
617,129	0,54
617,574	0,54
618,019	0,54
618,463	0,54
618,908	0,54
619,352	0,54
619,797	0,54
620,241	0,54
620,686	0,54
621,13	0,54
621,574	0,54
622,019	0,54
622,463	0,53
622,907	0,53
623,352	0,53
623,796	0,53
624,24	0,53
624,684	0,53
625,128	0,53
625,572	0,53
626,016	0,53
626,461	0,53
626,905	0,53
627,349	0,53
627,793	0,53
628,236	0,53
628,68	0,53
629,124	0,53
629,568	0,53
630,012	0,53
630,456	0,52
630,9	0,52
631,343	0,52
631,787	0,52
632,231	0,52
632,674	0,52
633,118	0,52
633,562	0,52
634,005	0,52
634,449	0,52
634,892	0,52
635,336	0,52
635,779	0,52
636,223	0,52
636,666	0,52
637,109	0,52
637,553	0,52
637,996	0,52
638,439	0,52
638,883	0,52
639,326	0,52
639,769	0,52
640,212	0,51
640,655	0,51
641,099	0,51
641,542	0,51
641,985	0,51
642,428	0,51
642,871	0,51
643,314	0,51
643,757	0,51
644,2	0,51
644,643	0,51
645,085	0,51
645,528	0,51
645,971	0,51
646,414	0,5
646,857	0,5
647,299	0,5
647,742	0,5
648,185	0,5
648,627	0,5
649,07	0,5
649,513	0,5
649,955	0,5
650,398	0,5
650,84	0,5
651,283	0,5
651,725	0,5
652,168	0,5
652,61	0,5
653,052	0,5
653,495	0,5
653,937	0,41
654,379	0,36
654,821	0,36
655,264	0,36
655,706	0,36
656,148	0,36
656,59	0,36
657,032	0,36
657,474	0,36
657,916	0,36
658,358	0,36
658,8	0,42
659,242	0,5
659,684	0,5
660,126	0,5
660,568	0,5
661,01	0,5
661,452	0,5
661,894	0,49
662,335	0,49
662,777	0,49
663,219	0,49
663,661	0,49
664,102	0,49
664,544	0,49
664,985	0,49
665,427	0,49
665,869	0,49
666,31	0,49
666,752	0,49
667,193	0,49
667,634	0,49
668,076	0,49
668,517	0,49
668,959	0,49
669,4	0,49
669,841	0,49
670,282	0,49
670,724	0,49
671,165	0,49
671,606	0,49
672,047	0,49
672,488	0,49
672,929	0,49
673,37	0,49
673,811	0,49
674,252	0,49
674,693	0,49
675,134	0,49
675,575	0,49
676,016	0,48
676,457	0,48
676,898	0,48
677,339	0,48
677,78	0,48
678,22	0,48
678,661	0,48
679,102	0,48
679,542	0,48
679,983	0,48
680,424	0,48
680,864	0,48
681,305	0,48
681,745	0,49
682,186	0,49
682,626	0,49
683,067	0,49
683,507	0,49
683,948	0,49
684,388	0,49
684,828	0,49
685,269	0,48
685,709	0,48
686,149	0,48
686,589	0,48
687,029	0,48
687,47	0,48
687,91	0,48
688,35	0,48
688,79	0,48
689,23	0,48
689,67	0,48
690,11	0,48
690,55	0,48
690,99	0,48
691,43	0,47
691,87	0,47
692,31	0,47
692,749	0,47
693,189	0,47
693,629	0,47
694,069	0,47
694,508	0,47
694,948	0,47
695,388	0,47
695,827	0,47
696,267	0,47
696,706	0,47
697,146	0,47
697,586	0,47
698,025	0,47
698,464	0,47
698,904	0,47
699,343	0,47
699,783	0,47
700,222	0,47
700,661	0,47
701,101	0,47
701,54	0,47
701,979	0,47
702,418	0,47
702,857	0,47
703,297	0,47
703,736	0,47
704,175	0,47
704,614	0,47
705,053	0,47
705,492	0,47
705,931	0,47
706,37	0,47
706,809	0,47
707,248	0,47
707,687	0,47
708,125	0,47
708,564	0,47
709,003	0,47
709,442	0,47
709,88	0,47
710,319	0,47
710,758	0,47
711,196	0,47
711,635	0,47
712,074	0,46
712,512	0,46
712,951	0,46
713,389	0,46
713,828	0,46
714,266	0,46
714,705	0,46
715,143	0,46
715,581	0,46
716,02	0,46
716,458	0,46
716,896	0,46
717,334	0,46
717,773	0,46
718,211	0,46
718,649	0,46
719,087	0,46
719,525	0,46
719,963	0,46
720,401	0,46
720,839	0,46
721,277	0,46
721,715	0,46
722,153	0,46
722,591	0,46
723,029	0,46
723,467	0,46
723,905	0,46
724,342	0,46
724,78	0,46
725,218	0,46
725,656	0,46
726,093	0,46
726,531	0,46
726,969	0,46
727,406	0,46
727,844	0,46
728,281	0,46
728,719	0,46
729,156	0,46
729,594	0,46
730,031	0,46
730,469	0,46
730,906	0,46
731,343	0,46
731,781	0,46
732,218	0,45
732,655	0,45
733,092	0,45
733,53	0,45
733,967	0,45
734,404	0,45
734,841	0,45
735,278	0,45
735,715	0,45
736,152	0,45
736,589	0,45
737,026	0,45
737,463	0,45
737,9	0,45
738,337	0,45
738,774	0,45
739,211	0,45
739,647	0,45
740,084	0,45
740,521	0,45
740,958	0,45
741,394	0,45
741,831	0,45
742,268	0,45
742,704	0,45
743,141	0,45
743,577	0,45
744,014	0,45
744,45	0,45
744,887	0,45
745,323	0,45
745,76	0,44
746,196	0,44
746,632	0,44
747,069	0,44
747,505	0,44
747,941	0,44
748,378	0,44
748,814	0,44
749,25	0,44
749,686	0,44
750,122	0,44
750,558	0,45
750,994	0,45
751,43	0,45
751,866	0,45
752,302	0,45
752,738	0,45
753,174	0,45
753,61	0,45
754,046	0,45
754,482	0,45
754,918	0,45
755,354	0,45
755,789	0,45
756,225	0,45
756,661	0,44
757,096	0,44
757,532	0,44
757,968	0,44
758,403	0,44
758,839	0,43
759,274	0,43
759,71	0,42
760,145	0,42
760,581	0,41
761,016	0,41
761,452	0,4
761,887	0,4
762,322	0,4
762,758	0,39
763,193	0,39
763,628	0,38
764,063	0,37
764,499	0,37
764,934	0,36
765,369	0,35
765,804	0,34
766,239	0,34
766,674	0,33
767,109	0,32
767,544	0,31
767,979	0,3
768,414	0,29
768,849	0,28
769,284	0,27
769,719	0,26
770,154	0,25
770,588	0,24
771,023	0,23
771,458	0,22
771,893	0,21
772,327	0,2
772,762	0,19
773,197	0,18
773,631	0,17
774,066	0,16
774,5	0,15
774,935	0,14
775,369	0,13
775,804	0,11
776,238	0,11
776,673	0,1
777,107	0,09
777,541	0,08
777,976	0,07
778,41	0,06
778,844	0,05
779,279	0,04
779,713	0,04
780,147	0,02
780,581	0,02
781,015	0,01
781,449	-0
781,883	-0,01
782,317	-0,03
782,751	-0,04
783,185	-0,05
783,619	-0,05
784,053	-0,06
784,487	-0,08
784,921	-0,08
785,355	-0,08
785,789	-0,09
786,223	-0,1
786,656	-0,12
787,09	-0,13
787,524	-0,13
787,957	-0,14
788,391	-0,16
788,825	-0,18
789,258	-0,19
789,692	-0,21
790,125	-0,23
790,559	-0,24
790,992	-0,26
791,426	-0,28
791,859	-0,3
792,293	-0,33
792,726	-0,34
793,159	-0,37
793,593	-0,38
794,026	-0,4
794,459	-0,43
794,892	-0,46
795,326	-0,48
795,759	-0,52
796,192	-0,56
796,625	-0,61
797,058	-0,63
797,491	-0,68
797,924	-0,72
798,357	-0,76
798,79	-0,81
799,223	-0,85
799,656	-0,9
800,089	-0,95
800,522	-1
800,955	-1,04
801,387	-1,1
801,82	-1,15
802,253	-1,21
802,686	-1,29
803,118	-1,35
803,551	-1,4
803,984	-1,45
804,416	-1,48
804,849	-1,53
805,281	-1,69
805,714	-2,08
806,146	-2,49
806,579	-2,74
807,011	-2,89
807,444	-2,98
807,876	-3,06
808,308	-3,09
808,741	-3,12
809,173	-3,17
809,605	-3,19
810,037	-3,26
810,47	-3,17
810,902	-2,97
811,334	-2,82
811,766	-2,65
812,198	-2,39
812,63	-1,97
813,062	-1,77
813,494	-1,68
813,926	-1,59
814,358	-1,54
814,79	-1,46
815,222	-1,4
815,654	-1,35
816,086	-1,29
816,518	-1,23
816,949	-1,18
817,381	-1,14
817,813	-1,12
818,245	-1,08
818,676	-1,04
819,108	-1,01
819,54	-1
819,971	-0,98
820,403	-0,93
820,834	-0,91
821,266	-0,87
821,697	-0,85
822,129	-0,83
822,56	-0,81
822,991	-0,78
823,423	-0,75
823,854	-0,75
824,286	-0,72
824,717	-0,71
825,148	-0,7
825,579	-0,69
826,01	-0,68
826,442	-0,68
826,873	-0,66
827,304	-0,63
827,735	-0,62
828,166	-0,63
828,597	-0,62
829,028	-0,62
829,459	-0,63
829,89	-0,63
830,321	-0,58
830,752	-0,59
831,183	-0,58
831,613	-0,57
832,044	-0,57
832,475	-0,56
832,906	-0,57
833,336	-0,57
833,767	-0,57
834,198	-0,56
834,628	-0,54
835,059	-0,57
835,49	-0,57
835,92	-0,54
836,351	-0,54
836,781	-0,55
837,212	-0,56
837,642	-0,57
838,072	-0,55
838,503	-0,56
838,933	-0,54
839,364	-0,55
839,794	-0,53
840,224	-0,52
840,654	-0,56
841,085	-0,57
841,515	-0,54
841,945	-0,54
842,375	-0,49
842,805	-0,48
843,235	-0,47
843,665	-0,49
844,095	-0,47
844,525	-0,5
844,955	-0,5
845,385	-0,47
845,815	-0,46
846,245	-0,48
846,675	-0,48
847,105	-0,51
847,534	-0,51
847,964	-0,49
848,394	-0,47
848,824	-0,51
849,253	-0,5
849,683	-0,5
850,112	-0,51
850,542	-0,55
850,972	-0,56
851,401	-0,54
851,831	-0,53
852,26	-0,54
852,69	-0,58
853,119	-0,57
853,548	-0,57
853,978	-0,57
854,407	-0,56
854,836	-0,56
855,266	-0,55
855,695	-0,55
856,124	-0,57
856,553	-0,57
856,983	-0,59
857,412	-0,58
857,841	-0,6
858,27	-0,6
858,699	-0,61
859,128	-0,63
859,557	-0,64
859,986	-0,65
860,415	-0,62
860,844	-0,6
861,273	-0,6
861,702	-0,61
862,13	-0,6
862,559	-0,61
862,988	-0,59
863,417	-0,58
863,845	-0,57
864,274	-0,57
864,703	-0,56
865,131	-0,57
865,56	-0,58
865,989	-0,61
866,417	-0,57
866,846	-0,57
867,274	-0,57
867,703	-0,59
868,131	-0,61
868,559	-0,6
868,988	-0,62
869,416	-0,62
869,844	-0,64
870,273	-0,65
870,701	-0,64
871,129	-0,67
871,557	-0,69
871,986	-0,69
872,414	-0,7
872,842	-0,67
873,27	-0,66
873,698	-0,64
874,126	-0,67
874,554	-0,66
874,982	-0,65
875,41	-0,68
875,838	-0,63
876,266	-0,61
876,694	-0,61
877,122	-0,6
877,549	-0,66
877,977	-0,62
878,405	-0,64
878,833	-0,61
879,26	-0,59
879,688	-0,6
880,116	-0,58
880,543	-0,57
880,971	-0,55
881,399	-0,59
881,826	-0,59
882,254	-0,56
882,681	-0,61
883,109	-0,57
883,536	-0,58
883,963	-0,6
884,391	-0,58
884,818	-0,57
885,245	-0,6
885,673	-0,62
886,1	-0,59
886,527	-0,59
886,954	-0,55
887,381	-0,57
887,809	-0,58
888,236	-0,6
888,663	-0,61
889,09	-0,64
889,517	-0,66
889,944	-0,65
890,371	-0,64
890,798	-0,64
891,225	-0,64
891,652	-0,67
892,078	-0,64
892,505	-0,66
892,932	-0,61
893,359	-0,62
893,786	-0,62
894,212	-0,59
894,639	-0,61
895,066	-0,63
895,492	-0,57
895,919	-0,58
896,346	-0,58
896,772	-0,58
897,199	-0,56
897,625	-0,59
898,052	-0,56
898,478	-0,54
898,904	-0,55
899,331	-0,54
899,757	-0,56
900,183	-0,59
900,61	-0,57
901,036	-0,58
901,462	-0,57
901,888	-0,57
902,315	-0,55
902,741	-0,6
903,167	-0,58
903,593	-0,62
904,019	-0,6
904,445	-0,57
904,871	-0,6
905,297	-0,61
905,723	-0,59
906,149	-0,59
906,575	-0,59
907,001	-0,59
907,427	-0,56
907,852	-0,56
908,278	-0,57
908,704	-0,54
909,13	-0,54
909,555	-0,53
909,981	-0,53
910,407	-0,54
910,832	-0,54
911,258	-0,54
911,684	-0,54
912,109	-0,54
912,535	-0,56
912,96	-0,51
913,386	-0,55
913,811	-0,55
914,236	-0,56
914,662	-0,54
915,087	-0,57
915,512	-0,57
915,938	-0,59
916,363	-0,57
916,788	-0,59
917,213	-0,58
917,639	-0,63
918,064	-0,61
918,489	-0,61
918,914	-0,61
919,339	-0,62
919,764	-0,6
920,189	-0,6
920,614	-0,62
921,039	-0,62
921,464	-0,58
921,889	-0,6
922,314	-0,61
922,738	-0,64
923,163	-0,65
923,588	-0,65
924,013	-0,64
924,437	-0,64
924,862	-0,64
925,287	-0,61
925,711	-0,62
926,136	-0,63
926,561	-0,61
926,985	-0,6
927,41	-0,57
927,834	-0,55
928,259	-0,53
928,683	-0,51
929,108	-0,48
929,532	-0,5
929,956	-0,49
930,381	-0,49
930,805	-0,48
931,229	-0,48
931,653	-0,47
932,078	-0,47
932,502	-0,48
932,926	-0,49
933,35	-0,49
933,774	-0,49
934,198	-0,47
934,622	-0,46
935,046	-0,47
935,47	-0,48
935,894	-0,47
936,318	-0,47
936,742	-0,47
937,166	-0,47
937,59	-0,46
938,014	-0,49
938,437	-0,49
938,861	-0,51
939,285	-0,52
939,709	-0,5
940,132	-0,51
940,556	-0,51
940,98	-0,51
941,403	-0,49
941,827	-0,5
942,25	-0,51
942,674	-0,49
943,097	-0,49
943,521	-0,48
943,944	-0,49
944,368	-0,48
944,791	-0,48
945,214	-0,5
945,638	-0,51
946,061	-0,53
946,484	-0,54
946,907	-0,53
947,331	-0,53
947,754	-0,57
948,177	-0,54
948,6	-0,55
949,023	-0,55
949,446	-0,54
949,869	-0,52
950,292	-0,52
950,715	-0,49
951,138	-0,46
951,561	-0,44
951,984	-0,44
952,407	-0,43
952,83	-0,41
953,252	-0,37
953,675	-0,36
954,098	-0,37
954,521	-0,34
954,943	-0,34
955,366	-0,36
955,789	-0,34
956,211	-0,36
956,634	-0,37
957,056	-0,34
957,479	-0,35
957,902	-0,38
958,324	-0,38
958,746	-0,37
959,169	-0,38
959,591	-0,38
960,014	-0,39
960,436	-0,39
960,858	-0,39
961,281	-0,38
961,703	-0,4
962,125	-0,39
962,547	-0,37
962,969	-0,39
963,391	-0,39
963,814	-0,4
964,236	-0,39
964,658	-0,36
965,08	-0,37
965,502	-0,36
965,924	-0,34
966,346	-0,33
966,768	-0,33
967,189	-0,36
967,611	-0,35
968,033	-0,35
968,455	-0,33
968,877	-0,34
969,298	-0,35
969,72	-0,35
970,142	-0,34
970,563	-0,34
970,985	-0,34
971,407	-0,33
971,828	-0,3
972,25	-0,29
972,671	-0,27
973,093	-0,27
973,514	-0,24
973,936	-0,23
974,357	-0,22
974,778	-0,22
975,2	-0,22
975,621	-0,21
976,042	-0,2
976,464	-0,18
976,885	-0,18
977,306	-0,17
977,727	-0,17
978,148	-0,17
978,57	-0,15
978,991	-0,13
979,412	-0,11
979,833	-0,1
980,254	-0,09
980,675	-0,09
981,096	-0,08
981,517	-0,05
981,937	-0,05
982,358	-0,04
982,779	-0,02
983,2	-0,03
983,621	-0,02
984,042	-0,01
984,462	-0
984,883	0,02
985,304	0,03
985,724	0,04
986,145	0,05
986,565	0,07
986,986	0,08
987,407	0,09
987,827	0,11
988,248	0,12
988,668	0,13
989,088	0,15
989,509	0,16
989,929	0,17
990,35	0,18
990,77	0,19
991,19	0,2
991,61	0,22
992,031	0,23
992,451	0,24
992,871	0,25
993,291	0,26
993,711	0,27
994,131	0,28
994,551	0,29
994,971	0,29
995,391	0,3
995,811	0,31
996,231	0,32
996,651	0,33
997,071	0,34
997,491	0,34
997,911	0,35
998,331	0,35
998,75	0,36
999,17	0,36
999,59	0,37
1000,009	0,38
1000,429	0,38
1000,849	0,39
1001,268	0,39
1001,688	0,4
1002,107	0,4
1002,527	0,41
1002,946	0,41
1003,366	0,42
1003,785	0,42
1004,205	0,42
1004,624	0,43
1005,044	0,43
1005,463	0,43
1005,882	0,43
1006,301	0,44
1006,721	0,44
1007,14	0,44
1007,559	0,44
1007,978	0,44
1008,397	0,44
1008,816	0,44
1009,235	0,44
1009,655	0,44
1010,074	0,44
1010,492	0,44
1010,911	0,44
1011,33	0,44
1011,749	0,44
1012,168	0,44
1012,587	0,44
1013,006	0,44
1013,425	0,44
1013,843	0,44
1014,262	0,44
1014,681	0,44
1015,099	0,44
1015,518	0,43
1015,937	0,43
1016,355	0,43
1016,774	0,43
1017,192	0,43
1017,611	0,43
1018,029	0,43
1018,448	0,43
1018,866	0,43
1019,285	0,43
1019,703	0,43
1020,121	0,43
1020,54	0,43
1020,958	0,43
1021,376	0,43
1021,794	0,43
1022,213	0,43
1022,631	0,43
1023,049	0,43
1023,467	0,43
1023,885	0,43
1024,303	0,43
1024,721	0,43
1025,139	0,42
1025,557	0,42
1025,975	0,42
1026,393	0,42
1026,811	0,42
1027,229	0,42
1027,647	0,42
1028,065	0,42
1028,482	0,42
1028,9	0,42
1029,318	0,42
1029,735	0,42
1030,153	0,42
1030,571	0,42
1030,988	0,42
1031,406	0,42
1031,823	0,42
1032,241	0,42
1032,659	0,42
1033,076	0,42
1033,493	0,42
1033,911	0,42
1034,328	0,42
1034,746	0,42
1035,163	0,42
1035,58	0,42
1035,997	0,42
1036,415	0,42
1036,832	0,42
1037,249	0,42
1037,666	0,42
1038,083	0,42
1038,501	0,42
1038,918	0,42
1039,335	0,42
1039,752	0,42
1040,169	0,42
1040,586	0,42
1041,003	0,42
1041,419	0,42
1041,836	0,42
1042,253	0,42
1042,67	0,42
1043,087	0,42
1043,504	0,42
1043,92	0,42
1044,337	0,42
1044,754	0,42
1045,17	0,42
1045,587	0,42
1046,004	0,42
1046,42	0,41
1046,837	0,41
1047,253	0,41
1047,67	0,41
1048,086	0,41
1048,503	0,41
1048,919	0,41
1049,335	0,41
1049,752	0,41
1050,168	0,41
1050,584	0,41
1051,001	0,42
1051,417	0,42
1051,833	0,42
1052,249	0,42
1052,665	0,42
1053,081	0,42
1053,497	0,42
1053,914	0,42
1054,33	0,42
1054,746	0,42
1055,162	0,43
1055,578	0,43
1055,993	0,43
1056,409	0,43
1056,825	0,43
1057,241	0,43
1057,657	0,43
1058,073	0,43
1058,488	0,43
1058,904	0,43
1059,32	0,43
1059,736	0,43
1060,151	0,43
1060,567	0,43
1060,982	0,43
1061,398	0,43
1061,813	0,43
1062,229	0,43
1062,644	0,43
1063,06	0,43
1063,475	0,42
1063,891	0,42
1064,306	0,42
1064,721	0,42
1065,137	0,42
1065,552	0,42
1065,967	0,42
1066,382	0,42
1066,798	0,42
1067,213	0,42
1067,628	0,42
1068,043	0,42
1068,458	0,42
1068,873	0,42
1069,288	0,42
1069,703	0,42
1070,118	0,42
1070,533	0,42
1070,948	0,42
1071,363	0,42
1071,778	0,42
1072,193	0,42
1072,607	0,42
1073,022	0,42
1073,437	0,42
1073,852	0,43
1074,266	0,43
1074,681	0,43
1075,096	0,43
1075,51	0,42
1075,925	0,42
1076,339	0,42
1076,754	0,42
1077,168	0,42
1077,583	0,42
1077,997	0,42
1078,412	0,42
1078,826	0,42
1079,24	0,42
1079,655	0,42
1080,069	0,42
1080,483	0,42
1080,897	0,42
1081,312	0,42
1081,726	0,42
1082,14	0,41
1082,554	0,41
1082,968	0,41
1083,382	0,41
1083,796	0,41
1084,21	0,41
1084,624	0,41
1085,038	0,41
1085,452	0,41
1085,866	0,41
1086,28	0,4
1086,694	0,4
1087,108	0,4
1087,521	0,4
1087,935	0,4
1088,349	0,4
1088,763	0,39
1089,176	0,39
1089,59	0,39
1090,004	0,39
1090,417	0,38
1090,831	0,38
1091,244	0,37
1091,658	0,37
1092,071	0,37
1092,485	0,37
1092,898	0,36
1093,312	0,36
1093,725	0,36
1094,138	0,36
1094,552	0,35
1094,965	0,35
1095,378	0,35
1095,791	0,35
1096,205	0,34
1096,618	0,34
1097,031	0,33
1097,444	0,33
1097,857	0,33
1098,27	0,33
1098,683	0,32
1099,096	0,32
1099,509	0,32
1099,922	0,31
1100,335	0,31
1100,748	0,3
1101,161	0,3
1101,574	0,3
1101,986	0,29
1102,399	0,29
1102,812	0,28
1103,225	0,28
1103,637	0,27
1104,05	0,27
1104,463	0,27
1104,875	0,26
1105,288	0,26
1105,7	0,26
1106,113	0,25
1106,525	0,25
1106,938	0,25
1107,35	0,24
1107,763	0,24
1108,175	0,24
1108,588	0,23
1109	0,23
1109,412	0,22
1109,824	0,22
1110,237	0,22
1110,649	0,23
1111,061	0,22
