Data from 18C-808nm-8A-cont_Absorbance__377__01806.txt Node

Date: Mon Jul 17 17:32:18 CEST 2023
User: Laser008
Spectrometer: MAYP115816
Trigger mode: 0
Integration Time (sec): 2,500000E-1
Scans to average: 10
Electric dark correction enabled: true
Nonlinearity correction enabled: true
Boxcar width: 5
XAxis mode: Wavelengths
Number of Pixels in Spectrum: 2068
>>>>>Begin Spectral Data<<<<<
198,914	-0,66
199,384	-0,45
199,855	-0,35
200,325	-0,28
200,796	-0,24
201,266	-0,19
201,737	-0,18
202,207	-0,17
202,677	-0,16
203,147	-0,15
203,618	-0,11
204,088	-0,09
204,558	-0,07
205,028	-0,06
205,498	-0,06
205,968	-0,06
206,439	-0,08
206,909	-0,08
207,379	-0,09
207,849	-0,09
208,319	-0,1
208,789	-0,11
209,258	-0,1
209,728	-0,12
210,198	-0,12
210,668	-0,12
211,138	-0,12
211,608	-0,12
212,077	-0,11
212,547	-0,11
213,017	-0,11
213,486	-0,11
213,956	-0,12
214,426	-0,14
214,895	-0,14
215,365	-0,15
215,834	-0,15
216,304	-0,16
216,773	-0,16
217,243	-0,17
217,712	-0,18
218,181	-0,18
218,651	-0,17
219,12	-0,17
219,589	-0,17
220,058	-0,15
220,528	-0,16
220,997	-0,17
221,466	-0,18
221,935	-0,19
222,404	-0,19
222,873	-0,18
223,342	-0,18
223,812	-0,19
224,281	-0,19
224,749	-0,19
225,218	-0,21
225,687	-0,21
226,156	-0,19
226,625	-0,18
227,094	-0,17
227,563	-0,17
228,031	-0,18
228,5	-0,18
228,969	-0,19
229,438	-0,18
229,906	-0,17
230,375	-0,16
230,844	-0,15
231,312	-0,15
231,781	-0,16
232,249	-0,15
232,718	-0,15
233,186	-0,14
233,655	-0,14
234,123	-0,13
234,591	-0,14
235,06	-0,15
235,528	-0,15
235,996	-0,15
236,465	-0,16
236,933	-0,15
237,401	-0,15
237,869	-0,14
238,337	-0,14
238,805	-0,14
239,274	-0,13
239,742	-0,13
240,21	-0,12
240,678	-0,11
241,146	-0,1
241,614	-0,09
242,081	-0,09
242,549	-0,09
243,017	-0,1
243,485	-0,1
243,953	-0,1
244,421	-0,1
244,888	-0,1
245,356	-0,11
245,824	-0,11
246,291	-0,12
246,759	-0,13
247,227	-0,13
247,694	-0,12
248,162	-0,11
248,629	-0,11
249,097	-0,12
249,564	-0,13
250,032	-0,13
250,499	-0,13
250,967	-0,13
251,434	-0,13
251,901	-0,12
252,369	-0,12
252,836	-0,14
253,303	-0,16
253,77	-0,17
254,237	-0,16
254,705	-0,16
255,172	-0,14
255,639	-0,15
256,106	-0,15
256,573	-0,15
257,04	-0,17
257,507	-0,17
257,974	-0,17
258,441	-0,14
258,908	-0,15
259,375	-0,17
259,841	-0,17
260,308	-0,18
260,775	-0,18
261,242	-0,17
261,709	-0,18
262,175	-0,19
262,642	-0,18
263,109	-0,17
263,575	-0,19
264,042	-0,17
264,508	-0,17
264,975	-0,18
265,441	-0,19
265,908	-0,2
266,374	-0,19
266,841	-0,2
267,307	-0,2
267,773	-0,19
268,24	-0,2
268,706	-0,2
269,172	-0,21
269,639	-0,22
270,105	-0,2
270,571	-0,2
271,037	-0,2
271,503	-0,21
271,969	-0,21
272,435	-0,2
272,902	-0,22
273,368	-0,23
273,834	-0,23
274,3	-0,24
274,765	-0,23
275,231	-0,23
275,697	-0,23
276,163	-0,23
276,629	-0,23
277,095	-0,22
277,56	-0,22
278,026	-0,22
278,492	-0,2
278,958	-0,2
279,423	-0,2
279,889	-0,2
280,354	-0,2
280,82	-0,2
281,286	-0,21
281,751	-0,21
282,217	-0,21
282,682	-0,21
283,147	-0,21
283,613	-0,21
284,078	-0,22
284,544	-0,23
285,009	-0,24
285,474	-0,23
285,939	-0,25
286,405	-0,24
286,87	-0,23
287,335	-0,23
287,8	-0,21
288,265	-0,2
288,73	-0,22
289,195	-0,23
289,66	-0,23
290,125	-0,2
290,59	-0,2
291,055	-0,19
291,52	-0,19
291,985	-0,2
292,45	-0,21
292,915	-0,22
293,38	-0,23
293,844	-0,2
294,309	-0,19
294,774	-0,18
295,239	-0,2
295,703	-0,21
296,168	-0,19
296,632	-0,18
297,097	-0,17
297,562	-0,16
298,026	-0,17
298,491	-0,17
298,955	-0,17
299,419	-0,17
299,884	-0,17
300,348	-0,16
300,813	-0,14
301,277	-0,15
301,741	-0,16
302,205	-0,15
302,67	-0,14
303,134	-0,14
303,598	-0,13
304,062	-0,13
304,526	-0,12
304,99	-0,13
305,454	-0,13
305,919	-0,13
306,383	-0,14
306,847	-0,13
307,31	-0,15
307,774	-0,15
308,238	-0,15
308,702	-0,15
309,166	-0,17
309,63	-0,17
310,094	-0,14
310,557	-0,13
311,021	-0,13
311,485	-0,13
311,948	-0,12
312,412	-0,11
312,876	-0,1
313,339	-0,11
313,803	-0,11
314,266	-0,1
314,73	-0,1
315,193	-0,1
315,657	-0,1
316,12	-0,09
316,584	-0,07
317,047	-0,07
317,51	-0,06
317,973	-0,06
318,437	-0,05
318,9	-0,03
319,363	-0,03
319,826	-0,03
320,29	-0,03
320,753	-0,03
321,216	-0,03
321,679	-0,04
322,142	-0,04
322,605	-0,06
323,068	-0,05
323,531	-0,06
323,994	-0,07
324,457	-0,07
324,92	-0,06
325,382	-0,05
325,845	-0,05
326,308	-0,04
326,771	-0,03
327,233	-0,03
327,696	-0,02
328,159	-0,01
328,622	0
329,084	0,01
329,547	0,02
330,009	0,02
330,472	0,03
330,934	0,03
331,397	0,03
331,859	0,03
332,322	0,04
332,784	0,04
333,246	0,04
333,709	0,04
334,171	0,04
334,633	0,04
335,096	0,04
335,558	0,04
336,02	0,05
336,482	0,05
336,944	0,06
337,406	0,07
337,868	0,08
338,331	0,08
338,793	0,1
339,255	0,11
339,717	0,11
340,178	0,12
340,64	0,12
341,102	0,13
341,564	0,14
342,026	0,15
342,488	0,16
342,949	0,18
343,411	0,2
343,873	0,22
344,335	0,25
344,796	0,29
345,258	0,34
345,719	0,39
346,181	0,44
346,643	0,48
347,104	0,52
347,566	0,55
348,027	0,58
348,488	0,6
348,95	0,62
349,411	0,65
349,873	0,67
350,334	0,69
350,795	0,71
351,256	0,72
351,718	0,72
352,179	0,73
352,64	0,73
353,101	0,74
353,562	0,74
354,023	0,75
354,484	0,75
354,945	0,75
355,406	0,75
355,867	0,75
356,328	0,76
356,789	0,76
357,25	0,77
357,711	0,77
358,172	0,77
358,633	0,77
359,093	0,77
359,554	0,77
360,015	0,77
360,476	0,78
360,936	0,78
361,397	0,78
361,858	0,78
362,318	0,78
362,779	0,78
363,239	0,78
363,7	0,78
364,16	0,78
364,621	0,78
365,081	0,78
365,541	0,78
366,002	0,78
366,462	0,78
366,922	0,78
367,383	0,78
367,843	0,78
368,303	0,78
368,763	0,78
369,223	0,78
369,684	0,78
370,144	0,78
370,604	0,78
371,064	0,78
371,524	0,78
371,984	0,78
372,444	0,78
372,904	0,78
373,363	0,77
373,823	0,77
374,283	0,77
374,743	0,77
375,203	0,77
375,663	0,77
376,122	0,77
376,582	0,77
377,042	0,77
377,501	0,77
377,961	0,77
378,42	0,77
378,88	0,77
379,34	0,77
379,799	0,77
380,259	0,77
380,718	0,77
381,177	0,77
381,637	0,77
382,096	0,77
382,555	0,77
383,015	0,77
383,474	0,77
383,933	0,77
384,393	0,77
384,852	0,77
385,311	0,77
385,77	0,77
386,229	0,77
386,688	0,77
387,147	0,77
387,606	0,76
388,065	0,76
388,524	0,76
388,983	0,76
389,442	0,76
389,901	0,76
390,36	0,76
390,819	0,76
391,277	0,76
391,736	0,76
392,195	0,76
392,654	0,76
393,112	0,76
393,571	0,76
394,03	0,76
394,488	0,76
394,947	0,76
395,405	0,76
395,864	0,76
396,322	0,76
396,781	0,76
397,239	0,76
397,698	0,76
398,156	0,76
398,614	0,76
399,073	0,76
399,531	0,76
399,989	0,76
400,447	0,76
400,905	0,75
401,364	0,75
401,822	0,75
402,28	0,75
402,738	0,75
403,196	0,75
403,654	0,75
404,112	0,75
404,57	0,75
405,028	0,75
405,486	0,75
405,944	0,75
406,402	0,75
406,859	0,75
407,317	0,75
407,775	0,75
408,233	0,75
408,691	0,75
409,148	0,75
409,606	0,75
410,064	0,75
410,521	0,75
410,979	0,75
411,436	0,75
411,894	0,75
412,351	0,75
412,809	0,75
413,266	0,75
413,724	0,75
414,181	0,75
414,638	0,74
415,096	0,74
415,553	0,74
416,01	0,74
416,467	0,74
416,925	0,74
417,382	0,74
417,839	0,74
418,296	0,74
418,753	0,74
419,21	0,74
419,667	0,74
420,124	0,74
420,581	0,74
421,038	0,74
421,495	0,74
421,952	0,74
422,409	0,74
422,866	0,74
423,322	0,74
423,779	0,74
424,236	0,74
424,693	0,74
425,149	0,74
425,606	0,74
426,063	0,74
426,519	0,74
426,976	0,74
427,433	0,74
427,889	0,74
428,346	0,74
428,802	0,74
429,258	0,74
429,715	0,74
430,171	0,74
430,628	0,74
431,084	0,74
431,54	0,74
431,997	0,74
432,453	0,74
432,909	0,74
433,365	0,74
433,821	0,74
434,277	0,74
434,734	0,74
435,19	0,74
435,646	0,74
436,102	0,74
436,558	0,74
437,014	0,74
437,47	0,74
437,925	0,74
438,381	0,74
438,837	0,74
439,293	0,74
439,749	0,74
440,205	0,74
440,66	0,74
441,116	0,74
441,572	0,74
442,027	0,74
442,483	0,74
442,939	0,74
443,394	0,74
443,85	0,74
444,305	0,74
444,761	0,74
445,216	0,74
445,672	0,74
446,127	0,74
446,582	0,74
447,038	0,74
447,493	0,74
447,948	0,74
448,403	0,74
448,859	0,74
449,314	0,74
449,769	0,74
450,224	0,74
450,679	0,75
451,134	0,75
451,589	0,75
452,044	0,75
452,499	0,75
452,954	0,75
453,409	0,75
453,864	0,75
454,319	0,75
454,774	0,75
455,229	0,75
455,684	0,75
456,138	0,75
456,593	0,75
457,048	0,75
457,503	0,75
457,957	0,75
458,412	0,75
458,866	0,75
459,321	0,75
459,776	0,75
460,23	0,75
460,685	0,75
461,139	0,75
461,593	0,75
462,048	0,75
462,502	0,76
462,957	0,76
463,411	0,76
463,865	0,76
464,319	0,76
464,774	0,76
465,228	0,76
465,682	0,76
466,136	0,76
466,59	0,76
467,044	0,76
467,499	0,77
467,953	0,77
468,407	0,77
468,861	0,77
469,315	0,77
469,768	0,77
470,222	0,77
470,676	0,77
471,13	0,77
471,584	0,77
472,038	0,77
472,491	0,77
472,945	0,77
473,399	0,78
473,852	0,78
474,306	0,78
474,76	0,78
475,213	0,78
475,667	0,78
476,12	0,78
476,574	0,79
477,027	0,79
477,481	0,79
477,934	0,79
478,388	0,79
478,841	0,79
479,294	0,8
479,748	0,8
480,201	0,8
480,654	0,8
481,107	0,8
481,561	0,8
482,014	0,81
482,467	0,81
482,92	0,81
483,373	0,81
483,826	0,81
484,279	0,82
484,732	0,82
485,185	0,82
485,638	0,82
486,091	0,82
486,544	0,83
486,997	0,83
487,449	0,83
487,902	0,83
488,355	0,84
488,808	0,84
489,26	0,84
489,713	0,84
490,166	0,85
490,618	0,85
491,071	0,85
491,523	0,86
491,976	0,86
492,429	0,86
492,881	0,86
493,333	0,87
493,786	0,87
494,238	0,87
494,691	0,88
495,143	0,88
495,595	0,89
496,048	0,89
496,5	0,89
496,952	0,9
497,404	0,9
497,856	0,9
498,309	0,91
498,761	0,91
499,213	0,91
499,665	0,92
500,117	0,92
500,569	0,93
501,021	0,93
501,473	0,93
501,925	0,94
502,377	0,94
502,828	0,95
503,28	0,95
503,732	0,96
504,184	0,96
504,636	0,96
505,087	0,97
505,539	0,97
505,991	0,98
506,442	0,98
506,894	0,98
507,345	0,99
507,797	0,99
508,249	1
508,7	1
509,151	1
509,603	1,01
510,054	1,01
510,506	1,02
510,957	1,02
511,408	1,02
511,86	1,03
512,311	1,03
512,762	1,03
513,213	1,04
513,665	1,04
514,116	1,04
514,567	1,05
515,018	1,05
515,469	1,05
515,92	1,06
516,371	1,06
516,822	1,06
517,273	1,07
517,724	1,07
518,175	1,07
518,626	1,07
519,076	1,08
519,527	1,08
519,978	1,08
520,429	1,09
520,88	1,09
521,33	1,09
521,781	1,09
522,232	1,09
522,682	1,09
523,133	1,1
523,583	1,1
524,034	1,1
524,484	1,1
524,935	1,1
525,385	1,1
525,836	1,1
526,286	1,1
526,736	1,1
527,187	1,1
527,637	1,1
528,087	1,1
528,538	1,1
528,988	1,1
529,438	1,1
529,888	1,1
530,338	1,1
530,788	1,09
531,238	1,09
531,688	1,09
532,139	1,09
532,589	1,09
533,038	1,09
533,488	1,08
533,938	1,08
534,388	1,08
534,838	1,08
535,288	1,07
535,738	1,07
536,187	1,07
536,637	1,06
537,087	1,06
537,537	1,06
537,986	1,05
538,436	1,05
538,885	1,04
539,335	1,04
539,785	1,03
540,234	1,03
540,684	1,03
541,133	1,02
541,582	1,02
542,032	1,01
542,481	1,01
542,931	1
543,38	1
543,829	0,99
544,278	0,99
544,728	0,98
545,177	0,98
545,626	0,97
546,075	0,97
546,524	0,96
546,973	0,96
547,422	0,95
547,871	0,95
548,32	0,95
548,769	0,94
549,218	0,94
549,667	0,94
550,116	0,93
550,565	0,93
551,014	0,92
551,463	0,92
551,911	0,91
552,36	0,91
552,809	0,9
553,258	0,9
553,706	0,89
554,155	0,89
554,603	0,88
555,052	0,88
555,501	0,87
555,949	0,87
556,398	0,86
556,846	0,86
557,294	0,85
557,743	0,85
558,191	0,85
558,64	0,84
559,088	0,83
559,536	0,83
559,985	0,82
560,433	0,82
560,881	0,81
561,329	0,81
561,777	0,8
562,225	0,8
562,674	0,8
563,122	0,79
563,57	0,79
564,018	0,78
564,466	0,78
564,914	0,77
565,362	0,77
565,809	0,77
566,257	0,76
566,705	0,76
567,153	0,75
567,601	0,75
568,048	0,74
568,496	0,74
568,944	0,74
569,392	0,73
569,839	0,73
570,287	0,72
570,734	0,72
571,182	0,72
571,63	0,71
572,077	0,71
572,525	0,71
572,972	0,7
573,419	0,7
573,867	0,69
574,314	0,69
574,761	0,69
575,209	0,68
575,656	0,68
576,103	0,68
576,551	0,67
576,998	0,67
577,445	0,67
577,892	0,66
578,339	0,66
578,786	0,66
579,233	0,65
579,68	0,65
580,127	0,65
580,574	0,65
581,021	0,64
581,468	0,64
581,915	0,64
582,362	0,63
582,809	0,63
583,255	0,63
583,702	0,63
584,149	0,63
584,596	0,62
585,042	0,62
585,489	0,62
585,936	0,61
586,382	0,61
586,829	0,61
587,275	0,61
587,722	0,61
588,168	0,6
588,615	0,6
589,061	0,6
589,508	0,6
589,954	0,59
590,4	0,59
590,847	0,59
591,293	0,59
591,739	0,59
592,185	0,58
592,632	0,58
593,078	0,58
593,524	0,58
593,97	0,58
594,416	0,58
594,862	0,57
595,308	0,57
595,754	0,57
596,2	0,57
596,646	0,57
597,092	0,57
597,538	0,56
597,984	0,56
598,43	0,56
598,876	0,56
599,321	0,56
599,767	0,56
600,213	0,56
600,659	0,56
601,104	0,55
601,55	0,55
601,995	0,55
602,441	0,55
602,887	0,55
603,332	0,55
603,778	0,54
604,223	0,54
604,668	0,54
605,114	0,54
605,559	0,54
606,005	0,54
606,45	0,54
606,895	0,54
607,341	0,54
607,786	0,53
608,231	0,53
608,676	0,53
609,121	0,52
609,566	0,52
610,012	0,51
610,457	0,51
610,902	0,51
611,347	0,5
611,792	0,5
612,237	0,5
612,682	0,5
613,127	0,5
613,571	0,5
614,016	0,5
614,461	0,5
614,906	0,51
615,351	0,51
615,795	0,51
616,24	0,51
616,685	0,51
617,129	0,51
617,574	0,51
618,019	0,51
618,463	0,51
618,908	0,51
619,352	0,5
619,797	0,5
620,241	0,5
620,686	0,5
621,13	0,5
621,574	0,5
622,019	0,5
622,463	0,5
622,907	0,5
623,352	0,49
623,796	0,49
624,24	0,49
624,684	0,49
625,128	0,49
625,572	0,49
626,016	0,49
626,461	0,49
626,905	0,49
627,349	0,49
627,793	0,49
628,236	0,49
628,68	0,49
629,124	0,49
629,568	0,49
630,012	0,49
630,456	0,49
630,9	0,49
631,343	0,49
631,787	0,49
632,231	0,49
632,674	0,49
633,118	0,49
633,562	0,49
634,005	0,49
634,449	0,49
634,892	0,49
635,336	0,48
635,779	0,48
636,223	0,48
636,666	0,48
637,109	0,48
637,553	0,48
637,996	0,48
638,439	0,48
638,883	0,48
639,326	0,48
639,769	0,48
640,212	0,48
640,655	0,48
641,099	0,48
641,542	0,48
641,985	0,48
642,428	0,47
642,871	0,47
643,314	0,47
643,757	0,47
644,2	0,47
644,643	0,47
645,085	0,47
645,528	0,47
645,971	0,47
646,414	0,47
646,857	0,47
647,299	0,47
647,742	0,47
648,185	0,47
648,627	0,47
649,07	0,47
649,513	0,46
649,955	0,46
650,398	0,47
650,84	0,47
651,283	0,47
651,725	0,47
652,168	0,47
652,61	0,47
653,052	0,47
653,495	0,47
653,937	0,38
654,379	0,32
654,821	0,33
655,264	0,33
655,706	0,33
656,148	0,33
656,59	0,33
657,032	0,33
657,474	0,33
657,916	0,33
658,358	0,32
658,8	0,38
659,242	0,46
659,684	0,46
660,126	0,46
660,568	0,46
661,01	0,46
661,452	0,46
661,894	0,46
662,335	0,46
662,777	0,46
663,219	0,46
663,661	0,46
664,102	0,46
664,544	0,46
664,985	0,46
665,427	0,46
665,869	0,46
666,31	0,46
666,752	0,46
667,193	0,46
667,634	0,46
668,076	0,46
668,517	0,46
668,959	0,46
669,4	0,46
669,841	0,46
670,282	0,46
670,724	0,46
671,165	0,46
671,606	0,46
672,047	0,46
672,488	0,46
672,929	0,46
673,37	0,46
673,811	0,45
674,252	0,45
674,693	0,45
675,134	0,45
675,575	0,45
676,016	0,45
676,457	0,45
676,898	0,45
677,339	0,45
677,78	0,44
678,22	0,44
678,661	0,44
679,102	0,44
679,542	0,44
679,983	0,44
680,424	0,44
680,864	0,44
681,305	0,45
681,745	0,45
682,186	0,45
682,626	0,45
683,067	0,45
683,507	0,45
683,948	0,45
684,388	0,45
684,828	0,45
685,269	0,45
685,709	0,45
686,149	0,45
686,589	0,44
687,029	0,44
687,47	0,44
687,91	0,44
688,35	0,44
688,79	0,44
689,23	0,44
689,67	0,44
690,11	0,44
690,55	0,44
690,99	0,44
691,43	0,44
691,87	0,44
692,31	0,44
692,749	0,43
693,189	0,43
693,629	0,43
694,069	0,43
694,508	0,43
694,948	0,43
695,388	0,43
695,827	0,43
696,267	0,43
696,706	0,43
697,146	0,43
697,586	0,43
698,025	0,43
698,464	0,44
698,904	0,44
699,343	0,44
699,783	0,44
700,222	0,44
700,661	0,44
701,101	0,44
701,54	0,44
701,979	0,44
702,418	0,44
702,857	0,44
703,297	0,44
703,736	0,44
704,175	0,44
704,614	0,44
705,053	0,44
705,492	0,44
705,931	0,43
706,37	0,43
706,809	0,43
707,248	0,43
707,687	0,43
708,125	0,43
708,564	0,43
709,003	0,43
709,442	0,43
709,88	0,43
710,319	0,43
710,758	0,43
711,196	0,43
711,635	0,43
712,074	0,43
712,512	0,43
712,951	0,42
713,389	0,42
713,828	0,42
714,266	0,42
714,705	0,42
715,143	0,42
715,581	0,42
716,02	0,42
716,458	0,42
716,896	0,42
717,334	0,42
717,773	0,42
718,211	0,42
718,649	0,42
719,087	0,42
719,525	0,43
719,963	0,43
720,401	0,43
720,839	0,43
721,277	0,43
721,715	0,43
722,153	0,43
722,591	0,43
723,029	0,43
723,467	0,43
723,905	0,43
724,342	0,43
724,78	0,43
725,218	0,43
725,656	0,43
726,093	0,43
726,531	0,43
726,969	0,43
727,406	0,43
727,844	0,43
728,281	0,43
728,719	0,43
729,156	0,43
729,594	0,42
730,031	0,42
730,469	0,42
730,906	0,42
731,343	0,42
731,781	0,42
732,218	0,42
732,655	0,42
733,092	0,42
733,53	0,42
733,967	0,42
734,404	0,41
734,841	0,41
735,278	0,41
735,715	0,41
736,152	0,41
736,589	0,41
737,026	0,41
737,463	0,41
737,9	0,41
738,337	0,41
738,774	0,41
739,211	0,41
739,647	0,41
740,084	0,41
740,521	0,41
740,958	0,41
741,394	0,41
741,831	0,41
742,268	0,41
742,704	0,41
743,141	0,41
743,577	0,41
744,014	0,41
744,45	0,41
744,887	0,41
745,323	0,41
745,76	0,41
746,196	0,4
746,632	0,4
747,069	0,4
747,505	0,4
747,941	0,4
748,378	0,4
748,814	0,4
749,25	0,4
749,686	0,4
750,122	0,4
750,558	0,41
750,994	0,41
751,43	0,41
751,866	0,41
752,302	0,41
752,738	0,41
753,174	0,41
753,61	0,41
754,046	0,42
754,482	0,41
754,918	0,41
755,354	0,41
755,789	0,41
756,225	0,41
756,661	0,41
757,096	0,41
757,532	0,41
757,968	0,41
758,403	0,4
758,839	0,4
759,274	0,4
759,71	0,4
760,145	0,39
760,581	0,39
761,016	0,38
761,452	0,38
761,887	0,37
762,322	0,37
762,758	0,36
763,193	0,36
763,628	0,35
764,063	0,34
764,499	0,33
764,934	0,33
765,369	0,32
765,804	0,31
766,239	0,31
766,674	0,3
767,109	0,29
767,544	0,29
767,979	0,28
768,414	0,27
768,849	0,26
769,284	0,26
769,719	0,25
770,154	0,24
770,588	0,23
771,023	0,23
771,458	0,22
771,893	0,2
772,327	0,19
772,762	0,18
773,197	0,17
773,631	0,16
774,066	0,15
774,5	0,14
774,935	0,13
775,369	0,12
775,804	0,11
776,238	0,1
776,673	0,09
777,107	0,07
777,541	0,07
777,976	0,05
778,41	0,05
778,844	0,04
779,279	0,03
779,713	0,03
780,147	0,02
780,581	0,01
781,015	0,01
781,449	0
781,883	-0
782,317	-0,02
782,751	-0,03
783,185	-0,04
783,619	-0,04
784,053	-0,05
784,487	-0,06
784,921	-0,07
785,355	-0,07
785,789	-0,09
786,223	-0,1
786,656	-0,12
787,09	-0,13
787,524	-0,13
787,957	-0,14
788,391	-0,16
788,825	-0,18
789,258	-0,19
789,692	-0,2
790,125	-0,23
790,559	-0,24
790,992	-0,26
791,426	-0,29
791,859	-0,3
792,293	-0,33
792,726	-0,35
793,159	-0,37
793,593	-0,39
794,026	-0,41
794,459	-0,44
794,892	-0,46
795,326	-0,49
795,759	-0,52
796,192	-0,56
796,625	-0,61
797,058	-0,63
797,491	-0,67
797,924	-0,71
798,357	-0,76
798,79	-0,8
799,223	-0,84
799,656	-0,89
800,089	-0,94
800,522	-0,98
800,955	-1,03
801,387	-1,08
801,82	-1,14
802,253	-1,2
802,686	-1,28
803,118	-1,33
803,551	-1,39
803,984	-1,43
804,416	-1,47
804,849	-1,51
805,281	-1,64
805,714	-2,01
806,146	-2,46
806,579	-2,72
807,011	-2,88
807,444	-2,97
807,876	-3,05
808,308	-3,08
808,741	-3,11
809,173	-3,16
809,605	-3,18
810,037	-3,25
810,47	-3,17
810,902	-2,97
811,334	-2,81
811,766	-2,65
812,198	-2,39
812,63	-1,96
813,062	-1,76
813,494	-1,67
813,926	-1,58
814,358	-1,53
814,79	-1,45
815,222	-1,39
815,654	-1,35
816,086	-1,28
816,518	-1,23
816,949	-1,18
817,381	-1,13
817,813	-1,12
818,245	-1,08
818,676	-1,04
819,108	-1,01
819,54	-0,99
819,971	-0,97
820,403	-0,92
820,834	-0,9
821,266	-0,86
821,697	-0,84
822,129	-0,82
822,56	-0,8
822,991	-0,78
823,423	-0,76
823,854	-0,74
824,286	-0,72
824,717	-0,71
825,148	-0,69
825,579	-0,69
826,01	-0,67
826,442	-0,67
826,873	-0,65
827,304	-0,61
827,735	-0,6
828,166	-0,6
828,597	-0,6
829,028	-0,59
829,459	-0,6
829,89	-0,6
830,321	-0,55
830,752	-0,56
831,183	-0,55
831,613	-0,54
832,044	-0,55
832,475	-0,54
832,906	-0,56
833,336	-0,57
833,767	-0,58
834,198	-0,57
834,628	-0,55
835,059	-0,58
835,49	-0,59
835,92	-0,56
836,351	-0,56
836,781	-0,56
837,212	-0,57
837,642	-0,57
838,072	-0,55
838,503	-0,56
838,933	-0,53
839,364	-0,54
839,794	-0,51
840,224	-0,51
840,654	-0,55
841,085	-0,56
841,515	-0,53
841,945	-0,53
842,375	-0,49
842,805	-0,47
843,235	-0,46
843,665	-0,47
844,095	-0,47
844,525	-0,49
844,955	-0,49
845,385	-0,47
845,815	-0,45
846,245	-0,47
846,675	-0,49
847,105	-0,51
847,534	-0,51
847,964	-0,5
848,394	-0,49
848,824	-0,52
849,253	-0,51
849,683	-0,51
850,112	-0,52
850,542	-0,56
850,972	-0,56
851,401	-0,54
851,831	-0,52
852,26	-0,52
852,69	-0,56
853,119	-0,55
853,548	-0,55
853,978	-0,55
854,407	-0,53
854,836	-0,53
855,266	-0,52
855,695	-0,53
856,124	-0,53
856,553	-0,55
856,983	-0,57
857,412	-0,57
857,841	-0,58
858,27	-0,58
858,699	-0,59
859,128	-0,63
859,557	-0,64
859,986	-0,65
860,415	-0,63
860,844	-0,61
861,273	-0,6
861,702	-0,61
862,13	-0,59
862,559	-0,61
862,988	-0,58
863,417	-0,57
863,845	-0,56
864,274	-0,56
864,703	-0,56
865,131	-0,57
865,56	-0,57
865,989	-0,6
866,417	-0,56
866,846	-0,57
867,274	-0,56
867,703	-0,58
868,131	-0,59
868,559	-0,6
868,988	-0,62
869,416	-0,61
869,844	-0,62
870,273	-0,65
870,701	-0,62
871,129	-0,66
871,557	-0,68
871,986	-0,68
872,414	-0,69
872,842	-0,67
873,27	-0,65
873,698	-0,62
874,126	-0,66
874,554	-0,64
874,982	-0,64
875,41	-0,67
875,838	-0,62
876,266	-0,59
876,694	-0,6
877,122	-0,59
877,549	-0,64
877,977	-0,6
878,405	-0,62
878,833	-0,6
879,26	-0,59
879,688	-0,58
880,116	-0,55
880,543	-0,54
880,971	-0,54
881,399	-0,56
881,826	-0,57
882,254	-0,54
882,681	-0,59
883,109	-0,55
883,536	-0,55
883,963	-0,56
884,391	-0,55
884,818	-0,53
885,245	-0,57
885,673	-0,59
886,1	-0,56
886,527	-0,56
886,954	-0,53
887,381	-0,54
887,809	-0,55
888,236	-0,57
888,663	-0,58
889,09	-0,63
889,517	-0,65
889,944	-0,64
890,371	-0,63
890,798	-0,64
891,225	-0,63
891,652	-0,66
892,078	-0,64
892,505	-0,67
892,932	-0,63
893,359	-0,63
893,786	-0,63
894,212	-0,59
894,639	-0,61
895,066	-0,63
895,492	-0,58
895,919	-0,59
896,346	-0,58
896,772	-0,59
897,199	-0,54
897,625	-0,57
898,052	-0,54
898,478	-0,52
898,904	-0,54
899,331	-0,54
899,757	-0,56
900,183	-0,57
900,61	-0,56
901,036	-0,56
901,462	-0,56
901,888	-0,56
902,315	-0,54
902,741	-0,59
903,167	-0,57
903,593	-0,6
904,019	-0,58
904,445	-0,55
904,871	-0,59
905,297	-0,6
905,723	-0,6
906,149	-0,59
906,575	-0,59
907,001	-0,6
907,427	-0,57
907,852	-0,56
908,278	-0,57
908,704	-0,55
909,13	-0,55
909,555	-0,54
909,981	-0,53
910,407	-0,53
910,832	-0,53
911,258	-0,53
911,684	-0,53
912,109	-0,53
912,535	-0,55
912,96	-0,51
913,386	-0,55
913,811	-0,54
914,236	-0,56
914,662	-0,55
915,087	-0,58
915,512	-0,59
915,938	-0,6
916,363	-0,59
916,788	-0,6
917,213	-0,58
917,639	-0,63
918,064	-0,6
918,489	-0,6
918,914	-0,6
919,339	-0,61
919,764	-0,59
920,189	-0,58
920,614	-0,6
921,039	-0,61
921,464	-0,57
921,889	-0,6
922,314	-0,6
922,738	-0,64
923,163	-0,65
923,588	-0,65
924,013	-0,64
924,437	-0,63
924,862	-0,65
925,287	-0,61
925,711	-0,62
926,136	-0,64
926,561	-0,62
926,985	-0,62
927,41	-0,58
927,834	-0,56
928,259	-0,53
928,683	-0,51
929,108	-0,49
929,532	-0,49
929,956	-0,49
930,381	-0,48
930,805	-0,48
931,229	-0,47
931,653	-0,45
932,078	-0,45
932,502	-0,46
932,926	-0,47
933,35	-0,47
933,774	-0,47
934,198	-0,44
934,622	-0,42
935,046	-0,43
935,47	-0,44
935,894	-0,44
936,318	-0,44
936,742	-0,43
937,166	-0,44
937,59	-0,44
938,014	-0,46
938,437	-0,47
938,861	-0,49
939,285	-0,51
939,709	-0,5
940,132	-0,51
940,556	-0,51
940,98	-0,51
941,403	-0,49
941,827	-0,49
942,25	-0,5
942,674	-0,49
943,097	-0,48
943,521	-0,48
943,944	-0,49
944,368	-0,48
944,791	-0,46
945,214	-0,48
945,638	-0,49
946,061	-0,53
946,484	-0,54
946,907	-0,52
947,331	-0,53
947,754	-0,57
948,177	-0,53
948,6	-0,52
949,023	-0,52
949,446	-0,52
949,869	-0,5
950,292	-0,5
950,715	-0,46
951,138	-0,45
951,561	-0,42
951,984	-0,42
952,407	-0,41
952,83	-0,4
953,252	-0,37
953,675	-0,38
954,098	-0,39
954,521	-0,37
954,943	-0,36
955,366	-0,38
955,789	-0,37
956,211	-0,38
956,634	-0,39
957,056	-0,36
957,479	-0,38
957,902	-0,4
958,324	-0,4
958,746	-0,38
959,169	-0,38
959,591	-0,39
960,014	-0,4
960,436	-0,38
960,858	-0,38
961,281	-0,38
961,703	-0,4
962,125	-0,39
962,547	-0,37
962,969	-0,37
963,391	-0,39
963,814	-0,4
964,236	-0,39
964,658	-0,37
965,08	-0,38
965,502	-0,38
965,924	-0,35
966,346	-0,34
966,768	-0,34
967,189	-0,36
967,611	-0,36
968,033	-0,34
968,455	-0,32
968,877	-0,33
969,298	-0,34
969,72	-0,34
970,142	-0,33
970,563	-0,34
970,985	-0,32
971,407	-0,32
971,828	-0,29
972,25	-0,28
972,671	-0,26
973,093	-0,27
973,514	-0,25
973,936	-0,24
974,357	-0,22
974,778	-0,22
975,2	-0,21
975,621	-0,21
976,042	-0,18
976,464	-0,18
976,885	-0,17
977,306	-0,17
977,727	-0,16
978,148	-0,15
978,57	-0,13
978,991	-0,12
979,412	-0,11
979,833	-0,1
980,254	-0,09
980,675	-0,1
981,096	-0,08
981,517	-0,06
981,937	-0,05
982,358	-0,04
982,779	-0,03
983,2	-0,04
983,621	-0,03
984,042	-0,02
984,462	-0
984,883	0,01
985,304	0,03
985,724	0,03
986,145	0,04
986,565	0,05
986,986	0,06
987,407	0,07
987,827	0,09
988,248	0,1
988,668	0,11
989,088	0,12
989,509	0,13
989,929	0,14
990,35	0,16
990,77	0,17
991,19	0,18
991,61	0,2
992,031	0,21
992,451	0,22
992,871	0,23
993,291	0,24
993,711	0,25
994,131	0,26
994,551	0,27
994,971	0,27
995,391	0,28
995,811	0,29
996,231	0,29
996,651	0,3
997,071	0,31
997,491	0,31
997,911	0,32
998,331	0,33
998,75	0,33
999,17	0,34
999,59	0,34
1000,009	0,35
1000,429	0,35
1000,849	0,36
1001,268	0,37
1001,688	0,37
1002,107	0,37
1002,527	0,38
1002,946	0,38
1003,366	0,38
1003,785	0,39
1004,205	0,39
1004,624	0,39
1005,044	0,39
1005,463	0,4
1005,882	0,4
1006,301	0,4
1006,721	0,4
1007,14	0,4
1007,559	0,4
1007,978	0,4
1008,397	0,4
1008,816	0,4
1009,235	0,41
1009,655	0,4
1010,074	0,4
1010,492	0,4
1010,911	0,4
1011,33	0,4
1011,749	0,4
1012,168	0,4
1012,587	0,4
1013,006	0,4
1013,425	0,4
1013,843	0,4
1014,262	0,4
1014,681	0,4
1015,099	0,39
1015,518	0,39
1015,937	0,39
1016,355	0,39
1016,774	0,39
1017,192	0,39
1017,611	0,39
1018,029	0,39
1018,448	0,39
1018,866	0,39
1019,285	0,39
1019,703	0,39
1020,121	0,39
1020,54	0,39
1020,958	0,39
1021,376	0,39
1021,794	0,39
1022,213	0,39
1022,631	0,39
1023,049	0,39
1023,467	0,39
1023,885	0,39
1024,303	0,39
1024,721	0,38
1025,139	0,38
1025,557	0,38
1025,975	0,38
1026,393	0,38
1026,811	0,38
1027,229	0,38
1027,647	0,38
1028,065	0,38
1028,482	0,38
1028,9	0,38
1029,318	0,38
1029,735	0,38
1030,153	0,38
1030,571	0,38
1030,988	0,38
1031,406	0,38
1031,823	0,38
1032,241	0,38
1032,659	0,38
1033,076	0,38
1033,493	0,38
1033,911	0,38
1034,328	0,38
1034,746	0,38
1035,163	0,38
1035,58	0,38
1035,997	0,38
1036,415	0,38
1036,832	0,38
1037,249	0,38
1037,666	0,38
1038,083	0,38
1038,501	0,38
1038,918	0,38
1039,335	0,38
1039,752	0,38
1040,169	0,38
1040,586	0,38
1041,003	0,38
1041,419	0,39
1041,836	0,39
1042,253	0,39
1042,67	0,39
1043,087	0,38
1043,504	0,39
1043,92	0,38
1044,337	0,38
1044,754	0,38
1045,17	0,38
1045,587	0,38
1046,004	0,38
1046,42	0,38
1046,837	0,38
1047,253	0,38
1047,67	0,38
1048,086	0,38
1048,503	0,38
1048,919	0,38
1049,335	0,38
1049,752	0,38
1050,168	0,38
1050,584	0,38
1051,001	0,38
1051,417	0,38
1051,833	0,38
1052,249	0,38
1052,665	0,38
1053,081	0,38
1053,497	0,39
1053,914	0,39
1054,33	0,39
1054,746	0,39
1055,162	0,39
1055,578	0,39
1055,993	0,39
1056,409	0,39
1056,825	0,39
1057,241	0,39
1057,657	0,39
1058,073	0,39
1058,488	0,39
1058,904	0,39
1059,32	0,39
1059,736	0,39
1060,151	0,39
1060,567	0,39
1060,982	0,39
1061,398	0,39
1061,813	0,39
1062,229	0,39
1062,644	0,39
1063,06	0,39
1063,475	0,39
1063,891	0,38
1064,306	0,38
1064,721	0,38
1065,137	0,38
1065,552	0,38
1065,967	0,38
1066,382	0,38
1066,798	0,38
1067,213	0,38
1067,628	0,38
1068,043	0,38
1068,458	0,38
1068,873	0,38
1069,288	0,38
1069,703	0,38
1070,118	0,38
1070,533	0,38
1070,948	0,38
1071,363	0,38
1071,778	0,38
1072,193	0,38
1072,607	0,38
1073,022	0,38
1073,437	0,38
1073,852	0,38
1074,266	0,38
1074,681	0,38
1075,096	0,38
1075,51	0,38
1075,925	0,38
1076,339	0,38
1076,754	0,38
1077,168	0,38
1077,583	0,38
1077,997	0,38
1078,412	0,38
1078,826	0,38
1079,24	0,38
1079,655	0,38
1080,069	0,38
1080,483	0,38
1080,897	0,38
1081,312	0,38
1081,726	0,38
1082,14	0,38
1082,554	0,38
1082,968	0,38
1083,382	0,38
1083,796	0,37
1084,21	0,38
1084,624	0,37
1085,038	0,37
1085,452	0,37
1085,866	0,37
1086,28	0,37
1086,694	0,37
1087,108	0,37
1087,521	0,36
1087,935	0,36
1088,349	0,36
1088,763	0,36
1089,176	0,35
1089,59	0,35
1090,004	0,35
1090,417	0,34
1090,831	0,34
1091,244	0,34
1091,658	0,33
1092,071	0,33
1092,485	0,33
1092,898	0,33
1093,312	0,32
1093,725	0,32
1094,138	0,32
1094,552	0,32
1094,965	0,32
1095,378	0,31
1095,791	0,31
1096,205	0,31
1096,618	0,31
1097,031	0,3
1097,444	0,3
1097,857	0,3
1098,27	0,29
1098,683	0,29
1099,096	0,29
1099,509	0,29
1099,922	0,28
1100,335	0,28
1100,748	0,27
1101,161	0,27
1101,574	0,27
1101,986	0,26
1102,399	0,26
1102,812	0,26
1103,225	0,25
1103,637	0,25
1104,05	0,24
1104,463	0,24
1104,875	0,24
1105,288	0,23
1105,7	0,23
1106,113	0,23
1106,525	0,22
1106,938	0,22
1107,35	0,21
1107,763	0,21
1108,175	0,21
1108,588	0,2
1109	0,2
1109,412	0,19
1109,824	0,2
1110,237	0,19
1110,649	0,18
1111,061	0,17
