Data from 18C-808nm-8A-cont_Absorbance__668__02097.txt Node

Date: Mon Jul 17 17:44:25 CEST 2023
User: Laser008
Spectrometer: MAYP115816
Trigger mode: 0
Integration Time (sec): 2,500000E-1
Scans to average: 10
Electric dark correction enabled: true
Nonlinearity correction enabled: true
Boxcar width: 5
XAxis mode: Wavelengths
Number of Pixels in Spectrum: 2068
>>>>>Begin Spectral Data<<<<<
198,914	-0,67
199,384	-0,49
199,855	-0,36
200,325	-0,27
200,796	-0,23
201,266	-0,19
201,737	-0,18
202,207	-0,17
202,677	-0,16
203,147	-0,14
203,618	-0,12
204,088	-0,11
204,558	-0,09
205,028	-0,08
205,498	-0,09
205,968	-0,09
206,439	-0,1
206,909	-0,1
207,379	-0,1
207,849	-0,1
208,319	-0,12
208,789	-0,12
209,258	-0,11
209,728	-0,13
210,198	-0,13
210,668	-0,12
211,138	-0,12
211,608	-0,12
212,077	-0,11
212,547	-0,11
213,017	-0,11
213,486	-0,11
213,956	-0,11
214,426	-0,12
214,895	-0,12
215,365	-0,13
215,834	-0,14
216,304	-0,14
216,773	-0,15
217,243	-0,16
217,712	-0,17
218,181	-0,17
218,651	-0,17
219,12	-0,17
219,589	-0,16
220,058	-0,15
220,528	-0,17
220,997	-0,17
221,466	-0,18
221,935	-0,18
222,404	-0,18
222,873	-0,17
223,342	-0,16
223,812	-0,16
224,281	-0,15
224,749	-0,16
225,218	-0,17
225,687	-0,16
226,156	-0,15
226,625	-0,14
227,094	-0,14
227,563	-0,14
228,031	-0,15
228,5	-0,15
228,969	-0,16
229,438	-0,16
229,906	-0,15
230,375	-0,15
230,844	-0,15
231,312	-0,14
231,781	-0,15
232,249	-0,15
232,718	-0,15
233,186	-0,13
233,655	-0,14
234,123	-0,14
234,591	-0,14
235,06	-0,14
235,528	-0,14
235,996	-0,13
236,465	-0,13
236,933	-0,12
237,401	-0,12
237,869	-0,12
238,337	-0,11
238,805	-0,1
239,274	-0,09
239,742	-0,09
240,21	-0,08
240,678	-0,08
241,146	-0,08
241,614	-0,08
242,081	-0,07
242,549	-0,07
243,017	-0,07
243,485	-0,07
243,953	-0,08
244,421	-0,08
244,888	-0,08
245,356	-0,09
245,824	-0,08
246,291	-0,09
246,759	-0,1
247,227	-0,1
247,694	-0,1
248,162	-0,09
248,629	-0,08
249,097	-0,08
249,564	-0,1
250,032	-0,1
250,499	-0,09
250,967	-0,1
251,434	-0,09
251,901	-0,09
252,369	-0,09
252,836	-0,09
253,303	-0,11
253,77	-0,13
254,237	-0,13
254,705	-0,14
255,172	-0,13
255,639	-0,14
256,106	-0,16
256,573	-0,16
257,04	-0,17
257,507	-0,17
257,974	-0,18
258,441	-0,16
258,908	-0,16
259,375	-0,16
259,841	-0,17
260,308	-0,17
260,775	-0,17
261,242	-0,15
261,709	-0,16
262,175	-0,16
262,642	-0,16
263,109	-0,15
263,575	-0,17
264,042	-0,15
264,508	-0,15
264,975	-0,16
265,441	-0,17
265,908	-0,17
266,374	-0,16
266,841	-0,17
267,307	-0,17
267,773	-0,17
268,24	-0,17
268,706	-0,17
269,172	-0,18
269,639	-0,19
270,105	-0,17
270,571	-0,18
271,037	-0,18
271,503	-0,2
271,969	-0,19
272,435	-0,19
272,902	-0,22
273,368	-0,23
273,834	-0,22
274,3	-0,22
274,765	-0,23
275,231	-0,23
275,697	-0,22
276,163	-0,22
276,629	-0,21
277,095	-0,21
277,56	-0,2
278,026	-0,21
278,492	-0,19
278,958	-0,18
279,423	-0,18
279,889	-0,17
280,354	-0,17
280,82	-0,17
281,286	-0,19
281,751	-0,2
282,217	-0,19
282,682	-0,19
283,147	-0,19
283,613	-0,19
284,078	-0,19
284,544	-0,21
285,009	-0,23
285,474	-0,22
285,939	-0,23
286,405	-0,21
286,87	-0,21
287,335	-0,21
287,8	-0,2
288,265	-0,19
288,73	-0,2
289,195	-0,23
289,66	-0,23
290,125	-0,2
290,59	-0,2
291,055	-0,2
291,52	-0,2
291,985	-0,2
292,45	-0,21
292,915	-0,21
293,38	-0,22
293,844	-0,2
294,309	-0,18
294,774	-0,16
295,239	-0,19
295,703	-0,2
296,168	-0,19
296,632	-0,19
297,097	-0,17
297,562	-0,16
298,026	-0,17
298,491	-0,17
298,955	-0,17
299,419	-0,17
299,884	-0,17
300,348	-0,15
300,813	-0,15
301,277	-0,15
301,741	-0,15
302,205	-0,14
302,67	-0,13
303,134	-0,12
303,598	-0,12
304,062	-0,11
304,526	-0,1
304,99	-0,12
305,454	-0,13
305,919	-0,12
306,383	-0,12
306,847	-0,12
307,31	-0,13
307,774	-0,15
308,238	-0,15
308,702	-0,14
309,166	-0,16
309,63	-0,16
310,094	-0,13
310,557	-0,13
311,021	-0,13
311,485	-0,13
311,948	-0,13
312,412	-0,12
312,876	-0,1
313,339	-0,11
313,803	-0,12
314,266	-0,11
314,73	-0,11
315,193	-0,11
315,657	-0,1
316,12	-0,09
316,584	-0,08
317,047	-0,08
317,51	-0,07
317,973	-0,07
318,437	-0,05
318,9	-0,04
319,363	-0,03
319,826	-0,03
320,29	-0,02
320,753	-0,03
321,216	-0,02
321,679	-0,02
322,142	-0,01
322,605	-0,02
323,068	-0,03
323,531	-0,04
323,994	-0,03
324,457	-0,03
324,92	-0,02
325,382	-0,03
325,845	-0,02
326,308	-0,02
326,771	-0,01
327,233	-0,01
327,696	-0
328,159	0,01
328,622	0,02
329,084	0,02
329,547	0,03
330,009	0,03
330,472	0,04
330,934	0,04
331,397	0,05
331,859	0,05
332,322	0,06
332,784	0,06
333,246	0,07
333,709	0,07
334,171	0,08
334,633	0,08
335,096	0,08
335,558	0,09
336,02	0,09
336,482	0,08
336,944	0,09
337,406	0,1
337,868	0,1
338,331	0,11
338,793	0,12
339,255	0,13
339,717	0,13
340,178	0,14
340,64	0,15
341,102	0,16
341,564	0,17
342,026	0,17
342,488	0,18
342,949	0,2
343,411	0,23
343,873	0,25
344,335	0,29
344,796	0,33
345,258	0,38
345,719	0,43
346,181	0,48
346,643	0,52
347,104	0,57
347,566	0,6
348,027	0,63
348,488	0,66
348,95	0,68
349,411	0,71
349,873	0,74
350,334	0,76
350,795	0,77
351,256	0,79
351,718	0,79
352,179	0,8
352,64	0,81
353,101	0,81
353,562	0,81
354,023	0,81
354,484	0,82
354,945	0,82
355,406	0,82
355,867	0,83
356,328	0,83
356,789	0,83
357,25	0,84
357,711	0,84
358,172	0,84
358,633	0,84
359,093	0,85
359,554	0,85
360,015	0,85
360,476	0,85
360,936	0,85
361,397	0,85
361,858	0,86
362,318	0,86
362,779	0,86
363,239	0,86
363,7	0,86
364,16	0,86
364,621	0,86
365,081	0,86
365,541	0,86
366,002	0,86
366,462	0,86
366,922	0,86
367,383	0,86
367,843	0,86
368,303	0,86
368,763	0,86
369,223	0,86
369,684	0,86
370,144	0,86
370,604	0,86
371,064	0,86
371,524	0,86
371,984	0,86
372,444	0,86
372,904	0,86
373,363	0,85
373,823	0,85
374,283	0,85
374,743	0,85
375,203	0,85
375,663	0,85
376,122	0,85
376,582	0,85
377,042	0,85
377,501	0,85
377,961	0,85
378,42	0,85
378,88	0,85
379,34	0,85
379,799	0,85
380,259	0,85
380,718	0,85
381,177	0,85
381,637	0,85
382,096	0,85
382,555	0,85
383,015	0,85
383,474	0,85
383,933	0,85
384,393	0,85
384,852	0,85
385,311	0,85
385,77	0,85
386,229	0,85
386,688	0,85
387,147	0,84
387,606	0,84
388,065	0,84
388,524	0,84
388,983	0,84
389,442	0,84
389,901	0,84
390,36	0,84
390,819	0,84
391,277	0,84
391,736	0,84
392,195	0,84
392,654	0,84
393,112	0,84
393,571	0,84
394,03	0,84
394,488	0,84
394,947	0,84
395,405	0,84
395,864	0,84
396,322	0,84
396,781	0,84
397,239	0,84
397,698	0,84
398,156	0,84
398,614	0,84
399,073	0,84
399,531	0,84
399,989	0,84
400,447	0,84
400,905	0,84
401,364	0,83
401,822	0,83
402,28	0,83
402,738	0,83
403,196	0,83
403,654	0,83
404,112	0,83
404,57	0,83
405,028	0,83
405,486	0,83
405,944	0,83
406,402	0,83
406,859	0,83
407,317	0,83
407,775	0,83
408,233	0,83
408,691	0,83
409,148	0,83
409,606	0,83
410,064	0,83
410,521	0,83
410,979	0,83
411,436	0,83
411,894	0,83
412,351	0,83
412,809	0,83
413,266	0,83
413,724	0,83
414,181	0,83
414,638	0,83
415,096	0,83
415,553	0,83
416,01	0,82
416,467	0,82
416,925	0,82
417,382	0,82
417,839	0,82
418,296	0,82
418,753	0,82
419,21	0,82
419,667	0,82
420,124	0,82
420,581	0,82
421,038	0,82
421,495	0,82
421,952	0,82
422,409	0,82
422,866	0,82
423,322	0,82
423,779	0,82
424,236	0,82
424,693	0,82
425,149	0,82
425,606	0,82
426,063	0,82
426,519	0,82
426,976	0,82
427,433	0,82
427,889	0,82
428,346	0,82
428,802	0,82
429,258	0,82
429,715	0,82
430,171	0,82
430,628	0,82
431,084	0,82
431,54	0,82
431,997	0,82
432,453	0,82
432,909	0,82
433,365	0,82
433,821	0,82
434,277	0,82
434,734	0,82
435,19	0,82
435,646	0,82
436,102	0,82
436,558	0,82
437,014	0,82
437,47	0,82
437,925	0,82
438,381	0,82
438,837	0,82
439,293	0,82
439,749	0,82
440,205	0,82
440,66	0,82
441,116	0,82
441,572	0,82
442,027	0,82
442,483	0,82
442,939	0,82
443,394	0,82
443,85	0,82
444,305	0,82
444,761	0,82
445,216	0,82
445,672	0,82
446,127	0,82
446,582	0,82
447,038	0,82
447,493	0,82
447,948	0,82
448,403	0,82
448,859	0,83
449,314	0,83
449,769	0,83
450,224	0,83
450,679	0,83
451,134	0,83
451,589	0,83
452,044	0,83
452,499	0,83
452,954	0,83
453,409	0,83
453,864	0,83
454,319	0,83
454,774	0,83
455,229	0,83
455,684	0,83
456,138	0,83
456,593	0,83
457,048	0,83
457,503	0,83
457,957	0,83
458,412	0,83
458,866	0,83
459,321	0,83
459,776	0,83
460,23	0,83
460,685	0,83
461,139	0,84
461,593	0,84
462,048	0,84
462,502	0,84
462,957	0,84
463,411	0,84
463,865	0,84
464,319	0,84
464,774	0,84
465,228	0,84
465,682	0,85
466,136	0,85
466,59	0,85
467,044	0,85
467,499	0,85
467,953	0,85
468,407	0,85
468,861	0,85
469,315	0,85
469,768	0,85
470,222	0,85
470,676	0,85
471,13	0,86
471,584	0,86
472,038	0,86
472,491	0,86
472,945	0,86
473,399	0,86
473,852	0,86
474,306	0,86
474,76	0,86
475,213	0,87
475,667	0,87
476,12	0,87
476,574	0,87
477,027	0,87
477,481	0,87
477,934	0,88
478,388	0,88
478,841	0,88
479,294	0,88
479,748	0,88
480,201	0,89
480,654	0,89
481,107	0,89
481,561	0,89
482,014	0,89
482,467	0,9
482,92	0,9
483,373	0,9
483,826	0,9
484,279	0,9
484,732	0,91
485,185	0,91
485,638	0,91
486,091	0,91
486,544	0,91
486,997	0,92
487,449	0,92
487,902	0,92
488,355	0,93
488,808	0,93
489,26	0,93
489,713	0,93
490,166	0,94
490,618	0,94
491,071	0,94
491,523	0,95
491,976	0,95
492,429	0,95
492,881	0,96
493,333	0,96
493,786	0,96
494,238	0,97
494,691	0,97
495,143	0,98
495,595	0,98
496,048	0,98
496,5	0,99
496,952	0,99
497,404	1
497,856	1
498,309	1
498,761	1,01
499,213	1,01
499,665	1,02
500,117	1,02
500,569	1,03
501,021	1,03
501,473	1,03
501,925	1,04
502,377	1,04
502,828	1,05
503,28	1,05
503,732	1,06
504,184	1,06
504,636	1,07
505,087	1,07
505,539	1,07
505,991	1,08
506,442	1,08
506,894	1,09
507,345	1,09
507,797	1,1
508,249	1,1
508,7	1,1
509,151	1,11
509,603	1,11
510,054	1,12
510,506	1,12
510,957	1,13
511,408	1,13
511,86	1,14
512,311	1,14
512,762	1,14
513,213	1,15
513,665	1,15
514,116	1,15
514,567	1,16
515,018	1,16
515,469	1,16
515,92	1,17
516,371	1,17
516,822	1,18
517,273	1,18
517,724	1,18
518,175	1,19
518,626	1,19
519,076	1,19
519,527	1,19
519,978	1,19
520,429	1,2
520,88	1,2
521,33	1,2
521,781	1,2
522,232	1,2
522,682	1,2
523,133	1,21
523,583	1,21
524,034	1,21
524,484	1,21
524,935	1,21
525,385	1,21
525,836	1,21
526,286	1,21
526,736	1,21
527,187	1,21
527,637	1,21
528,087	1,21
528,538	1,21
528,988	1,21
529,438	1,21
529,888	1,21
530,338	1,21
530,788	1,21
531,238	1,21
531,688	1,2
532,139	1,2
532,589	1,2
533,038	1,2
533,488	1,2
533,938	1,19
534,388	1,19
534,838	1,19
535,288	1,18
535,738	1,18
536,187	1,18
536,637	1,17
537,087	1,17
537,537	1,16
537,986	1,16
538,436	1,15
538,885	1,15
539,335	1,14
539,785	1,13
540,234	1,13
540,684	1,12
541,133	1,12
541,582	1,11
542,032	1,11
542,481	1,1
542,931	1,1
543,38	1,09
543,829	1,08
544,278	1,08
544,728	1,07
545,177	1,07
545,626	1,06
546,075	1,06
546,524	1,05
546,973	1,05
547,422	1,04
547,871	1,04
548,32	1,03
548,769	1,03
549,218	1,03
549,667	1,02
550,116	1,02
550,565	1,01
551,014	1,01
551,463	1
551,911	1
552,36	1
552,809	0,99
553,258	0,98
553,706	0,98
554,155	0,97
554,603	0,97
555,052	0,96
555,501	0,96
555,949	0,95
556,398	0,95
556,846	0,94
557,294	0,94
557,743	0,93
558,191	0,92
558,64	0,92
559,088	0,91
559,536	0,9
559,985	0,9
560,433	0,89
560,881	0,89
561,329	0,89
561,777	0,88
562,225	0,88
562,674	0,87
563,122	0,87
563,57	0,86
564,018	0,86
564,466	0,85
564,914	0,85
565,362	0,84
565,809	0,84
566,257	0,83
566,705	0,83
567,153	0,82
567,601	0,82
568,048	0,81
568,496	0,81
568,944	0,8
569,392	0,8
569,839	0,79
570,287	0,79
570,734	0,79
571,182	0,78
571,63	0,78
572,077	0,77
572,525	0,77
572,972	0,76
573,419	0,76
573,867	0,76
574,314	0,75
574,761	0,75
575,209	0,74
575,656	0,74
576,103	0,73
576,551	0,73
576,998	0,73
577,445	0,73
577,892	0,72
578,339	0,72
578,786	0,71
579,233	0,71
579,68	0,71
580,127	0,7
580,574	0,7
581,021	0,7
581,468	0,69
581,915	0,69
582,362	0,69
582,809	0,68
583,255	0,68
583,702	0,68
584,149	0,68
584,596	0,67
585,042	0,67
585,489	0,67
585,936	0,66
586,382	0,66
586,829	0,66
587,275	0,66
587,722	0,65
588,168	0,65
588,615	0,65
589,061	0,65
589,508	0,64
589,954	0,64
590,4	0,64
590,847	0,64
591,293	0,63
591,739	0,63
592,185	0,63
592,632	0,63
593,078	0,63
593,524	0,63
593,97	0,63
594,416	0,62
594,862	0,62
595,308	0,62
595,754	0,62
596,2	0,62
596,646	0,61
597,092	0,61
597,538	0,61
597,984	0,61
598,43	0,6
598,876	0,6
599,321	0,6
599,767	0,6
600,213	0,6
600,659	0,6
601,104	0,59
601,55	0,59
601,995	0,59
602,441	0,59
602,887	0,59
603,332	0,59
603,778	0,58
604,223	0,58
604,668	0,58
605,114	0,58
605,559	0,58
606,005	0,58
606,45	0,58
606,895	0,58
607,341	0,58
607,786	0,57
608,231	0,57
608,676	0,57
609,121	0,56
609,566	0,55
610,012	0,55
610,457	0,54
610,902	0,54
611,347	0,54
611,792	0,53
612,237	0,53
612,682	0,53
613,127	0,53
613,571	0,53
614,016	0,53
614,461	0,54
614,906	0,54
615,351	0,54
615,795	0,54
616,24	0,54
616,685	0,54
617,129	0,54
617,574	0,54
618,019	0,54
618,463	0,54
618,908	0,54
619,352	0,54
619,797	0,54
620,241	0,54
620,686	0,54
621,13	0,54
621,574	0,54
622,019	0,54
622,463	0,53
622,907	0,53
623,352	0,53
623,796	0,53
624,24	0,53
624,684	0,53
625,128	0,53
625,572	0,53
626,016	0,53
626,461	0,53
626,905	0,53
627,349	0,53
627,793	0,53
628,236	0,53
628,68	0,52
629,124	0,52
629,568	0,52
630,012	0,52
630,456	0,52
630,9	0,52
631,343	0,52
631,787	0,52
632,231	0,52
632,674	0,52
633,118	0,52
633,562	0,52
634,005	0,52
634,449	0,52
634,892	0,52
635,336	0,52
635,779	0,52
636,223	0,52
636,666	0,52
637,109	0,51
637,553	0,51
637,996	0,51
638,439	0,51
638,883	0,51
639,326	0,51
639,769	0,51
640,212	0,51
640,655	0,51
641,099	0,51
641,542	0,51
641,985	0,51
642,428	0,51
642,871	0,51
643,314	0,51
643,757	0,51
644,2	0,51
644,643	0,51
645,085	0,51
645,528	0,51
645,971	0,51
646,414	0,5
646,857	0,5
647,299	0,5
647,742	0,5
648,185	0,5
648,627	0,5
649,07	0,5
649,513	0,5
649,955	0,5
650,398	0,5
650,84	0,5
651,283	0,5
651,725	0,5
652,168	0,5
652,61	0,5
653,052	0,5
653,495	0,49
653,937	0,41
654,379	0,35
654,821	0,36
655,264	0,36
655,706	0,36
656,148	0,36
656,59	0,36
657,032	0,36
657,474	0,36
657,916	0,36
658,358	0,35
658,8	0,41
659,242	0,49
659,684	0,49
660,126	0,49
660,568	0,49
661,01	0,49
661,452	0,49
661,894	0,49
662,335	0,49
662,777	0,49
663,219	0,49
663,661	0,49
664,102	0,49
664,544	0,49
664,985	0,49
665,427	0,49
665,869	0,49
666,31	0,49
666,752	0,49
667,193	0,49
667,634	0,49
668,076	0,49
668,517	0,49
668,959	0,49
669,4	0,49
669,841	0,49
670,282	0,49
670,724	0,49
671,165	0,49
671,606	0,49
672,047	0,49
672,488	0,49
672,929	0,48
673,37	0,48
673,811	0,48
674,252	0,48
674,693	0,48
675,134	0,48
675,575	0,48
676,016	0,48
676,457	0,48
676,898	0,48
677,339	0,48
677,78	0,48
678,22	0,48
678,661	0,48
679,102	0,48
679,542	0,48
679,983	0,48
680,424	0,48
680,864	0,48
681,305	0,48
681,745	0,49
682,186	0,49
682,626	0,49
683,067	0,49
683,507	0,49
683,948	0,49
684,388	0,49
684,828	0,48
685,269	0,48
685,709	0,48
686,149	0,48
686,589	0,48
687,029	0,48
687,47	0,48
687,91	0,48
688,35	0,48
688,79	0,48
689,23	0,47
689,67	0,47
690,11	0,47
690,55	0,47
690,99	0,47
691,43	0,47
691,87	0,47
692,31	0,47
692,749	0,47
693,189	0,47
693,629	0,47
694,069	0,47
694,508	0,47
694,948	0,47
695,388	0,47
695,827	0,47
696,267	0,47
696,706	0,47
697,146	0,47
697,586	0,47
698,025	0,47
698,464	0,47
698,904	0,47
699,343	0,47
699,783	0,47
700,222	0,47
700,661	0,47
701,101	0,48
701,54	0,47
701,979	0,47
702,418	0,47
702,857	0,47
703,297	0,47
703,736	0,47
704,175	0,47
704,614	0,47
705,053	0,47
705,492	0,47
705,931	0,47
706,37	0,47
706,809	0,47
707,248	0,47
707,687	0,47
708,125	0,47
708,564	0,47
709,003	0,47
709,442	0,46
709,88	0,46
710,319	0,46
710,758	0,46
711,196	0,46
711,635	0,46
712,074	0,46
712,512	0,46
712,951	0,46
713,389	0,46
713,828	0,46
714,266	0,46
714,705	0,46
715,143	0,46
715,581	0,46
716,02	0,46
716,458	0,46
716,896	0,46
717,334	0,46
717,773	0,46
718,211	0,46
718,649	0,46
719,087	0,46
719,525	0,46
719,963	0,46
720,401	0,46
720,839	0,46
721,277	0,46
721,715	0,46
722,153	0,46
722,591	0,46
723,029	0,46
723,467	0,46
723,905	0,46
724,342	0,46
724,78	0,46
725,218	0,46
725,656	0,46
726,093	0,46
726,531	0,46
726,969	0,46
727,406	0,46
727,844	0,46
728,281	0,46
728,719	0,46
729,156	0,46
729,594	0,46
730,031	0,46
730,469	0,45
730,906	0,45
731,343	0,45
731,781	0,45
732,218	0,45
732,655	0,45
733,092	0,45
733,53	0,45
733,967	0,45
734,404	0,45
734,841	0,45
735,278	0,45
735,715	0,45
736,152	0,45
736,589	0,45
737,026	0,45
737,463	0,45
737,9	0,45
738,337	0,45
738,774	0,45
739,211	0,45
739,647	0,45
740,084	0,45
740,521	0,45
740,958	0,45
741,394	0,45
741,831	0,45
742,268	0,45
742,704	0,45
743,141	0,45
743,577	0,45
744,014	0,45
744,45	0,45
744,887	0,45
745,323	0,45
745,76	0,45
746,196	0,45
746,632	0,44
747,069	0,44
747,505	0,44
747,941	0,44
748,378	0,44
748,814	0,44
749,25	0,45
749,686	0,45
750,122	0,45
750,558	0,45
750,994	0,45
751,43	0,45
751,866	0,45
752,302	0,45
752,738	0,45
753,174	0,45
753,61	0,45
754,046	0,45
754,482	0,45
754,918	0,44
755,354	0,44
755,789	0,44
756,225	0,44
756,661	0,44
757,096	0,44
757,532	0,44
757,968	0,44
758,403	0,43
758,839	0,43
759,274	0,43
759,71	0,43
760,145	0,42
760,581	0,41
761,016	0,41
761,452	0,41
761,887	0,4
762,322	0,4
762,758	0,39
763,193	0,39
763,628	0,38
764,063	0,38
764,499	0,37
764,934	0,36
765,369	0,36
765,804	0,35
766,239	0,34
766,674	0,34
767,109	0,33
767,544	0,32
767,979	0,31
768,414	0,3
768,849	0,29
769,284	0,28
769,719	0,27
770,154	0,26
770,588	0,25
771,023	0,25
771,458	0,23
771,893	0,22
772,327	0,21
772,762	0,2
773,197	0,19
773,631	0,18
774,066	0,17
774,5	0,16
774,935	0,15
775,369	0,14
775,804	0,12
776,238	0,11
776,673	0,1
777,107	0,09
777,541	0,09
777,976	0,07
778,41	0,07
778,844	0,06
779,279	0,05
779,713	0,03
780,147	0,02
780,581	0,02
781,015	0,01
781,449	-0
781,883	-0,01
782,317	-0,02
782,751	-0,03
783,185	-0,03
783,619	-0,04
784,053	-0,05
784,487	-0,06
784,921	-0,06
785,355	-0,07
785,789	-0,08
786,223	-0,09
786,656	-0,1
787,09	-0,12
787,524	-0,12
787,957	-0,13
788,391	-0,15
788,825	-0,16
789,258	-0,18
789,692	-0,2
790,125	-0,21
790,559	-0,23
790,992	-0,25
791,426	-0,27
791,859	-0,28
792,293	-0,31
792,726	-0,33
793,159	-0,35
793,593	-0,37
794,026	-0,39
794,459	-0,41
794,892	-0,44
795,326	-0,47
795,759	-0,5
796,192	-0,54
796,625	-0,59
797,058	-0,62
797,491	-0,66
797,924	-0,7
798,357	-0,75
798,79	-0,79
799,223	-0,83
799,656	-0,88
800,089	-0,93
800,522	-0,97
800,955	-1,01
801,387	-1,07
801,82	-1,12
802,253	-1,19
802,686	-1,26
803,118	-1,32
803,551	-1,37
803,984	-1,41
804,416	-1,45
804,849	-1,48
805,281	-1,58
805,714	-1,93
806,146	-2,39
806,579	-2,68
807,011	-2,85
807,444	-2,95
807,876	-3,04
808,308	-3,08
808,741	-3,11
809,173	-3,16
809,605	-3,18
810,037	-3,26
810,47	-3,18
810,902	-2,99
811,334	-2,85
811,766	-2,69
812,198	-2,46
812,63	-2,02
813,062	-1,79
813,494	-1,68
813,926	-1,6
814,358	-1,54
814,79	-1,46
815,222	-1,4
815,654	-1,35
816,086	-1,29
816,518	-1,23
816,949	-1,18
817,381	-1,13
817,813	-1,12
818,245	-1,08
818,676	-1,04
819,108	-1
819,54	-0,99
819,971	-0,97
820,403	-0,92
820,834	-0,9
821,266	-0,86
821,697	-0,84
822,129	-0,82
822,56	-0,79
822,991	-0,77
823,423	-0,74
823,854	-0,73
824,286	-0,7
824,717	-0,69
825,148	-0,68
825,579	-0,66
826,01	-0,65
826,442	-0,64
826,873	-0,63
827,304	-0,6
827,735	-0,59
828,166	-0,6
828,597	-0,6
829,028	-0,59
829,459	-0,6
829,89	-0,6
830,321	-0,56
830,752	-0,57
831,183	-0,56
831,613	-0,55
832,044	-0,54
832,475	-0,53
832,906	-0,54
833,336	-0,54
833,767	-0,55
834,198	-0,54
834,628	-0,52
835,059	-0,55
835,49	-0,55
835,92	-0,53
836,351	-0,54
836,781	-0,54
837,212	-0,55
837,642	-0,56
838,072	-0,53
838,503	-0,54
838,933	-0,51
839,364	-0,52
839,794	-0,5
840,224	-0,5
840,654	-0,53
841,085	-0,54
841,515	-0,51
841,945	-0,52
842,375	-0,47
842,805	-0,46
843,235	-0,45
843,665	-0,47
844,095	-0,45
844,525	-0,48
844,955	-0,48
845,385	-0,46
845,815	-0,44
846,245	-0,46
846,675	-0,47
847,105	-0,49
847,534	-0,49
847,964	-0,48
848,394	-0,47
848,824	-0,51
849,253	-0,49
849,683	-0,49
850,112	-0,5
850,542	-0,53
850,972	-0,53
851,401	-0,51
851,831	-0,5
852,26	-0,5
852,69	-0,53
853,119	-0,52
853,548	-0,52
853,978	-0,52
854,407	-0,5
854,836	-0,5
855,266	-0,49
855,695	-0,5
856,124	-0,52
856,553	-0,53
856,983	-0,54
857,412	-0,54
857,841	-0,55
858,27	-0,55
858,699	-0,56
859,128	-0,6
859,557	-0,61
859,986	-0,62
860,415	-0,61
860,844	-0,58
861,273	-0,59
861,702	-0,59
862,13	-0,57
862,559	-0,59
862,988	-0,57
863,417	-0,56
863,845	-0,56
864,274	-0,56
864,703	-0,55
865,131	-0,55
865,56	-0,56
865,989	-0,59
866,417	-0,57
866,846	-0,57
867,274	-0,57
867,703	-0,59
868,131	-0,6
868,559	-0,6
868,988	-0,63
869,416	-0,62
869,844	-0,63
870,273	-0,65
870,701	-0,64
871,129	-0,66
871,557	-0,68
871,986	-0,67
872,414	-0,68
872,842	-0,65
873,27	-0,63
873,698	-0,59
874,126	-0,64
874,554	-0,62
874,982	-0,62
875,41	-0,64
875,838	-0,59
876,266	-0,58
876,694	-0,58
877,122	-0,57
877,549	-0,63
877,977	-0,6
878,405	-0,63
878,833	-0,59
879,26	-0,58
879,688	-0,59
880,116	-0,57
880,543	-0,55
880,971	-0,54
881,399	-0,58
881,826	-0,59
882,254	-0,57
882,681	-0,6
883,109	-0,57
883,536	-0,58
883,963	-0,59
884,391	-0,57
884,818	-0,56
885,245	-0,6
885,673	-0,61
886,1	-0,58
886,527	-0,58
886,954	-0,54
887,381	-0,56
887,809	-0,57
888,236	-0,58
888,663	-0,58
889,09	-0,61
889,517	-0,63
889,944	-0,62
890,371	-0,61
890,798	-0,62
891,225	-0,62
891,652	-0,65
892,078	-0,63
892,505	-0,65
892,932	-0,61
893,359	-0,62
893,786	-0,62
894,212	-0,59
894,639	-0,61
895,066	-0,62
895,492	-0,57
895,919	-0,57
896,346	-0,56
896,772	-0,57
897,199	-0,53
897,625	-0,56
898,052	-0,52
898,478	-0,5
898,904	-0,51
899,331	-0,51
899,757	-0,53
900,183	-0,55
900,61	-0,53
901,036	-0,53
901,462	-0,53
901,888	-0,52
902,315	-0,51
902,741	-0,56
903,167	-0,56
903,593	-0,59
904,019	-0,57
904,445	-0,54
904,871	-0,57
905,297	-0,59
905,723	-0,58
906,149	-0,58
906,575	-0,59
907,001	-0,59
907,427	-0,56
907,852	-0,55
908,278	-0,55
908,704	-0,53
909,13	-0,53
909,555	-0,52
909,981	-0,51
910,407	-0,52
910,832	-0,51
911,258	-0,52
911,684	-0,52
912,109	-0,52
912,535	-0,54
912,96	-0,5
913,386	-0,54
913,811	-0,53
914,236	-0,55
914,662	-0,53
915,087	-0,56
915,512	-0,56
915,938	-0,58
916,363	-0,56
916,788	-0,58
917,213	-0,56
917,639	-0,6
918,064	-0,58
918,489	-0,58
918,914	-0,59
919,339	-0,6
919,764	-0,58
920,189	-0,58
920,614	-0,6
921,039	-0,62
921,464	-0,57
921,889	-0,6
922,314	-0,62
922,738	-0,65
923,163	-0,67
923,588	-0,67
924,013	-0,66
924,437	-0,65
924,862	-0,66
925,287	-0,61
925,711	-0,62
926,136	-0,64
926,561	-0,62
926,985	-0,62
927,41	-0,58
927,834	-0,55
928,259	-0,52
928,683	-0,51
929,108	-0,48
929,532	-0,5
929,956	-0,49
930,381	-0,48
930,805	-0,48
931,229	-0,47
931,653	-0,45
932,078	-0,44
932,502	-0,46
932,926	-0,47
933,35	-0,47
933,774	-0,46
934,198	-0,44
934,622	-0,43
935,046	-0,44
935,47	-0,43
935,894	-0,44
936,318	-0,44
936,742	-0,44
937,166	-0,44
937,59	-0,43
938,014	-0,44
938,437	-0,45
938,861	-0,47
939,285	-0,48
939,709	-0,47
940,132	-0,48
940,556	-0,48
940,98	-0,48
941,403	-0,46
941,827	-0,47
942,25	-0,49
942,674	-0,48
943,097	-0,47
943,521	-0,47
943,944	-0,48
944,368	-0,48
944,791	-0,46
945,214	-0,48
945,638	-0,49
946,061	-0,52
946,484	-0,51
946,907	-0,5
947,331	-0,49
947,754	-0,54
948,177	-0,51
948,6	-0,51
949,023	-0,5
949,446	-0,5
949,869	-0,49
950,292	-0,49
950,715	-0,46
951,138	-0,45
951,561	-0,43
951,984	-0,43
952,407	-0,41
952,83	-0,4
953,252	-0,36
953,675	-0,36
954,098	-0,37
954,521	-0,35
954,943	-0,35
955,366	-0,35
955,789	-0,33
956,211	-0,35
956,634	-0,36
957,056	-0,34
957,479	-0,35
957,902	-0,38
958,324	-0,38
958,746	-0,36
959,169	-0,37
959,591	-0,36
960,014	-0,37
960,436	-0,37
960,858	-0,37
961,281	-0,36
961,703	-0,38
962,125	-0,37
962,547	-0,35
962,969	-0,35
963,391	-0,36
963,814	-0,38
964,236	-0,37
964,658	-0,34
965,08	-0,35
965,502	-0,34
965,924	-0,32
966,346	-0,32
966,768	-0,31
967,189	-0,33
967,611	-0,33
968,033	-0,32
968,455	-0,3
968,877	-0,3
969,298	-0,32
969,72	-0,32
970,142	-0,31
970,563	-0,32
970,985	-0,31
971,407	-0,3
971,828	-0,28
972,25	-0,27
972,671	-0,26
973,093	-0,26
973,514	-0,24
973,936	-0,22
974,357	-0,21
974,778	-0,22
975,2	-0,2
975,621	-0,2
976,042	-0,18
976,464	-0,16
976,885	-0,15
977,306	-0,15
977,727	-0,14
978,148	-0,12
978,57	-0,11
978,991	-0,1
979,412	-0,08
979,833	-0,07
980,254	-0,06
980,675	-0,07
981,096	-0,06
981,517	-0,05
981,937	-0,04
982,358	-0,02
982,779	-0,01
983,2	-0,01
983,621	-0
984,042	0,01
984,462	0,02
984,883	0,03
985,304	0,05
985,724	0,06
986,145	0,07
986,565	0,08
986,986	0,08
987,407	0,09
987,827	0,11
988,248	0,12
988,668	0,14
989,088	0,15
989,509	0,16
989,929	0,17
990,35	0,19
990,77	0,2
991,19	0,21
991,61	0,23
992,031	0,24
992,451	0,25
992,871	0,25
993,291	0,26
993,711	0,27
994,131	0,28
994,551	0,29
994,971	0,3
995,391	0,31
995,811	0,32
996,231	0,32
996,651	0,33
997,071	0,34
997,491	0,35
997,911	0,36
998,331	0,37
998,75	0,37
999,17	0,38
999,59	0,39
1000,009	0,39
1000,429	0,4
1000,849	0,4
1001,268	0,41
1001,688	0,41
1002,107	0,41
1002,527	0,42
1002,946	0,42
1003,366	0,43
1003,785	0,43
1004,205	0,43
1004,624	0,44
1005,044	0,44
1005,463	0,44
1005,882	0,44
1006,301	0,44
1006,721	0,45
1007,14	0,45
1007,559	0,45
1007,978	0,45
1008,397	0,45
1008,816	0,45
1009,235	0,45
1009,655	0,45
1010,074	0,45
1010,492	0,45
1010,911	0,45
1011,33	0,45
1011,749	0,45
1012,168	0,44
1012,587	0,44
1013,006	0,44
1013,425	0,44
1013,843	0,44
1014,262	0,44
1014,681	0,44
1015,099	0,44
1015,518	0,44
1015,937	0,44
1016,355	0,44
1016,774	0,44
1017,192	0,44
1017,611	0,44
1018,029	0,44
1018,448	0,44
1018,866	0,44
1019,285	0,44
1019,703	0,44
1020,121	0,44
1020,54	0,44
1020,958	0,44
1021,376	0,44
1021,794	0,44
1022,213	0,44
1022,631	0,44
1023,049	0,44
1023,467	0,44
1023,885	0,44
1024,303	0,44
1024,721	0,44
1025,139	0,43
1025,557	0,43
1025,975	0,43
1026,393	0,43
1026,811	0,43
1027,229	0,43
1027,647	0,43
1028,065	0,43
1028,482	0,43
1028,9	0,43
1029,318	0,43
1029,735	0,43
1030,153	0,42
1030,571	0,42
1030,988	0,43
1031,406	0,42
1031,823	0,42
1032,241	0,42
1032,659	0,43
1033,076	0,43
1033,493	0,43
1033,911	0,43
1034,328	0,43
1034,746	0,43
1035,163	0,43
1035,58	0,43
1035,997	0,43
1036,415	0,43
1036,832	0,43
1037,249	0,43
1037,666	0,43
1038,083	0,43
1038,501	0,43
1038,918	0,43
1039,335	0,43
1039,752	0,43
1040,169	0,43
1040,586	0,43
1041,003	0,43
1041,419	0,43
1041,836	0,42
1042,253	0,42
1042,67	0,42
1043,087	0,42
1043,504	0,42
1043,92	0,42
1044,337	0,42
1044,754	0,42
1045,17	0,42
1045,587	0,42
1046,004	0,42
1046,42	0,42
1046,837	0,42
1047,253	0,42
1047,67	0,42
1048,086	0,42
1048,503	0,42
1048,919	0,42
1049,335	0,42
1049,752	0,42
1050,168	0,42
1050,584	0,42
1051,001	0,42
1051,417	0,42
1051,833	0,42
1052,249	0,43
1052,665	0,43
1053,081	0,43
1053,497	0,43
1053,914	0,43
1054,33	0,43
1054,746	0,43
1055,162	0,43
1055,578	0,43
1055,993	0,44
1056,409	0,44
1056,825	0,44
1057,241	0,44
1057,657	0,44
1058,073	0,44
1058,488	0,44
1058,904	0,44
1059,32	0,44
1059,736	0,44
1060,151	0,44
1060,567	0,44
1060,982	0,44
1061,398	0,44
1061,813	0,44
1062,229	0,44
1062,644	0,44
1063,06	0,44
1063,475	0,44
1063,891	0,44
1064,306	0,44
1064,721	0,44
1065,137	0,43
1065,552	0,43
1065,967	0,43
1066,382	0,43
1066,798	0,43
1067,213	0,43
1067,628	0,43
1068,043	0,43
1068,458	0,43
1068,873	0,43
1069,288	0,43
1069,703	0,43
1070,118	0,43
1070,533	0,43
1070,948	0,43
1071,363	0,43
1071,778	0,44
1072,193	0,44
1072,607	0,44
1073,022	0,44
1073,437	0,44
1073,852	0,44
1074,266	0,44
1074,681	0,44
1075,096	0,44
1075,51	0,44
1075,925	0,44
1076,339	0,44
1076,754	0,44
1077,168	0,44
1077,583	0,43
1077,997	0,43
1078,412	0,43
1078,826	0,43
1079,24	0,43
1079,655	0,43
1080,069	0,43
1080,483	0,43
1080,897	0,43
1081,312	0,43
1081,726	0,43
1082,14	0,42
1082,554	0,42
1082,968	0,42
1083,382	0,42
1083,796	0,42
1084,21	0,42
1084,624	0,41
1085,038	0,41
1085,452	0,41
1085,866	0,41
1086,28	0,41
1086,694	0,41
1087,108	0,41
1087,521	0,4
1087,935	0,4
1088,349	0,4
1088,763	0,4
1089,176	0,4
1089,59	0,39
1090,004	0,39
1090,417	0,39
1090,831	0,38
1091,244	0,38
1091,658	0,38
1092,071	0,38
1092,485	0,37
1092,898	0,37
1093,312	0,37
1093,725	0,37
1094,138	0,37
1094,552	0,36
1094,965	0,36
1095,378	0,36
1095,791	0,36
1096,205	0,35
1096,618	0,35
1097,031	0,35
1097,444	0,35
1097,857	0,34
1098,27	0,34
1098,683	0,33
1099,096	0,33
1099,509	0,33
1099,922	0,32
1100,335	0,32
1100,748	0,31
1101,161	0,31
1101,574	0,3
1101,986	0,3
1102,399	0,3
1102,812	0,29
1103,225	0,29
1103,637	0,29
1104,05	0,28
1104,463	0,28
1104,875	0,28
1105,288	0,27
1105,7	0,27
1106,113	0,26
1106,525	0,26
1106,938	0,25
1107,35	0,25
1107,763	0,25
1108,175	0,24
1108,588	0,23
1109	0,23
1109,412	0,22
1109,824	0,23
1110,237	0,23
1110,649	0,23
1111,061	0,21
