Data from 18C-808nm-8A-cont_Absorbance__252__01681.txt Node

Date: Mon Jul 17 17:27:05 CEST 2023
User: Laser008
Spectrometer: MAYP115816
Trigger mode: 0
Integration Time (sec): 2,500000E-1
Scans to average: 10
Electric dark correction enabled: true
Nonlinearity correction enabled: true
Boxcar width: 5
XAxis mode: Wavelengths
Number of Pixels in Spectrum: 2068
>>>>>Begin Spectral Data<<<<<
198,914	-0,69
199,384	-0,45
199,855	-0,35
200,325	-0,26
200,796	-0,23
201,266	-0,18
201,737	-0,18
202,207	-0,16
202,677	-0,16
203,147	-0,14
203,618	-0,11
204,088	-0,09
204,558	-0,08
205,028	-0,06
205,498	-0,07
205,968	-0,07
206,439	-0,09
206,909	-0,08
207,379	-0,09
207,849	-0,09
208,319	-0,1
208,789	-0,1
209,258	-0,11
209,728	-0,12
210,198	-0,12
210,668	-0,11
211,138	-0,11
211,608	-0,1
212,077	-0,11
212,547	-0,09
213,017	-0,1
213,486	-0,1
213,956	-0,11
214,426	-0,11
214,895	-0,11
215,365	-0,12
215,834	-0,13
216,304	-0,15
216,773	-0,15
217,243	-0,16
217,712	-0,17
218,181	-0,17
218,651	-0,17
219,12	-0,17
219,589	-0,17
220,058	-0,17
220,528	-0,18
220,997	-0,18
221,466	-0,19
221,935	-0,19
222,404	-0,19
222,873	-0,19
223,342	-0,18
223,812	-0,19
224,281	-0,19
224,749	-0,19
225,218	-0,21
225,687	-0,2
226,156	-0,19
226,625	-0,18
227,094	-0,18
227,563	-0,17
228,031	-0,19
228,5	-0,18
228,969	-0,19
229,438	-0,18
229,906	-0,17
230,375	-0,16
230,844	-0,16
231,312	-0,15
231,781	-0,16
232,249	-0,16
232,718	-0,16
233,186	-0,14
233,655	-0,15
234,123	-0,14
234,591	-0,14
235,06	-0,14
235,528	-0,14
235,996	-0,14
236,465	-0,14
236,933	-0,13
237,401	-0,13
237,869	-0,12
238,337	-0,12
238,805	-0,1
239,274	-0,1
239,742	-0,11
240,21	-0,11
240,678	-0,1
241,146	-0,09
241,614	-0,1
242,081	-0,11
242,549	-0,1
243,017	-0,11
243,485	-0,11
243,953	-0,11
244,421	-0,11
244,888	-0,11
245,356	-0,11
245,824	-0,11
246,291	-0,11
246,759	-0,12
247,227	-0,11
247,694	-0,1
248,162	-0,1
248,629	-0,09
249,097	-0,09
249,564	-0,1
250,032	-0,1
250,499	-0,1
250,967	-0,1
251,434	-0,11
251,901	-0,1
252,369	-0,1
252,836	-0,11
253,303	-0,13
253,77	-0,14
254,237	-0,14
254,705	-0,14
255,172	-0,13
255,639	-0,13
256,106	-0,15
256,573	-0,15
257,04	-0,15
257,507	-0,16
257,974	-0,16
258,441	-0,14
258,908	-0,15
259,375	-0,16
259,841	-0,17
260,308	-0,18
260,775	-0,18
261,242	-0,16
261,709	-0,17
262,175	-0,19
262,642	-0,18
263,109	-0,18
263,575	-0,19
264,042	-0,18
264,508	-0,17
264,975	-0,18
265,441	-0,19
265,908	-0,19
266,374	-0,19
266,841	-0,18
267,307	-0,18
267,773	-0,18
268,24	-0,18
268,706	-0,2
269,172	-0,21
269,639	-0,22
270,105	-0,2
270,571	-0,21
271,037	-0,22
271,503	-0,23
271,969	-0,22
272,435	-0,21
272,902	-0,23
273,368	-0,24
273,834	-0,23
274,3	-0,23
274,765	-0,23
275,231	-0,22
275,697	-0,21
276,163	-0,21
276,629	-0,21
277,095	-0,23
277,56	-0,23
278,026	-0,24
278,492	-0,22
278,958	-0,22
279,423	-0,23
279,889	-0,22
280,354	-0,22
280,82	-0,23
281,286	-0,24
281,751	-0,24
282,217	-0,22
282,682	-0,21
283,147	-0,21
283,613	-0,22
284,078	-0,22
284,544	-0,23
285,009	-0,24
285,474	-0,23
285,939	-0,24
286,405	-0,22
286,87	-0,22
287,335	-0,22
287,8	-0,21
288,265	-0,2
288,73	-0,22
289,195	-0,24
289,66	-0,24
290,125	-0,23
290,59	-0,24
291,055	-0,23
291,52	-0,23
291,985	-0,23
292,45	-0,25
292,915	-0,24
293,38	-0,25
293,844	-0,23
294,309	-0,21
294,774	-0,21
295,239	-0,21
295,703	-0,21
296,168	-0,2
296,632	-0,19
297,097	-0,18
297,562	-0,16
298,026	-0,17
298,491	-0,17
298,955	-0,16
299,419	-0,16
299,884	-0,15
300,348	-0,14
300,813	-0,14
301,277	-0,14
301,741	-0,15
302,205	-0,15
302,67	-0,14
303,134	-0,14
303,598	-0,15
304,062	-0,14
304,526	-0,13
304,99	-0,15
305,454	-0,15
305,919	-0,14
306,383	-0,14
306,847	-0,14
307,31	-0,15
307,774	-0,16
308,238	-0,16
308,702	-0,15
309,166	-0,16
309,63	-0,16
310,094	-0,13
310,557	-0,12
311,021	-0,12
311,485	-0,12
311,948	-0,11
312,412	-0,11
312,876	-0,09
313,339	-0,1
313,803	-0,1
314,266	-0,1
314,73	-0,1
315,193	-0,11
315,657	-0,1
316,12	-0,1
316,584	-0,1
317,047	-0,1
317,51	-0,08
317,973	-0,09
318,437	-0,07
318,9	-0,07
319,363	-0,06
319,826	-0,06
320,29	-0,06
320,753	-0,05
321,216	-0,05
321,679	-0,05
322,142	-0,05
322,605	-0,06
323,068	-0,06
323,531	-0,06
323,994	-0,05
324,457	-0,05
324,92	-0,04
325,382	-0,04
325,845	-0,04
326,308	-0,03
326,771	-0,03
327,233	-0,02
327,696	-0,01
328,159	-0,01
328,622	0
329,084	-0,01
329,547	-0
330,009	0
330,472	0,01
330,934	0,01
331,397	0,02
331,859	0,03
332,322	0,04
332,784	0,04
333,246	0,04
333,709	0,04
334,171	0,04
334,633	0,05
335,096	0,05
335,558	0,05
336,02	0,05
336,482	0,05
336,944	0,06
337,406	0,07
337,868	0,08
338,331	0,08
338,793	0,09
339,255	0,1
339,717	0,1
340,178	0,11
340,64	0,12
341,102	0,12
341,564	0,13
342,026	0,14
342,488	0,15
342,949	0,16
343,411	0,19
343,873	0,21
344,335	0,24
344,796	0,29
345,258	0,33
345,719	0,37
346,181	0,41
346,643	0,45
347,104	0,49
347,566	0,52
348,027	0,54
348,488	0,57
348,95	0,58
349,411	0,61
349,873	0,63
350,334	0,65
350,795	0,66
351,256	0,67
351,718	0,68
352,179	0,68
352,64	0,69
353,101	0,69
353,562	0,69
354,023	0,7
354,484	0,7
354,945	0,7
355,406	0,71
355,867	0,71
356,328	0,71
356,789	0,71
357,25	0,71
357,711	0,72
358,172	0,72
358,633	0,72
359,093	0,72
359,554	0,72
360,015	0,72
360,476	0,72
360,936	0,72
361,397	0,72
361,858	0,73
362,318	0,73
362,779	0,73
363,239	0,73
363,7	0,73
364,16	0,73
364,621	0,73
365,081	0,73
365,541	0,73
366,002	0,73
366,462	0,73
366,922	0,73
367,383	0,73
367,843	0,73
368,303	0,73
368,763	0,73
369,223	0,73
369,684	0,73
370,144	0,73
370,604	0,73
371,064	0,73
371,524	0,73
371,984	0,73
372,444	0,73
372,904	0,73
373,363	0,73
373,823	0,72
374,283	0,72
374,743	0,72
375,203	0,72
375,663	0,72
376,122	0,72
376,582	0,72
377,042	0,72
377,501	0,72
377,961	0,72
378,42	0,72
378,88	0,72
379,34	0,72
379,799	0,72
380,259	0,72
380,718	0,72
381,177	0,72
381,637	0,72
382,096	0,72
382,555	0,72
383,015	0,72
383,474	0,72
383,933	0,72
384,393	0,72
384,852	0,72
385,311	0,72
385,77	0,72
386,229	0,72
386,688	0,72
387,147	0,72
387,606	0,72
388,065	0,72
388,524	0,72
388,983	0,72
389,442	0,71
389,901	0,71
390,36	0,71
390,819	0,71
391,277	0,71
391,736	0,71
392,195	0,71
392,654	0,71
393,112	0,71
393,571	0,71
394,03	0,71
394,488	0,71
394,947	0,71
395,405	0,71
395,864	0,71
396,322	0,71
396,781	0,71
397,239	0,71
397,698	0,71
398,156	0,71
398,614	0,71
399,073	0,71
399,531	0,71
399,989	0,71
400,447	0,71
400,905	0,71
401,364	0,71
401,822	0,71
402,28	0,71
402,738	0,7
403,196	0,7
403,654	0,7
404,112	0,7
404,57	0,7
405,028	0,7
405,486	0,7
405,944	0,7
406,402	0,7
406,859	0,7
407,317	0,7
407,775	0,7
408,233	0,7
408,691	0,7
409,148	0,7
409,606	0,7
410,064	0,7
410,521	0,7
410,979	0,7
411,436	0,7
411,894	0,7
412,351	0,7
412,809	0,7
413,266	0,7
413,724	0,7
414,181	0,7
414,638	0,7
415,096	0,7
415,553	0,7
416,01	0,7
416,467	0,7
416,925	0,7
417,382	0,7
417,839	0,7
418,296	0,7
418,753	0,7
419,21	0,7
419,667	0,7
420,124	0,7
420,581	0,7
421,038	0,7
421,495	0,7
421,952	0,7
422,409	0,7
422,866	0,7
423,322	0,7
423,779	0,7
424,236	0,7
424,693	0,7
425,149	0,7
425,606	0,7
426,063	0,7
426,519	0,7
426,976	0,7
427,433	0,7
427,889	0,7
428,346	0,7
428,802	0,7
429,258	0,7
429,715	0,7
430,171	0,7
430,628	0,7
431,084	0,7
431,54	0,7
431,997	0,7
432,453	0,7
432,909	0,7
433,365	0,69
433,821	0,69
434,277	0,69
434,734	0,69
435,19	0,69
435,646	0,69
436,102	0,69
436,558	0,69
437,014	0,69
437,47	0,69
437,925	0,69
438,381	0,69
438,837	0,69
439,293	0,7
439,749	0,7
440,205	0,7
440,66	0,69
441,116	0,69
441,572	0,7
442,027	0,7
442,483	0,7
442,939	0,7
443,394	0,7
443,85	0,7
444,305	0,7
444,761	0,7
445,216	0,7
445,672	0,7
446,127	0,7
446,582	0,7
447,038	0,7
447,493	0,7
447,948	0,7
448,403	0,7
448,859	0,7
449,314	0,7
449,769	0,7
450,224	0,7
450,679	0,7
451,134	0,7
451,589	0,7
452,044	0,7
452,499	0,7
452,954	0,7
453,409	0,7
453,864	0,7
454,319	0,7
454,774	0,7
455,229	0,7
455,684	0,7
456,138	0,7
456,593	0,7
457,048	0,7
457,503	0,7
457,957	0,7
458,412	0,7
458,866	0,7
459,321	0,7
459,776	0,7
460,23	0,7
460,685	0,7
461,139	0,71
461,593	0,71
462,048	0,71
462,502	0,71
462,957	0,71
463,411	0,71
463,865	0,71
464,319	0,71
464,774	0,71
465,228	0,71
465,682	0,71
466,136	0,71
466,59	0,72
467,044	0,72
467,499	0,72
467,953	0,72
468,407	0,72
468,861	0,72
469,315	0,72
469,768	0,72
470,222	0,72
470,676	0,72
471,13	0,72
471,584	0,72
472,038	0,72
472,491	0,72
472,945	0,73
473,399	0,73
473,852	0,73
474,306	0,73
474,76	0,73
475,213	0,73
475,667	0,73
476,12	0,73
476,574	0,73
477,027	0,74
477,481	0,74
477,934	0,74
478,388	0,74
478,841	0,74
479,294	0,74
479,748	0,74
480,201	0,75
480,654	0,75
481,107	0,75
481,561	0,75
482,014	0,75
482,467	0,75
482,92	0,76
483,373	0,76
483,826	0,76
484,279	0,76
484,732	0,76
485,185	0,76
485,638	0,76
486,091	0,77
486,544	0,77
486,997	0,77
487,449	0,77
487,902	0,78
488,355	0,78
488,808	0,78
489,26	0,78
489,713	0,79
490,166	0,79
490,618	0,79
491,071	0,79
491,523	0,8
491,976	0,8
492,429	0,8
492,881	0,8
493,333	0,81
493,786	0,81
494,238	0,81
494,691	0,81
495,143	0,82
495,595	0,82
496,048	0,82
496,5	0,83
496,952	0,83
497,404	0,83
497,856	0,84
498,309	0,84
498,761	0,84
499,213	0,85
499,665	0,85
500,117	0,86
500,569	0,86
501,021	0,86
501,473	0,87
501,925	0,87
502,377	0,87
502,828	0,88
503,28	0,88
503,732	0,88
504,184	0,89
504,636	0,89
505,087	0,89
505,539	0,9
505,991	0,9
506,442	0,9
506,894	0,91
507,345	0,91
507,797	0,92
508,249	0,92
508,7	0,92
509,151	0,93
509,603	0,93
510,054	0,93
510,506	0,94
510,957	0,94
511,408	0,94
511,86	0,95
512,311	0,95
512,762	0,95
513,213	0,96
513,665	0,96
514,116	0,96
514,567	0,97
515,018	0,97
515,469	0,97
515,92	0,98
516,371	0,98
516,822	0,98
517,273	0,98
517,724	0,99
518,175	0,99
518,626	0,99
519,076	0,99
519,527	1
519,978	1
520,429	1
520,88	1
521,33	1
521,781	1,01
522,232	1,01
522,682	1,01
523,133	1,01
523,583	1,01
524,034	1,01
524,484	1,01
524,935	1,01
525,385	1,02
525,836	1,02
526,286	1,02
526,736	1,02
527,187	1,02
527,637	1,02
528,087	1,01
528,538	1,01
528,988	1,01
529,438	1,01
529,888	1,01
530,338	1,01
530,788	1,01
531,238	1,01
531,688	1,01
532,139	1,01
532,589	1,01
533,038	1
533,488	1
533,938	1
534,388	1
534,838	1
535,288	0,99
535,738	0,99
536,187	0,99
536,637	0,98
537,087	0,98
537,537	0,98
537,986	0,97
538,436	0,97
538,885	0,97
539,335	0,96
539,785	0,96
540,234	0,95
540,684	0,95
541,133	0,94
541,582	0,94
542,032	0,94
542,481	0,93
542,931	0,93
543,38	0,92
543,829	0,92
544,278	0,91
544,728	0,91
545,177	0,91
545,626	0,9
546,075	0,9
546,524	0,9
546,973	0,89
547,422	0,89
547,871	0,88
548,32	0,88
548,769	0,88
549,218	0,88
549,667	0,87
550,116	0,87
550,565	0,87
551,014	0,86
551,463	0,86
551,911	0,85
552,36	0,85
552,809	0,84
553,258	0,84
553,706	0,84
554,155	0,83
554,603	0,83
555,052	0,83
555,501	0,82
555,949	0,82
556,398	0,81
556,846	0,81
557,294	0,81
557,743	0,8
558,191	0,8
558,64	0,79
559,088	0,79
559,536	0,78
559,985	0,78
560,433	0,77
560,881	0,77
561,329	0,77
561,777	0,76
562,225	0,76
562,674	0,76
563,122	0,75
563,57	0,75
564,018	0,74
564,466	0,74
564,914	0,74
565,362	0,73
565,809	0,73
566,257	0,73
566,705	0,72
567,153	0,72
567,601	0,72
568,048	0,71
568,496	0,71
568,944	0,71
569,392	0,7
569,839	0,7
570,287	0,7
570,734	0,69
571,182	0,69
571,63	0,69
572,077	0,68
572,525	0,68
572,972	0,68
573,419	0,67
573,867	0,67
574,314	0,67
574,761	0,66
575,209	0,66
575,656	0,66
576,103	0,65
576,551	0,65
576,998	0,65
577,445	0,65
577,892	0,64
578,339	0,64
578,786	0,64
579,233	0,64
579,68	0,63
580,127	0,63
580,574	0,63
581,021	0,62
581,468	0,62
581,915	0,62
582,362	0,62
582,809	0,62
583,255	0,61
583,702	0,61
584,149	0,61
584,596	0,61
585,042	0,61
585,489	0,6
585,936	0,6
586,382	0,6
586,829	0,6
587,275	0,6
587,722	0,59
588,168	0,59
588,615	0,59
589,061	0,59
589,508	0,59
589,954	0,58
590,4	0,58
590,847	0,58
591,293	0,58
591,739	0,58
592,185	0,58
592,632	0,57
593,078	0,57
593,524	0,57
593,97	0,57
594,416	0,57
594,862	0,57
595,308	0,57
595,754	0,57
596,2	0,56
596,646	0,56
597,092	0,56
597,538	0,56
597,984	0,56
598,43	0,56
598,876	0,56
599,321	0,56
599,767	0,55
600,213	0,55
600,659	0,55
601,104	0,55
601,55	0,55
601,995	0,55
602,441	0,55
602,887	0,55
603,332	0,54
603,778	0,54
604,223	0,54
604,668	0,54
605,114	0,54
605,559	0,54
606,005	0,54
606,45	0,54
606,895	0,54
607,341	0,53
607,786	0,53
608,231	0,53
608,676	0,53
609,121	0,52
609,566	0,52
610,012	0,51
610,457	0,51
610,902	0,51
611,347	0,5
611,792	0,5
612,237	0,5
612,682	0,5
613,127	0,5
613,571	0,5
614,016	0,5
614,461	0,51
614,906	0,51
615,351	0,51
615,795	0,51
616,24	0,51
616,685	0,51
617,129	0,51
617,574	0,51
618,019	0,51
618,463	0,51
618,908	0,51
619,352	0,51
619,797	0,51
620,241	0,51
620,686	0,51
621,13	0,51
621,574	0,5
622,019	0,5
622,463	0,5
622,907	0,5
623,352	0,5
623,796	0,5
624,24	0,5
624,684	0,5
625,128	0,5
625,572	0,5
626,016	0,5
626,461	0,5
626,905	0,5
627,349	0,5
627,793	0,5
628,236	0,5
628,68	0,5
629,124	0,49
629,568	0,49
630,012	0,49
630,456	0,49
630,9	0,49
631,343	0,49
631,787	0,49
632,231	0,49
632,674	0,49
633,118	0,49
633,562	0,49
634,005	0,49
634,449	0,49
634,892	0,49
635,336	0,49
635,779	0,49
636,223	0,49
636,666	0,49
637,109	0,49
637,553	0,49
637,996	0,49
638,439	0,49
638,883	0,49
639,326	0,49
639,769	0,49
640,212	0,49
640,655	0,49
641,099	0,48
641,542	0,48
641,985	0,48
642,428	0,48
642,871	0,48
643,314	0,48
643,757	0,48
644,2	0,48
644,643	0,48
645,085	0,48
645,528	0,48
645,971	0,48
646,414	0,48
646,857	0,48
647,299	0,48
647,742	0,48
648,185	0,48
648,627	0,48
649,07	0,48
649,513	0,48
649,955	0,48
650,398	0,48
650,84	0,48
651,283	0,48
651,725	0,48
652,168	0,48
652,61	0,48
653,052	0,48
653,495	0,48
653,937	0,39
654,379	0,33
654,821	0,34
655,264	0,34
655,706	0,34
656,148	0,34
656,59	0,34
657,032	0,34
657,474	0,34
657,916	0,34
658,358	0,33
658,8	0,39
659,242	0,47
659,684	0,48
660,126	0,47
660,568	0,47
661,01	0,47
661,452	0,47
661,894	0,47
662,335	0,47
662,777	0,47
663,219	0,47
663,661	0,47
664,102	0,47
664,544	0,47
664,985	0,47
665,427	0,47
665,869	0,47
666,31	0,47
666,752	0,47
667,193	0,47
667,634	0,47
668,076	0,47
668,517	0,47
668,959	0,47
669,4	0,47
669,841	0,47
670,282	0,47
670,724	0,47
671,165	0,47
671,606	0,47
672,047	0,47
672,488	0,47
672,929	0,47
673,37	0,47
673,811	0,47
674,252	0,47
674,693	0,46
675,134	0,46
675,575	0,46
676,016	0,46
676,457	0,46
676,898	0,46
677,339	0,46
677,78	0,46
678,22	0,46
678,661	0,46
679,102	0,46
679,542	0,46
679,983	0,46
680,424	0,46
680,864	0,46
681,305	0,46
681,745	0,46
682,186	0,46
682,626	0,46
683,067	0,46
683,507	0,46
683,948	0,46
684,388	0,46
684,828	0,46
685,269	0,46
685,709	0,46
686,149	0,46
686,589	0,46
687,029	0,46
687,47	0,45
687,91	0,45
688,35	0,45
688,79	0,45
689,23	0,45
689,67	0,45
690,11	0,45
690,55	0,45
690,99	0,45
691,43	0,45
691,87	0,45
692,31	0,45
692,749	0,45
693,189	0,45
693,629	0,44
694,069	0,44
694,508	0,44
694,948	0,44
695,388	0,44
695,827	0,44
696,267	0,44
696,706	0,44
697,146	0,45
697,586	0,45
698,025	0,45
698,464	0,45
698,904	0,45
699,343	0,45
699,783	0,45
700,222	0,45
700,661	0,45
701,101	0,45
701,54	0,45
701,979	0,45
702,418	0,45
702,857	0,45
703,297	0,45
703,736	0,45
704,175	0,45
704,614	0,45
705,053	0,45
705,492	0,45
705,931	0,45
706,37	0,45
706,809	0,45
707,248	0,45
707,687	0,45
708,125	0,45
708,564	0,45
709,003	0,44
709,442	0,44
709,88	0,44
710,319	0,44
710,758	0,44
711,196	0,44
711,635	0,44
712,074	0,44
712,512	0,44
712,951	0,44
713,389	0,44
713,828	0,44
714,266	0,43
714,705	0,43
715,143	0,43
715,581	0,43
716,02	0,43
716,458	0,43
716,896	0,43
717,334	0,43
717,773	0,44
718,211	0,44
718,649	0,44
719,087	0,44
719,525	0,44
719,963	0,44
720,401	0,44
720,839	0,44
721,277	0,44
721,715	0,44
722,153	0,44
722,591	0,44
723,029	0,44
723,467	0,44
723,905	0,44
724,342	0,44
724,78	0,44
725,218	0,44
725,656	0,44
726,093	0,44
726,531	0,44
726,969	0,44
727,406	0,44
727,844	0,44
728,281	0,44
728,719	0,44
729,156	0,44
729,594	0,44
730,031	0,43
730,469	0,43
730,906	0,43
731,343	0,43
731,781	0,43
732,218	0,43
732,655	0,43
733,092	0,43
733,53	0,43
733,967	0,43
734,404	0,43
734,841	0,43
735,278	0,42
735,715	0,42
736,152	0,42
736,589	0,42
737,026	0,42
737,463	0,42
737,9	0,42
738,337	0,42
738,774	0,42
739,211	0,42
739,647	0,42
740,084	0,42
740,521	0,42
740,958	0,42
741,394	0,42
741,831	0,42
742,268	0,42
742,704	0,42
743,141	0,42
743,577	0,42
744,014	0,42
744,45	0,42
744,887	0,42
745,323	0,42
745,76	0,41
746,196	0,41
746,632	0,41
747,069	0,41
747,505	0,41
747,941	0,41
748,378	0,41
748,814	0,41
749,25	0,41
749,686	0,41
750,122	0,41
750,558	0,42
750,994	0,42
751,43	0,42
751,866	0,42
752,302	0,42
752,738	0,42
753,174	0,42
753,61	0,42
754,046	0,42
754,482	0,42
754,918	0,42
755,354	0,42
755,789	0,42
756,225	0,42
756,661	0,42
757,096	0,42
757,532	0,42
757,968	0,41
758,403	0,41
758,839	0,41
759,274	0,41
759,71	0,4
760,145	0,4
760,581	0,39
761,016	0,38
761,452	0,38
761,887	0,37
762,322	0,37
762,758	0,36
763,193	0,36
763,628	0,35
764,063	0,35
764,499	0,34
764,934	0,34
765,369	0,33
765,804	0,32
766,239	0,32
766,674	0,31
767,109	0,3
767,544	0,3
767,979	0,29
768,414	0,28
768,849	0,27
769,284	0,26
769,719	0,25
770,154	0,24
770,588	0,24
771,023	0,22
771,458	0,21
771,893	0,2
772,327	0,19
772,762	0,18
773,197	0,17
773,631	0,17
774,066	0,16
774,5	0,15
774,935	0,13
775,369	0,12
775,804	0,1
776,238	0,1
776,673	0,08
777,107	0,07
777,541	0,07
777,976	0,06
778,41	0,05
778,844	0,04
779,279	0,04
779,713	0,03
780,147	0,02
780,581	0,01
781,015	0
781,449	-0,01
781,883	-0,01
782,317	-0,03
782,751	-0,04
783,185	-0,05
783,619	-0,06
784,053	-0,07
784,487	-0,08
784,921	-0,08
785,355	-0,08
785,789	-0,09
786,223	-0,1
786,656	-0,11
787,09	-0,11
787,524	-0,12
787,957	-0,13
788,391	-0,16
788,825	-0,17
789,258	-0,19
789,692	-0,2
790,125	-0,21
790,559	-0,23
790,992	-0,25
791,426	-0,28
791,859	-0,3
792,293	-0,32
792,726	-0,34
793,159	-0,36
793,593	-0,38
794,026	-0,4
794,459	-0,44
794,892	-0,46
795,326	-0,48
795,759	-0,52
796,192	-0,57
796,625	-0,61
797,058	-0,64
797,491	-0,67
797,924	-0,72
798,357	-0,76
798,79	-0,81
799,223	-0,85
799,656	-0,9
800,089	-0,95
800,522	-0,99
800,955	-1,04
801,387	-1,09
801,82	-1,15
802,253	-1,21
802,686	-1,29
803,118	-1,35
803,551	-1,4
803,984	-1,44
804,416	-1,48
804,849	-1,51
805,281	-1,62
805,714	-1,96
806,146	-2,43
806,579	-2,7
807,011	-2,86
807,444	-2,96
807,876	-3,05
808,308	-3,09
808,741	-3,12
809,173	-3,17
809,605	-3,19
810,037	-3,27
810,47	-3,19
810,902	-2,99
811,334	-2,85
811,766	-2,69
812,198	-2,47
812,63	-2,03
813,062	-1,8
813,494	-1,7
813,926	-1,61
814,358	-1,56
814,79	-1,48
815,222	-1,42
815,654	-1,37
816,086	-1,31
816,518	-1,25
816,949	-1,2
817,381	-1,16
817,813	-1,14
818,245	-1,1
818,676	-1,06
819,108	-1,02
819,54	-1,01
819,971	-0,98
820,403	-0,93
820,834	-0,92
821,266	-0,88
821,697	-0,85
822,129	-0,84
822,56	-0,82
822,991	-0,8
823,423	-0,77
823,854	-0,76
824,286	-0,73
824,717	-0,72
825,148	-0,7
825,579	-0,69
826,01	-0,68
826,442	-0,67
826,873	-0,65
827,304	-0,61
827,735	-0,61
828,166	-0,61
828,597	-0,61
829,028	-0,61
829,459	-0,62
829,89	-0,62
830,321	-0,57
830,752	-0,58
831,183	-0,56
831,613	-0,56
832,044	-0,55
832,475	-0,54
832,906	-0,55
833,336	-0,55
833,767	-0,56
834,198	-0,54
834,628	-0,52
835,059	-0,55
835,49	-0,56
835,92	-0,54
836,351	-0,54
836,781	-0,54
837,212	-0,56
837,642	-0,56
838,072	-0,53
838,503	-0,54
838,933	-0,51
839,364	-0,52
839,794	-0,5
840,224	-0,49
840,654	-0,53
841,085	-0,54
841,515	-0,51
841,945	-0,51
842,375	-0,47
842,805	-0,46
843,235	-0,45
843,665	-0,47
844,095	-0,45
844,525	-0,48
844,955	-0,48
845,385	-0,46
845,815	-0,45
846,245	-0,47
846,675	-0,48
847,105	-0,5
847,534	-0,5
847,964	-0,49
848,394	-0,47
848,824	-0,5
849,253	-0,49
849,683	-0,5
850,112	-0,51
850,542	-0,54
850,972	-0,54
851,401	-0,51
851,831	-0,49
852,26	-0,5
852,69	-0,52
853,119	-0,52
853,548	-0,53
853,978	-0,54
854,407	-0,51
854,836	-0,51
855,266	-0,5
855,695	-0,52
856,124	-0,53
856,553	-0,54
856,983	-0,56
857,412	-0,56
857,841	-0,56
858,27	-0,57
858,699	-0,57
859,128	-0,6
859,557	-0,61
859,986	-0,62
860,415	-0,6
860,844	-0,58
861,273	-0,58
861,702	-0,59
862,13	-0,57
862,559	-0,6
862,988	-0,57
863,417	-0,55
863,845	-0,55
864,274	-0,56
864,703	-0,55
865,131	-0,55
865,56	-0,56
865,989	-0,59
866,417	-0,56
866,846	-0,55
867,274	-0,55
867,703	-0,57
868,131	-0,58
868,559	-0,57
868,988	-0,59
869,416	-0,58
869,844	-0,59
870,273	-0,63
870,701	-0,6
871,129	-0,64
871,557	-0,67
871,986	-0,67
872,414	-0,68
872,842	-0,65
873,27	-0,64
873,698	-0,61
874,126	-0,65
874,554	-0,63
874,982	-0,63
875,41	-0,66
875,838	-0,61
876,266	-0,58
876,694	-0,58
877,122	-0,57
877,549	-0,63
877,977	-0,6
878,405	-0,62
878,833	-0,59
879,26	-0,58
879,688	-0,57
880,116	-0,55
880,543	-0,54
880,971	-0,54
881,399	-0,57
881,826	-0,57
882,254	-0,56
882,681	-0,59
883,109	-0,56
883,536	-0,58
883,963	-0,6
884,391	-0,59
884,818	-0,58
885,245	-0,61
885,673	-0,62
886,1	-0,59
886,527	-0,59
886,954	-0,55
887,381	-0,56
887,809	-0,57
888,236	-0,58
888,663	-0,59
889,09	-0,63
889,517	-0,65
889,944	-0,65
890,371	-0,63
890,798	-0,63
891,225	-0,64
891,652	-0,66
892,078	-0,64
892,505	-0,66
892,932	-0,61
893,359	-0,62
893,786	-0,61
894,212	-0,58
894,639	-0,6
895,066	-0,62
895,492	-0,56
895,919	-0,56
896,346	-0,56
896,772	-0,56
897,199	-0,53
897,625	-0,56
898,052	-0,53
898,478	-0,52
898,904	-0,53
899,331	-0,52
899,757	-0,54
900,183	-0,56
900,61	-0,54
901,036	-0,55
901,462	-0,54
901,888	-0,53
902,315	-0,51
902,741	-0,56
903,167	-0,55
903,593	-0,58
904,019	-0,56
904,445	-0,54
904,871	-0,57
905,297	-0,59
905,723	-0,58
906,149	-0,58
906,575	-0,58
907,001	-0,59
907,427	-0,55
907,852	-0,54
908,278	-0,54
908,704	-0,53
909,13	-0,52
909,555	-0,51
909,981	-0,51
910,407	-0,51
910,832	-0,5
911,258	-0,51
911,684	-0,51
912,109	-0,52
912,535	-0,55
912,96	-0,51
913,386	-0,55
913,811	-0,54
914,236	-0,55
914,662	-0,54
915,087	-0,58
915,512	-0,59
915,938	-0,61
916,363	-0,6
916,788	-0,61
917,213	-0,59
917,639	-0,63
918,064	-0,6
918,489	-0,6
918,914	-0,61
919,339	-0,62
919,764	-0,58
920,189	-0,57
920,614	-0,59
921,039	-0,6
921,464	-0,56
921,889	-0,58
922,314	-0,59
922,738	-0,62
923,163	-0,64
923,588	-0,64
924,013	-0,63
924,437	-0,63
924,862	-0,65
925,287	-0,61
925,711	-0,62
926,136	-0,63
926,561	-0,61
926,985	-0,6
927,41	-0,57
927,834	-0,54
928,259	-0,5
928,683	-0,49
929,108	-0,47
929,532	-0,48
929,956	-0,48
930,381	-0,47
930,805	-0,47
931,229	-0,46
931,653	-0,44
932,078	-0,44
932,502	-0,45
932,926	-0,46
933,35	-0,46
933,774	-0,45
934,198	-0,43
934,622	-0,42
935,046	-0,42
935,47	-0,43
935,894	-0,42
936,318	-0,43
936,742	-0,43
937,166	-0,44
937,59	-0,43
938,014	-0,46
938,437	-0,47
938,861	-0,49
939,285	-0,5
939,709	-0,5
940,132	-0,5
940,556	-0,5
940,98	-0,5
941,403	-0,47
941,827	-0,47
942,25	-0,5
942,674	-0,48
943,097	-0,47
943,521	-0,46
943,944	-0,48
944,368	-0,47
944,791	-0,46
945,214	-0,48
945,638	-0,48
946,061	-0,52
946,484	-0,52
946,907	-0,5
947,331	-0,5
947,754	-0,53
948,177	-0,51
948,6	-0,5
949,023	-0,5
949,446	-0,5
949,869	-0,48
950,292	-0,48
950,715	-0,45
951,138	-0,44
951,561	-0,43
951,984	-0,43
952,407	-0,43
952,83	-0,41
953,252	-0,37
953,675	-0,37
954,098	-0,38
954,521	-0,37
954,943	-0,36
955,366	-0,37
955,789	-0,35
956,211	-0,37
956,634	-0,37
957,056	-0,34
957,479	-0,35
957,902	-0,37
958,324	-0,38
958,746	-0,36
959,169	-0,38
959,591	-0,38
960,014	-0,38
960,436	-0,38
960,858	-0,37
961,281	-0,37
961,703	-0,38
962,125	-0,38
962,547	-0,37
962,969	-0,37
963,391	-0,37
963,814	-0,37
964,236	-0,36
964,658	-0,33
965,08	-0,34
965,502	-0,34
965,924	-0,31
966,346	-0,32
966,768	-0,31
967,189	-0,34
967,611	-0,33
968,033	-0,32
968,455	-0,31
968,877	-0,32
969,298	-0,33
969,72	-0,34
970,142	-0,33
970,563	-0,34
970,985	-0,32
971,407	-0,31
971,828	-0,29
972,25	-0,28
972,671	-0,27
973,093	-0,28
973,514	-0,27
973,936	-0,24
974,357	-0,23
974,778	-0,23
975,2	-0,23
975,621	-0,22
976,042	-0,2
976,464	-0,18
976,885	-0,18
977,306	-0,17
977,727	-0,16
978,148	-0,14
978,57	-0,14
978,991	-0,13
979,412	-0,11
979,833	-0,1
980,254	-0,09
980,675	-0,1
981,096	-0,08
981,517	-0,06
981,937	-0,06
982,358	-0,04
982,779	-0,02
983,2	-0,02
983,621	-0,01
984,042	0,01
984,462	0,02
984,883	0,04
985,304	0,05
985,724	0,06
986,145	0,07
986,565	0,09
986,986	0,1
987,407	0,1
987,827	0,12
988,248	0,13
988,668	0,14
989,088	0,15
989,509	0,16
989,929	0,17
990,35	0,18
990,77	0,19
991,19	0,2
991,61	0,21
992,031	0,22
992,451	0,22
992,871	0,23
993,291	0,24
993,711	0,25
994,131	0,25
994,551	0,26
994,971	0,27
995,391	0,28
995,811	0,29
996,231	0,29
996,651	0,3
997,071	0,31
997,491	0,32
997,911	0,32
998,331	0,33
998,75	0,34
999,17	0,34
999,59	0,34
1000,009	0,35
1000,429	0,36
1000,849	0,36
1001,268	0,37
1001,688	0,37
1002,107	0,38
1002,527	0,38
1002,946	0,38
1003,366	0,39
1003,785	0,39
1004,205	0,39
1004,624	0,4
1005,044	0,4
1005,463	0,4
1005,882	0,4
1006,301	0,4
1006,721	0,4
1007,14	0,41
1007,559	0,41
1007,978	0,41
1008,397	0,41
1008,816	0,41
1009,235	0,41
1009,655	0,41
1010,074	0,41
1010,492	0,41
1010,911	0,41
1011,33	0,41
1011,749	0,41
1012,168	0,4
1012,587	0,4
1013,006	0,4
1013,425	0,4
1013,843	0,4
1014,262	0,4
1014,681	0,4
1015,099	0,4
1015,518	0,4
1015,937	0,4
1016,355	0,4
1016,774	0,4
1017,192	0,4
1017,611	0,4
1018,029	0,4
1018,448	0,4
1018,866	0,4
1019,285	0,4
1019,703	0,4
1020,121	0,39
1020,54	0,39
1020,958	0,39
1021,376	0,39
1021,794	0,39
1022,213	0,39
1022,631	0,39
1023,049	0,39
1023,467	0,39
1023,885	0,39
1024,303	0,39
1024,721	0,39
1025,139	0,39
1025,557	0,39
1025,975	0,39
1026,393	0,39
1026,811	0,39
1027,229	0,39
1027,647	0,39
1028,065	0,38
1028,482	0,38
1028,9	0,38
1029,318	0,38
1029,735	0,38
1030,153	0,38
1030,571	0,38
1030,988	0,38
1031,406	0,38
1031,823	0,38
1032,241	0,38
1032,659	0,38
1033,076	0,38
1033,493	0,38
1033,911	0,38
1034,328	0,39
1034,746	0,39
1035,163	0,39
1035,58	0,39
1035,997	0,39
1036,415	0,39
1036,832	0,39
1037,249	0,39
1037,666	0,39
1038,083	0,39
1038,501	0,39
1038,918	0,39
1039,335	0,39
1039,752	0,39
1040,169	0,39
1040,586	0,39
1041,003	0,38
1041,419	0,39
1041,836	0,38
1042,253	0,38
1042,67	0,38
1043,087	0,38
1043,504	0,38
1043,92	0,38
1044,337	0,38
1044,754	0,38
1045,17	0,38
1045,587	0,38
1046,004	0,38
1046,42	0,38
1046,837	0,38
1047,253	0,38
1047,67	0,38
1048,086	0,38
1048,503	0,38
1048,919	0,38
1049,335	0,38
1049,752	0,38
1050,168	0,38
1050,584	0,38
1051,001	0,38
1051,417	0,38
1051,833	0,38
1052,249	0,38
1052,665	0,39
1053,081	0,39
1053,497	0,39
1053,914	0,39
1054,33	0,39
1054,746	0,39
1055,162	0,39
1055,578	0,39
1055,993	0,39
1056,409	0,39
1056,825	0,39
1057,241	0,39
1057,657	0,39
1058,073	0,39
1058,488	0,39
1058,904	0,39
1059,32	0,39
1059,736	0,39
1060,151	0,39
1060,567	0,39
1060,982	0,39
1061,398	0,39
1061,813	0,39
1062,229	0,39
1062,644	0,39
1063,06	0,39
1063,475	0,39
1063,891	0,39
1064,306	0,39
1064,721	0,38
1065,137	0,38
1065,552	0,38
1065,967	0,38
1066,382	0,38
1066,798	0,38
1067,213	0,38
1067,628	0,38
1068,043	0,39
1068,458	0,39
1068,873	0,39
1069,288	0,39
1069,703	0,39
1070,118	0,39
1070,533	0,39
1070,948	0,39
1071,363	0,39
1071,778	0,39
1072,193	0,39
1072,607	0,39
1073,022	0,39
1073,437	0,39
1073,852	0,39
1074,266	0,39
1074,681	0,39
1075,096	0,39
1075,51	0,39
1075,925	0,39
1076,339	0,38
1076,754	0,38
1077,168	0,38
1077,583	0,38
1077,997	0,38
1078,412	0,38
1078,826	0,38
1079,24	0,38
1079,655	0,38
1080,069	0,38
1080,483	0,38
1080,897	0,38
1081,312	0,38
1081,726	0,38
1082,14	0,38
1082,554	0,38
1082,968	0,38
1083,382	0,38
1083,796	0,38
1084,21	0,38
1084,624	0,37
1085,038	0,37
1085,452	0,37
1085,866	0,37
1086,28	0,37
1086,694	0,37
1087,108	0,37
1087,521	0,36
1087,935	0,36
1088,349	0,36
1088,763	0,36
1089,176	0,35
1089,59	0,35
1090,004	0,35
1090,417	0,35
1090,831	0,34
1091,244	0,34
1091,658	0,34
1092,071	0,33
1092,485	0,33
1092,898	0,33
1093,312	0,33
1093,725	0,33
1094,138	0,32
1094,552	0,32
1094,965	0,32
1095,378	0,32
1095,791	0,32
1096,205	0,32
1096,618	0,32
1097,031	0,31
1097,444	0,31
1097,857	0,31
1098,27	0,3
1098,683	0,3
1099,096	0,29
1099,509	0,29
1099,922	0,28
1100,335	0,28
1100,748	0,27
1101,161	0,27
1101,574	0,26
1101,986	0,26
1102,399	0,26
1102,812	0,26
1103,225	0,25
1103,637	0,25
1104,05	0,25
1104,463	0,25
1104,875	0,25
1105,288	0,25
1105,7	0,24
1106,113	0,24
1106,525	0,23
1106,938	0,23
1107,35	0,22
1107,763	0,22
1108,175	0,22
1108,588	0,21
1109	0,21
1109,412	0,2
1109,824	0,2
1110,237	0,2
1110,649	0,21
1111,061	0,19
