Data from 18C-808nm-8A-cont_Absorbance__354__01783.txt Node

Date: Mon Jul 17 17:31:20 CEST 2023
User: Laser008
Spectrometer: MAYP115816
Trigger mode: 0
Integration Time (sec): 2,500000E-1
Scans to average: 10
Electric dark correction enabled: true
Nonlinearity correction enabled: true
Boxcar width: 5
XAxis mode: Wavelengths
Number of Pixels in Spectrum: 2068
>>>>>Begin Spectral Data<<<<<
198,914	-0,67
199,384	-0,48
199,855	-0,33
200,325	-0,25
200,796	-0,23
201,266	-0,18
201,737	-0,17
202,207	-0,15
202,677	-0,15
203,147	-0,12
203,618	-0,1
204,088	-0,09
204,558	-0,07
205,028	-0,07
205,498	-0,08
205,968	-0,08
206,439	-0,1
206,909	-0,08
207,379	-0,09
207,849	-0,08
208,319	-0,09
208,789	-0,09
209,258	-0,08
209,728	-0,1
210,198	-0,09
210,668	-0,09
211,138	-0,08
211,608	-0,09
212,077	-0,1
212,547	-0,1
213,017	-0,11
213,486	-0,12
213,956	-0,12
214,426	-0,13
214,895	-0,13
215,365	-0,14
215,834	-0,15
216,304	-0,16
216,773	-0,15
217,243	-0,17
217,712	-0,18
218,181	-0,17
218,651	-0,18
219,12	-0,17
219,589	-0,17
220,058	-0,16
220,528	-0,17
220,997	-0,18
221,466	-0,18
221,935	-0,19
222,404	-0,18
222,873	-0,16
223,342	-0,17
223,812	-0,17
224,281	-0,16
224,749	-0,18
225,218	-0,19
225,687	-0,19
226,156	-0,17
226,625	-0,15
227,094	-0,15
227,563	-0,15
228,031	-0,16
228,5	-0,17
228,969	-0,16
229,438	-0,16
229,906	-0,14
230,375	-0,13
230,844	-0,13
231,312	-0,12
231,781	-0,14
232,249	-0,13
232,718	-0,14
233,186	-0,12
233,655	-0,13
234,123	-0,12
234,591	-0,12
235,06	-0,13
235,528	-0,14
235,996	-0,13
236,465	-0,13
236,933	-0,12
237,401	-0,12
237,869	-0,11
238,337	-0,11
238,805	-0,1
239,274	-0,1
239,742	-0,1
240,21	-0,1
240,678	-0,1
241,146	-0,09
241,614	-0,09
242,081	-0,09
242,549	-0,09
243,017	-0,1
243,485	-0,1
243,953	-0,1
244,421	-0,09
244,888	-0,1
245,356	-0,1
245,824	-0,09
246,291	-0,1
246,759	-0,1
247,227	-0,11
247,694	-0,1
248,162	-0,09
248,629	-0,09
249,097	-0,1
249,564	-0,11
250,032	-0,11
250,499	-0,12
250,967	-0,12
251,434	-0,12
251,901	-0,12
252,369	-0,12
252,836	-0,13
253,303	-0,14
253,77	-0,15
254,237	-0,14
254,705	-0,14
255,172	-0,12
255,639	-0,13
256,106	-0,14
256,573	-0,14
257,04	-0,14
257,507	-0,15
257,974	-0,16
258,441	-0,14
258,908	-0,15
259,375	-0,16
259,841	-0,16
260,308	-0,17
260,775	-0,16
261,242	-0,15
261,709	-0,16
262,175	-0,18
262,642	-0,17
263,109	-0,16
263,575	-0,17
264,042	-0,16
264,508	-0,16
264,975	-0,18
265,441	-0,19
265,908	-0,2
266,374	-0,2
266,841	-0,2
267,307	-0,19
267,773	-0,19
268,24	-0,19
268,706	-0,19
269,172	-0,2
269,639	-0,2
270,105	-0,18
270,571	-0,19
271,037	-0,19
271,503	-0,2
271,969	-0,19
272,435	-0,2
272,902	-0,21
273,368	-0,23
273,834	-0,22
274,3	-0,23
274,765	-0,23
275,231	-0,23
275,697	-0,22
276,163	-0,21
276,629	-0,2
277,095	-0,21
277,56	-0,2
278,026	-0,2
278,492	-0,18
278,958	-0,18
279,423	-0,18
279,889	-0,18
280,354	-0,19
280,82	-0,2
281,286	-0,22
281,751	-0,22
282,217	-0,21
282,682	-0,21
283,147	-0,21
283,613	-0,22
284,078	-0,21
284,544	-0,22
285,009	-0,22
285,474	-0,21
285,939	-0,22
286,405	-0,2
286,87	-0,2
287,335	-0,2
287,8	-0,2
288,265	-0,18
288,73	-0,19
289,195	-0,22
289,66	-0,22
290,125	-0,2
290,59	-0,2
291,055	-0,18
291,52	-0,19
291,985	-0,19
292,45	-0,21
292,915	-0,21
293,38	-0,21
293,844	-0,2
294,309	-0,18
294,774	-0,17
295,239	-0,18
295,703	-0,19
296,168	-0,19
296,632	-0,19
297,097	-0,17
297,562	-0,15
298,026	-0,16
298,491	-0,16
298,955	-0,15
299,419	-0,16
299,884	-0,15
300,348	-0,15
300,813	-0,14
301,277	-0,15
301,741	-0,15
302,205	-0,15
302,67	-0,14
303,134	-0,13
303,598	-0,13
304,062	-0,12
304,526	-0,12
304,99	-0,13
305,454	-0,13
305,919	-0,12
306,383	-0,12
306,847	-0,12
307,31	-0,13
307,774	-0,14
308,238	-0,14
308,702	-0,14
309,166	-0,16
309,63	-0,15
310,094	-0,14
310,557	-0,14
311,021	-0,13
311,485	-0,12
311,948	-0,12
312,412	-0,11
312,876	-0,1
313,339	-0,1
313,803	-0,11
314,266	-0,11
314,73	-0,11
315,193	-0,11
315,657	-0,09
316,12	-0,09
316,584	-0,09
317,047	-0,08
317,51	-0,07
317,973	-0,07
318,437	-0,06
318,9	-0,04
319,363	-0,02
319,826	-0,02
320,29	-0,02
320,753	-0,03
321,216	-0,02
321,679	-0,02
322,142	-0,02
322,605	-0,03
323,068	-0,03
323,531	-0,03
323,994	-0,03
324,457	-0,04
324,92	-0,02
325,382	-0,01
325,845	-0,01
326,308	-0,01
326,771	-0
327,233	0
327,696	0,01
328,159	0,02
328,622	0,03
329,084	0,03
329,547	0,04
330,009	0,04
330,472	0,05
330,934	0,06
331,397	0,06
331,859	0,06
332,322	0,07
332,784	0,07
333,246	0,07
333,709	0,07
334,171	0,07
334,633	0,06
335,096	0,06
335,558	0,06
336,02	0,06
336,482	0,06
336,944	0,07
337,406	0,08
337,868	0,09
338,331	0,09
338,793	0,1
339,255	0,11
339,717	0,12
340,178	0,13
340,64	0,14
341,102	0,15
341,564	0,16
342,026	0,18
342,488	0,19
342,949	0,2
343,411	0,23
343,873	0,26
344,335	0,29
344,796	0,32
345,258	0,37
345,719	0,4
346,181	0,45
346,643	0,49
347,104	0,52
347,566	0,55
348,027	0,57
348,488	0,59
348,95	0,61
349,411	0,63
349,873	0,66
350,334	0,68
350,795	0,7
351,256	0,7
351,718	0,71
352,179	0,72
352,64	0,72
353,101	0,72
353,562	0,73
354,023	0,73
354,484	0,73
354,945	0,74
355,406	0,74
355,867	0,74
356,328	0,74
356,789	0,74
357,25	0,75
357,711	0,75
358,172	0,75
358,633	0,75
359,093	0,75
359,554	0,75
360,015	0,75
360,476	0,76
360,936	0,76
361,397	0,76
361,858	0,76
362,318	0,76
362,779	0,76
363,239	0,76
363,7	0,76
364,16	0,76
364,621	0,76
365,081	0,76
365,541	0,76
366,002	0,76
366,462	0,76
366,922	0,76
367,383	0,76
367,843	0,76
368,303	0,76
368,763	0,76
369,223	0,76
369,684	0,76
370,144	0,76
370,604	0,76
371,064	0,76
371,524	0,76
371,984	0,76
372,444	0,76
372,904	0,76
373,363	0,76
373,823	0,76
374,283	0,76
374,743	0,76
375,203	0,76
375,663	0,76
376,122	0,76
376,582	0,76
377,042	0,76
377,501	0,76
377,961	0,76
378,42	0,76
378,88	0,76
379,34	0,76
379,799	0,76
380,259	0,76
380,718	0,76
381,177	0,75
381,637	0,75
382,096	0,75
382,555	0,75
383,015	0,75
383,474	0,75
383,933	0,75
384,393	0,75
384,852	0,75
385,311	0,75
385,77	0,75
386,229	0,75
386,688	0,75
387,147	0,75
387,606	0,75
388,065	0,75
388,524	0,75
388,983	0,75
389,442	0,75
389,901	0,75
390,36	0,75
390,819	0,75
391,277	0,75
391,736	0,75
392,195	0,75
392,654	0,75
393,112	0,75
393,571	0,75
394,03	0,74
394,488	0,74
394,947	0,74
395,405	0,74
395,864	0,74
396,322	0,74
396,781	0,74
397,239	0,74
397,698	0,74
398,156	0,74
398,614	0,74
399,073	0,74
399,531	0,74
399,989	0,74
400,447	0,74
400,905	0,74
401,364	0,74
401,822	0,74
402,28	0,74
402,738	0,74
403,196	0,74
403,654	0,74
404,112	0,74
404,57	0,74
405,028	0,74
405,486	0,74
405,944	0,73
406,402	0,73
406,859	0,74
407,317	0,74
407,775	0,74
408,233	0,74
408,691	0,74
409,148	0,74
409,606	0,73
410,064	0,74
410,521	0,73
410,979	0,73
411,436	0,73
411,894	0,73
412,351	0,73
412,809	0,73
413,266	0,73
413,724	0,73
414,181	0,73
414,638	0,73
415,096	0,73
415,553	0,73
416,01	0,73
416,467	0,73
416,925	0,73
417,382	0,73
417,839	0,73
418,296	0,73
418,753	0,73
419,21	0,73
419,667	0,73
420,124	0,73
420,581	0,73
421,038	0,73
421,495	0,73
421,952	0,73
422,409	0,73
422,866	0,73
423,322	0,73
423,779	0,73
424,236	0,73
424,693	0,73
425,149	0,73
425,606	0,73
426,063	0,73
426,519	0,73
426,976	0,73
427,433	0,73
427,889	0,73
428,346	0,73
428,802	0,73
429,258	0,73
429,715	0,73
430,171	0,73
430,628	0,73
431,084	0,73
431,54	0,73
431,997	0,73
432,453	0,73
432,909	0,73
433,365	0,72
433,821	0,72
434,277	0,72
434,734	0,72
435,19	0,72
435,646	0,72
436,102	0,72
436,558	0,72
437,014	0,72
437,47	0,72
437,925	0,72
438,381	0,72
438,837	0,73
439,293	0,73
439,749	0,73
440,205	0,73
440,66	0,73
441,116	0,73
441,572	0,73
442,027	0,73
442,483	0,73
442,939	0,73
443,394	0,73
443,85	0,73
444,305	0,73
444,761	0,73
445,216	0,73
445,672	0,73
446,127	0,73
446,582	0,73
447,038	0,73
447,493	0,73
447,948	0,73
448,403	0,73
448,859	0,73
449,314	0,73
449,769	0,73
450,224	0,73
450,679	0,73
451,134	0,73
451,589	0,73
452,044	0,73
452,499	0,73
452,954	0,73
453,409	0,73
453,864	0,73
454,319	0,73
454,774	0,73
455,229	0,73
455,684	0,73
456,138	0,73
456,593	0,73
457,048	0,73
457,503	0,73
457,957	0,73
458,412	0,73
458,866	0,73
459,321	0,73
459,776	0,74
460,23	0,74
460,685	0,74
461,139	0,74
461,593	0,74
462,048	0,74
462,502	0,74
462,957	0,74
463,411	0,74
463,865	0,74
464,319	0,74
464,774	0,75
465,228	0,75
465,682	0,75
466,136	0,75
466,59	0,75
467,044	0,75
467,499	0,75
467,953	0,75
468,407	0,75
468,861	0,75
469,315	0,75
469,768	0,75
470,222	0,75
470,676	0,76
471,13	0,76
471,584	0,76
472,038	0,76
472,491	0,76
472,945	0,76
473,399	0,76
473,852	0,76
474,306	0,76
474,76	0,76
475,213	0,77
475,667	0,77
476,12	0,77
476,574	0,77
477,027	0,77
477,481	0,77
477,934	0,77
478,388	0,78
478,841	0,78
479,294	0,78
479,748	0,78
480,201	0,78
480,654	0,79
481,107	0,79
481,561	0,79
482,014	0,79
482,467	0,79
482,92	0,79
483,373	0,8
483,826	0,8
484,279	0,8
484,732	0,8
485,185	0,8
485,638	0,8
486,091	0,81
486,544	0,81
486,997	0,81
487,449	0,81
487,902	0,82
488,355	0,82
488,808	0,82
489,26	0,82
489,713	0,83
490,166	0,83
490,618	0,83
491,071	0,84
491,523	0,84
491,976	0,84
492,429	0,84
492,881	0,85
493,333	0,85
493,786	0,85
494,238	0,86
494,691	0,86
495,143	0,86
495,595	0,87
496,048	0,87
496,5	0,87
496,952	0,88
497,404	0,88
497,856	0,88
498,309	0,89
498,761	0,89
499,213	0,9
499,665	0,9
500,117	0,9
500,569	0,91
501,021	0,91
501,473	0,92
501,925	0,92
502,377	0,92
502,828	0,93
503,28	0,93
503,732	0,94
504,184	0,94
504,636	0,95
505,087	0,95
505,539	0,95
505,991	0,96
506,442	0,96
506,894	0,97
507,345	0,97
507,797	0,97
508,249	0,98
508,7	0,98
509,151	0,98
509,603	0,99
510,054	0,99
510,506	1
510,957	1
511,408	1
511,86	1,01
512,311	1,01
512,762	1,01
513,213	1,02
513,665	1,02
514,116	1,02
514,567	1,03
515,018	1,03
515,469	1,03
515,92	1,04
516,371	1,04
516,822	1,04
517,273	1,05
517,724	1,05
518,175	1,05
518,626	1,06
519,076	1,06
519,527	1,06
519,978	1,06
520,429	1,07
520,88	1,07
521,33	1,07
521,781	1,07
522,232	1,07
522,682	1,08
523,133	1,08
523,583	1,08
524,034	1,08
524,484	1,08
524,935	1,08
525,385	1,08
525,836	1,08
526,286	1,08
526,736	1,08
527,187	1,08
527,637	1,08
528,087	1,08
528,538	1,08
528,988	1,08
529,438	1,08
529,888	1,08
530,338	1,08
530,788	1,08
531,238	1,07
531,688	1,07
532,139	1,07
532,589	1,07
533,038	1,07
533,488	1,07
533,938	1,06
534,388	1,06
534,838	1,06
535,288	1,05
535,738	1,05
536,187	1,05
536,637	1,04
537,087	1,04
537,537	1,04
537,986	1,03
538,436	1,03
538,885	1,02
539,335	1,02
539,785	1,01
540,234	1,01
540,684	1,01
541,133	1
541,582	1
542,032	0,99
542,481	0,99
542,931	0,98
543,38	0,98
543,829	0,97
544,278	0,97
544,728	0,96
545,177	0,96
545,626	0,96
546,075	0,95
546,524	0,95
546,973	0,94
547,422	0,94
547,871	0,93
548,32	0,93
548,769	0,93
549,218	0,92
549,667	0,92
550,116	0,91
550,565	0,91
551,014	0,9
551,463	0,9
551,911	0,89
552,36	0,89
552,809	0,88
553,258	0,88
553,706	0,88
554,155	0,87
554,603	0,87
555,052	0,86
555,501	0,86
555,949	0,85
556,398	0,85
556,846	0,84
557,294	0,84
557,743	0,83
558,191	0,83
558,64	0,82
559,088	0,82
559,536	0,81
559,985	0,81
560,433	0,8
560,881	0,8
561,329	0,79
561,777	0,79
562,225	0,78
562,674	0,78
563,122	0,78
563,57	0,77
564,018	0,77
564,466	0,76
564,914	0,76
565,362	0,76
565,809	0,75
566,257	0,75
566,705	0,74
567,153	0,74
567,601	0,73
568,048	0,73
568,496	0,73
568,944	0,72
569,392	0,72
569,839	0,72
570,287	0,71
570,734	0,71
571,182	0,7
571,63	0,7
572,077	0,7
572,525	0,69
572,972	0,69
573,419	0,69
573,867	0,68
574,314	0,68
574,761	0,67
575,209	0,67
575,656	0,67
576,103	0,66
576,551	0,66
576,998	0,66
577,445	0,66
577,892	0,65
578,339	0,65
578,786	0,65
579,233	0,64
579,68	0,64
580,127	0,64
580,574	0,63
581,021	0,63
581,468	0,63
581,915	0,63
582,362	0,62
582,809	0,62
583,255	0,62
583,702	0,62
584,149	0,61
584,596	0,61
585,042	0,61
585,489	0,61
585,936	0,6
586,382	0,6
586,829	0,6
587,275	0,6
587,722	0,59
588,168	0,59
588,615	0,59
589,061	0,59
589,508	0,58
589,954	0,58
590,4	0,58
590,847	0,58
591,293	0,58
591,739	0,57
592,185	0,57
592,632	0,57
593,078	0,57
593,524	0,57
593,97	0,57
594,416	0,57
594,862	0,56
595,308	0,56
595,754	0,56
596,2	0,56
596,646	0,56
597,092	0,56
597,538	0,55
597,984	0,55
598,43	0,55
598,876	0,55
599,321	0,55
599,767	0,55
600,213	0,55
600,659	0,54
601,104	0,54
601,55	0,54
601,995	0,54
602,441	0,54
602,887	0,54
603,332	0,54
603,778	0,53
604,223	0,53
604,668	0,53
605,114	0,53
605,559	0,53
606,005	0,53
606,45	0,53
606,895	0,53
607,341	0,53
607,786	0,52
608,231	0,52
608,676	0,52
609,121	0,51
609,566	0,51
610,012	0,5
610,457	0,5
610,902	0,5
611,347	0,49
611,792	0,49
612,237	0,49
612,682	0,49
613,127	0,49
613,571	0,49
614,016	0,49
614,461	0,49
614,906	0,5
615,351	0,5
615,795	0,5
616,24	0,5
616,685	0,5
617,129	0,5
617,574	0,5
618,019	0,5
618,463	0,5
618,908	0,5
619,352	0,5
619,797	0,49
620,241	0,49
620,686	0,49
621,13	0,49
621,574	0,49
622,019	0,49
622,463	0,49
622,907	0,49
623,352	0,49
623,796	0,49
624,24	0,48
624,684	0,48
625,128	0,48
625,572	0,48
626,016	0,48
626,461	0,48
626,905	0,48
627,349	0,48
627,793	0,48
628,236	0,48
628,68	0,48
629,124	0,48
629,568	0,48
630,012	0,48
630,456	0,48
630,9	0,48
631,343	0,48
631,787	0,48
632,231	0,48
632,674	0,48
633,118	0,48
633,562	0,48
634,005	0,48
634,449	0,48
634,892	0,48
635,336	0,48
635,779	0,48
636,223	0,47
636,666	0,47
637,109	0,47
637,553	0,47
637,996	0,47
638,439	0,47
638,883	0,47
639,326	0,47
639,769	0,47
640,212	0,47
640,655	0,47
641,099	0,47
641,542	0,47
641,985	0,47
642,428	0,47
642,871	0,46
643,314	0,46
643,757	0,46
644,2	0,46
644,643	0,46
645,085	0,46
645,528	0,46
645,971	0,46
646,414	0,46
646,857	0,46
647,299	0,46
647,742	0,46
648,185	0,46
648,627	0,46
649,07	0,46
649,513	0,46
649,955	0,46
650,398	0,46
650,84	0,46
651,283	0,46
651,725	0,46
652,168	0,46
652,61	0,46
653,052	0,46
653,495	0,46
653,937	0,37
654,379	0,32
654,821	0,32
655,264	0,32
655,706	0,32
656,148	0,32
656,59	0,32
657,032	0,32
657,474	0,32
657,916	0,32
658,358	0,31
658,8	0,37
659,242	0,45
659,684	0,46
660,126	0,45
660,568	0,45
661,01	0,45
661,452	0,45
661,894	0,45
662,335	0,45
662,777	0,45
663,219	0,45
663,661	0,45
664,102	0,45
664,544	0,45
664,985	0,45
665,427	0,45
665,869	0,45
666,31	0,45
666,752	0,45
667,193	0,45
667,634	0,45
668,076	0,45
668,517	0,45
668,959	0,45
669,4	0,45
669,841	0,45
670,282	0,45
670,724	0,45
671,165	0,45
671,606	0,45
672,047	0,45
672,488	0,45
672,929	0,45
673,37	0,45
673,811	0,45
674,252	0,44
674,693	0,44
675,134	0,44
675,575	0,44
676,016	0,44
676,457	0,44
676,898	0,44
677,339	0,44
677,78	0,44
678,22	0,44
678,661	0,44
679,102	0,44
679,542	0,44
679,983	0,44
680,424	0,44
680,864	0,44
681,305	0,44
681,745	0,44
682,186	0,44
682,626	0,44
683,067	0,44
683,507	0,44
683,948	0,44
684,388	0,44
684,828	0,44
685,269	0,44
685,709	0,44
686,149	0,44
686,589	0,44
687,029	0,43
687,47	0,43
687,91	0,43
688,35	0,43
688,79	0,43
689,23	0,43
689,67	0,43
690,11	0,43
690,55	0,43
690,99	0,43
691,43	0,43
691,87	0,43
692,31	0,43
692,749	0,43
693,189	0,42
693,629	0,42
694,069	0,42
694,508	0,42
694,948	0,42
695,388	0,42
695,827	0,42
696,267	0,42
696,706	0,42
697,146	0,42
697,586	0,43
698,025	0,43
698,464	0,43
698,904	0,43
699,343	0,43
699,783	0,43
700,222	0,43
700,661	0,43
701,101	0,43
701,54	0,43
701,979	0,43
702,418	0,43
702,857	0,43
703,297	0,43
703,736	0,43
704,175	0,43
704,614	0,43
705,053	0,43
705,492	0,43
705,931	0,43
706,37	0,43
706,809	0,42
707,248	0,42
707,687	0,42
708,125	0,42
708,564	0,42
709,003	0,42
709,442	0,42
709,88	0,42
710,319	0,42
710,758	0,42
711,196	0,42
711,635	0,42
712,074	0,42
712,512	0,42
712,951	0,42
713,389	0,41
713,828	0,41
714,266	0,41
714,705	0,41
715,143	0,41
715,581	0,41
716,02	0,41
716,458	0,41
716,896	0,41
717,334	0,41
717,773	0,41
718,211	0,41
718,649	0,42
719,087	0,42
719,525	0,42
719,963	0,42
720,401	0,42
720,839	0,42
721,277	0,42
721,715	0,42
722,153	0,42
722,591	0,42
723,029	0,42
723,467	0,42
723,905	0,42
724,342	0,42
724,78	0,42
725,218	0,42
725,656	0,42
726,093	0,42
726,531	0,42
726,969	0,42
727,406	0,42
727,844	0,42
728,281	0,42
728,719	0,42
729,156	0,42
729,594	0,42
730,031	0,41
730,469	0,41
730,906	0,41
731,343	0,41
731,781	0,41
732,218	0,41
732,655	0,41
733,092	0,41
733,53	0,41
733,967	0,41
734,404	0,41
734,841	0,41
735,278	0,4
735,715	0,4
736,152	0,4
736,589	0,4
737,026	0,4
737,463	0,4
737,9	0,4
738,337	0,4
738,774	0,4
739,211	0,4
739,647	0,4
740,084	0,4
740,521	0,4
740,958	0,4
741,394	0,4
741,831	0,4
742,268	0,4
742,704	0,4
743,141	0,4
743,577	0,4
744,014	0,4
744,45	0,4
744,887	0,4
745,323	0,4
745,76	0,4
746,196	0,4
746,632	0,39
747,069	0,39
747,505	0,39
747,941	0,39
748,378	0,39
748,814	0,39
749,25	0,39
749,686	0,39
750,122	0,4
750,558	0,4
750,994	0,4
751,43	0,4
751,866	0,4
752,302	0,4
752,738	0,4
753,174	0,41
753,61	0,41
754,046	0,41
754,482	0,41
754,918	0,41
755,354	0,41
755,789	0,41
756,225	0,4
756,661	0,4
757,096	0,4
757,532	0,4
757,968	0,4
758,403	0,4
758,839	0,39
759,274	0,39
759,71	0,39
760,145	0,38
760,581	0,38
761,016	0,37
761,452	0,37
761,887	0,36
762,322	0,36
762,758	0,36
763,193	0,35
763,628	0,34
764,063	0,34
764,499	0,33
764,934	0,33
765,369	0,32
765,804	0,31
766,239	0,31
766,674	0,3
767,109	0,3
767,544	0,29
767,979	0,28
768,414	0,27
768,849	0,27
769,284	0,26
769,719	0,25
770,154	0,24
770,588	0,23
771,023	0,22
771,458	0,2
771,893	0,2
772,327	0,18
772,762	0,17
773,197	0,16
773,631	0,15
774,066	0,14
774,5	0,13
774,935	0,12
775,369	0,11
775,804	0,1
776,238	0,09
776,673	0,08
777,107	0,08
777,541	0,07
777,976	0,06
778,41	0,05
778,844	0,05
779,279	0,04
779,713	0,03
780,147	0,02
780,581	0,01
781,015	-0
781,449	-0,01
781,883	-0,02
782,317	-0,04
782,751	-0,05
783,185	-0,06
783,619	-0,06
784,053	-0,07
784,487	-0,08
784,921	-0,08
785,355	-0,09
785,789	-0,1
786,223	-0,11
786,656	-0,12
787,09	-0,13
787,524	-0,13
787,957	-0,14
788,391	-0,17
788,825	-0,18
789,258	-0,19
789,692	-0,2
790,125	-0,22
790,559	-0,23
790,992	-0,25
791,426	-0,27
791,859	-0,28
792,293	-0,32
792,726	-0,33
793,159	-0,35
793,593	-0,37
794,026	-0,39
794,459	-0,42
794,892	-0,44
795,326	-0,47
795,759	-0,51
796,192	-0,55
796,625	-0,59
797,058	-0,62
797,491	-0,66
797,924	-0,7
798,357	-0,75
798,79	-0,79
799,223	-0,83
799,656	-0,89
800,089	-0,93
800,522	-0,98
800,955	-1,02
801,387	-1,08
801,82	-1,13
802,253	-1,19
802,686	-1,27
803,118	-1,33
803,551	-1,38
803,984	-1,42
804,416	-1,46
804,849	-1,49
805,281	-1,6
805,714	-1,96
806,146	-2,43
806,579	-2,7
807,011	-2,86
807,444	-2,96
807,876	-3,04
808,308	-3,07
808,741	-3,1
809,173	-3,15
809,605	-3,17
810,037	-3,25
810,47	-3,17
810,902	-2,97
811,334	-2,82
811,766	-2,65
812,198	-2,39
812,63	-1,97
813,062	-1,76
813,494	-1,67
813,926	-1,58
814,358	-1,53
814,79	-1,45
815,222	-1,39
815,654	-1,34
816,086	-1,28
816,518	-1,23
816,949	-1,17
817,381	-1,13
817,813	-1,11
818,245	-1,07
818,676	-1,03
819,108	-1
819,54	-0,98
819,971	-0,96
820,403	-0,91
820,834	-0,9
821,266	-0,85
821,697	-0,83
822,129	-0,81
822,56	-0,79
822,991	-0,76
823,423	-0,73
823,854	-0,73
824,286	-0,7
824,717	-0,69
825,148	-0,67
825,579	-0,66
826,01	-0,65
826,442	-0,64
826,873	-0,63
827,304	-0,59
827,735	-0,59
828,166	-0,59
828,597	-0,6
829,028	-0,58
829,459	-0,59
829,89	-0,6
830,321	-0,55
830,752	-0,56
831,183	-0,55
831,613	-0,54
832,044	-0,54
832,475	-0,53
832,906	-0,54
833,336	-0,54
833,767	-0,55
834,198	-0,54
834,628	-0,52
835,059	-0,55
835,49	-0,57
835,92	-0,54
836,351	-0,54
836,781	-0,54
837,212	-0,56
837,642	-0,56
838,072	-0,54
838,503	-0,55
838,933	-0,52
839,364	-0,53
839,794	-0,5
840,224	-0,49
840,654	-0,53
841,085	-0,53
841,515	-0,51
841,945	-0,51
842,375	-0,47
842,805	-0,46
843,235	-0,44
843,665	-0,47
844,095	-0,45
844,525	-0,48
844,955	-0,49
845,385	-0,46
845,815	-0,45
846,245	-0,47
846,675	-0,47
847,105	-0,49
847,534	-0,49
847,964	-0,48
848,394	-0,46
848,824	-0,5
849,253	-0,49
849,683	-0,49
850,112	-0,51
850,542	-0,54
850,972	-0,54
851,401	-0,52
851,831	-0,51
852,26	-0,51
852,69	-0,54
853,119	-0,54
853,548	-0,55
853,978	-0,55
854,407	-0,52
854,836	-0,52
855,266	-0,51
855,695	-0,52
856,124	-0,54
856,553	-0,55
856,983	-0,56
857,412	-0,55
857,841	-0,57
858,27	-0,56
858,699	-0,56
859,128	-0,61
859,557	-0,62
859,986	-0,63
860,415	-0,6
860,844	-0,58
861,273	-0,57
861,702	-0,59
862,13	-0,58
862,559	-0,59
862,988	-0,57
863,417	-0,57
863,845	-0,56
864,274	-0,57
864,703	-0,56
865,131	-0,57
865,56	-0,58
865,989	-0,61
866,417	-0,57
866,846	-0,57
867,274	-0,57
867,703	-0,58
868,131	-0,59
868,559	-0,59
868,988	-0,61
869,416	-0,6
869,844	-0,61
870,273	-0,64
870,701	-0,61
871,129	-0,65
871,557	-0,68
871,986	-0,68
872,414	-0,69
872,842	-0,66
873,27	-0,65
873,698	-0,61
874,126	-0,66
874,554	-0,64
874,982	-0,63
875,41	-0,66
875,838	-0,61
876,266	-0,58
876,694	-0,58
877,122	-0,57
877,549	-0,62
877,977	-0,6
878,405	-0,62
878,833	-0,58
879,26	-0,56
879,688	-0,57
880,116	-0,54
880,543	-0,53
880,971	-0,52
881,399	-0,55
881,826	-0,56
882,254	-0,54
882,681	-0,58
883,109	-0,54
883,536	-0,56
883,963	-0,57
884,391	-0,55
884,818	-0,55
885,245	-0,59
885,673	-0,6
886,1	-0,57
886,527	-0,57
886,954	-0,54
887,381	-0,54
887,809	-0,55
888,236	-0,56
888,663	-0,57
889,09	-0,61
889,517	-0,63
889,944	-0,62
890,371	-0,61
890,798	-0,62
891,225	-0,62
891,652	-0,64
892,078	-0,63
892,505	-0,65
892,932	-0,61
893,359	-0,62
893,786	-0,61
894,212	-0,58
894,639	-0,6
895,066	-0,63
895,492	-0,57
895,919	-0,57
896,346	-0,57
896,772	-0,57
897,199	-0,54
897,625	-0,57
898,052	-0,53
898,478	-0,51
898,904	-0,53
899,331	-0,52
899,757	-0,52
900,183	-0,55
900,61	-0,53
901,036	-0,54
901,462	-0,54
901,888	-0,54
902,315	-0,52
902,741	-0,58
903,167	-0,56
903,593	-0,58
904,019	-0,57
904,445	-0,55
904,871	-0,57
905,297	-0,59
905,723	-0,59
906,149	-0,58
906,575	-0,58
907,001	-0,59
907,427	-0,56
907,852	-0,55
908,278	-0,56
908,704	-0,54
909,13	-0,52
909,555	-0,51
909,981	-0,51
910,407	-0,51
910,832	-0,51
911,258	-0,51
911,684	-0,51
912,109	-0,51
912,535	-0,54
912,96	-0,5
913,386	-0,55
913,811	-0,55
914,236	-0,57
914,662	-0,56
915,087	-0,59
915,512	-0,58
915,938	-0,61
916,363	-0,6
916,788	-0,62
917,213	-0,6
917,639	-0,64
918,064	-0,61
918,489	-0,61
918,914	-0,62
919,339	-0,63
919,764	-0,6
920,189	-0,6
920,614	-0,61
921,039	-0,62
921,464	-0,57
921,889	-0,6
922,314	-0,61
922,738	-0,64
923,163	-0,65
923,588	-0,65
924,013	-0,64
924,437	-0,64
924,862	-0,65
925,287	-0,6
925,711	-0,61
926,136	-0,62
926,561	-0,61
926,985	-0,59
927,41	-0,56
927,834	-0,54
928,259	-0,51
928,683	-0,48
929,108	-0,45
929,532	-0,47
929,956	-0,47
930,381	-0,46
930,805	-0,47
931,229	-0,46
931,653	-0,44
932,078	-0,44
932,502	-0,45
932,926	-0,46
933,35	-0,47
933,774	-0,46
934,198	-0,43
934,622	-0,42
935,046	-0,43
935,47	-0,43
935,894	-0,42
936,318	-0,42
936,742	-0,43
937,166	-0,43
937,59	-0,42
938,014	-0,45
938,437	-0,46
938,861	-0,48
939,285	-0,48
939,709	-0,48
940,132	-0,48
940,556	-0,49
940,98	-0,49
941,403	-0,48
941,827	-0,48
942,25	-0,5
942,674	-0,48
943,097	-0,48
943,521	-0,48
943,944	-0,49
944,368	-0,48
944,791	-0,48
945,214	-0,5
945,638	-0,5
946,061	-0,53
946,484	-0,53
946,907	-0,51
947,331	-0,51
947,754	-0,55
948,177	-0,53
948,6	-0,53
949,023	-0,52
949,446	-0,51
949,869	-0,49
950,292	-0,5
950,715	-0,47
951,138	-0,46
951,561	-0,44
951,984	-0,45
952,407	-0,44
952,83	-0,42
953,252	-0,37
953,675	-0,38
954,098	-0,39
954,521	-0,37
954,943	-0,36
955,366	-0,37
955,789	-0,34
956,211	-0,36
956,634	-0,36
957,056	-0,33
957,479	-0,34
957,902	-0,37
958,324	-0,36
958,746	-0,35
959,169	-0,36
959,591	-0,36
960,014	-0,38
960,436	-0,37
960,858	-0,36
961,281	-0,36
961,703	-0,39
962,125	-0,4
962,547	-0,37
962,969	-0,38
963,391	-0,39
963,814	-0,39
964,236	-0,38
964,658	-0,35
965,08	-0,36
965,502	-0,36
965,924	-0,33
966,346	-0,33
966,768	-0,31
967,189	-0,34
967,611	-0,33
968,033	-0,33
968,455	-0,3
968,877	-0,31
969,298	-0,33
969,72	-0,33
970,142	-0,32
970,563	-0,33
970,985	-0,31
971,407	-0,31
971,828	-0,29
972,25	-0,28
972,671	-0,26
973,093	-0,27
973,514	-0,26
973,936	-0,24
974,357	-0,23
974,778	-0,22
975,2	-0,21
975,621	-0,2
976,042	-0,18
976,464	-0,17
976,885	-0,16
977,306	-0,16
977,727	-0,15
978,148	-0,13
978,57	-0,13
978,991	-0,11
979,412	-0,1
979,833	-0,09
980,254	-0,08
980,675	-0,09
981,096	-0,08
981,517	-0,06
981,937	-0,06
982,358	-0,05
982,779	-0,03
983,2	-0,03
983,621	-0,03
984,042	-0,02
984,462	-0,01
984,883	0,01
985,304	0,02
985,724	0,03
986,145	0,04
986,565	0,06
986,986	0,07
987,407	0,08
987,827	0,09
988,248	0,11
988,668	0,12
989,088	0,13
989,509	0,14
989,929	0,15
990,35	0,17
990,77	0,18
991,19	0,19
991,61	0,2
992,031	0,21
992,451	0,22
992,871	0,23
993,291	0,24
993,711	0,25
994,131	0,25
994,551	0,26
994,971	0,27
995,391	0,27
995,811	0,28
996,231	0,28
996,651	0,29
997,071	0,3
997,491	0,31
997,911	0,31
998,331	0,32
998,75	0,33
999,17	0,33
999,59	0,34
1000,009	0,34
1000,429	0,35
1000,849	0,35
1001,268	0,36
1001,688	0,36
1002,107	0,36
1002,527	0,37
1002,946	0,37
1003,366	0,37
1003,785	0,37
1004,205	0,38
1004,624	0,38
1005,044	0,38
1005,463	0,38
1005,882	0,39
1006,301	0,39
1006,721	0,39
1007,14	0,39
1007,559	0,39
1007,978	0,39
1008,397	0,39
1008,816	0,39
1009,235	0,39
1009,655	0,39
1010,074	0,39
1010,492	0,39
1010,911	0,39
1011,33	0,39
1011,749	0,39
1012,168	0,39
1012,587	0,39
1013,006	0,39
1013,425	0,39
1013,843	0,39
1014,262	0,39
1014,681	0,39
1015,099	0,38
1015,518	0,38
1015,937	0,38
1016,355	0,38
1016,774	0,38
1017,192	0,38
1017,611	0,38
1018,029	0,38
1018,448	0,38
1018,866	0,38
1019,285	0,38
1019,703	0,38
1020,121	0,38
1020,54	0,38
1020,958	0,38
1021,376	0,38
1021,794	0,38
1022,213	0,38
1022,631	0,38
1023,049	0,38
1023,467	0,38
1023,885	0,37
1024,303	0,37
1024,721	0,37
1025,139	0,37
1025,557	0,37
1025,975	0,37
1026,393	0,37
1026,811	0,37
1027,229	0,37
1027,647	0,37
1028,065	0,37
1028,482	0,37
1028,9	0,37
1029,318	0,37
1029,735	0,37
1030,153	0,37
1030,571	0,37
1030,988	0,37
1031,406	0,37
1031,823	0,37
1032,241	0,37
1032,659	0,37
1033,076	0,37
1033,493	0,37
1033,911	0,37
1034,328	0,37
1034,746	0,37
1035,163	0,37
1035,58	0,37
1035,997	0,37
1036,415	0,37
1036,832	0,37
1037,249	0,37
1037,666	0,37
1038,083	0,37
1038,501	0,37
1038,918	0,37
1039,335	0,37
1039,752	0,37
1040,169	0,38
1040,586	0,38
1041,003	0,37
1041,419	0,38
1041,836	0,38
1042,253	0,37
1042,67	0,37
1043,087	0,37
1043,504	0,37
1043,92	0,37
1044,337	0,37
1044,754	0,37
1045,17	0,37
1045,587	0,37
1046,004	0,37
1046,42	0,37
1046,837	0,37
1047,253	0,37
1047,67	0,37
1048,086	0,37
1048,503	0,37
1048,919	0,37
1049,335	0,37
1049,752	0,37
1050,168	0,37
1050,584	0,37
1051,001	0,37
1051,417	0,37
1051,833	0,37
1052,249	0,37
1052,665	0,38
1053,081	0,38
1053,497	0,38
1053,914	0,38
1054,33	0,38
1054,746	0,38
1055,162	0,38
1055,578	0,38
1055,993	0,38
1056,409	0,38
1056,825	0,38
1057,241	0,38
1057,657	0,38
1058,073	0,38
1058,488	0,38
1058,904	0,38
1059,32	0,38
1059,736	0,38
1060,151	0,38
1060,567	0,38
1060,982	0,38
1061,398	0,38
1061,813	0,38
1062,229	0,38
1062,644	0,38
1063,06	0,38
1063,475	0,38
1063,891	0,38
1064,306	0,37
1064,721	0,37
1065,137	0,37
1065,552	0,37
1065,967	0,37
1066,382	0,37
1066,798	0,37
1067,213	0,37
1067,628	0,37
1068,043	0,37
1068,458	0,38
1068,873	0,38
1069,288	0,38
1069,703	0,38
1070,118	0,38
1070,533	0,38
1070,948	0,37
1071,363	0,37
1071,778	0,37
1072,193	0,37
1072,607	0,37
1073,022	0,37
1073,437	0,37
1073,852	0,37
1074,266	0,37
1074,681	0,37
1075,096	0,37
1075,51	0,37
1075,925	0,37
1076,339	0,37
1076,754	0,37
1077,168	0,37
1077,583	0,37
1077,997	0,37
1078,412	0,37
1078,826	0,37
1079,24	0,37
1079,655	0,37
1080,069	0,37
1080,483	0,37
1080,897	0,37
1081,312	0,37
1081,726	0,37
1082,14	0,37
1082,554	0,37
1082,968	0,37
1083,382	0,37
1083,796	0,36
1084,21	0,36
1084,624	0,36
1085,038	0,36
1085,452	0,36
1085,866	0,36
1086,28	0,36
1086,694	0,36
1087,108	0,36
1087,521	0,35
1087,935	0,35
1088,349	0,35
1088,763	0,35
1089,176	0,35
1089,59	0,34
1090,004	0,34
1090,417	0,34
1090,831	0,33
1091,244	0,33
1091,658	0,33
1092,071	0,33
1092,485	0,32
1092,898	0,32
1093,312	0,32
1093,725	0,31
1094,138	0,31
1094,552	0,31
1094,965	0,31
1095,378	0,31
1095,791	0,31
1096,205	0,3
1096,618	0,3
1097,031	0,3
1097,444	0,29
1097,857	0,29
1098,27	0,29
1098,683	0,29
1099,096	0,28
1099,509	0,28
1099,922	0,27
1100,335	0,27
1100,748	0,27
1101,161	0,26
1101,574	0,26
1101,986	0,26
1102,399	0,25
1102,812	0,25
1103,225	0,24
1103,637	0,24
1104,05	0,24
1104,463	0,24
1104,875	0,24
1105,288	0,23
1105,7	0,23
1106,113	0,23
1106,525	0,23
1106,938	0,23
1107,35	0,22
1107,763	0,22
1108,175	0,21
1108,588	0,21
1109	0,2
1109,412	0,2
1109,824	0,2
1110,237	0,2
1110,649	0,21
1111,061	0,2
