Data from 18C-808nm-8A-cont_Absorbance__271__01700.txt Node

Date: Mon Jul 17 17:27:53 CEST 2023
User: Laser008
Spectrometer: MAYP115816
Trigger mode: 0
Integration Time (sec): 2,500000E-1
Scans to average: 10
Electric dark correction enabled: true
Nonlinearity correction enabled: true
Boxcar width: 5
XAxis mode: Wavelengths
Number of Pixels in Spectrum: 2068
>>>>>Begin Spectral Data<<<<<
198,914	-0,65
199,384	-0,44
199,855	-0,33
200,325	-0,26
200,796	-0,23
201,266	-0,18
201,737	-0,17
202,207	-0,15
202,677	-0,14
203,147	-0,12
203,618	-0,09
204,088	-0,08
204,558	-0,07
205,028	-0,06
205,498	-0,06
205,968	-0,06
206,439	-0,07
206,909	-0,07
207,379	-0,08
207,849	-0,08
208,319	-0,1
208,789	-0,11
209,258	-0,11
209,728	-0,12
210,198	-0,12
210,668	-0,12
211,138	-0,12
211,608	-0,12
212,077	-0,12
212,547	-0,12
213,017	-0,12
213,486	-0,12
213,956	-0,12
214,426	-0,13
214,895	-0,12
215,365	-0,13
215,834	-0,13
216,304	-0,14
216,773	-0,14
217,243	-0,15
217,712	-0,16
218,181	-0,16
218,651	-0,16
219,12	-0,15
219,589	-0,16
220,058	-0,15
220,528	-0,15
220,997	-0,16
221,466	-0,18
221,935	-0,18
222,404	-0,18
222,873	-0,17
223,342	-0,18
223,812	-0,18
224,281	-0,18
224,749	-0,19
225,218	-0,2
225,687	-0,21
226,156	-0,19
226,625	-0,17
227,094	-0,17
227,563	-0,17
228,031	-0,19
228,5	-0,18
228,969	-0,18
229,438	-0,18
229,906	-0,17
230,375	-0,15
230,844	-0,15
231,312	-0,14
231,781	-0,15
232,249	-0,14
232,718	-0,15
233,186	-0,14
233,655	-0,14
234,123	-0,14
234,591	-0,14
235,06	-0,14
235,528	-0,15
235,996	-0,15
236,465	-0,15
236,933	-0,15
237,401	-0,15
237,869	-0,14
238,337	-0,13
238,805	-0,12
239,274	-0,11
239,742	-0,11
240,21	-0,1
240,678	-0,1
241,146	-0,09
241,614	-0,09
242,081	-0,09
242,549	-0,09
243,017	-0,09
243,485	-0,09
243,953	-0,09
244,421	-0,09
244,888	-0,09
245,356	-0,09
245,824	-0,09
246,291	-0,1
246,759	-0,1
247,227	-0,1
247,694	-0,09
248,162	-0,09
248,629	-0,09
249,097	-0,09
249,564	-0,1
250,032	-0,11
250,499	-0,11
250,967	-0,11
251,434	-0,11
251,901	-0,1
252,369	-0,1
252,836	-0,11
253,303	-0,12
253,77	-0,14
254,237	-0,14
254,705	-0,14
255,172	-0,14
255,639	-0,14
256,106	-0,16
256,573	-0,16
257,04	-0,16
257,507	-0,16
257,974	-0,17
258,441	-0,15
258,908	-0,15
259,375	-0,16
259,841	-0,16
260,308	-0,16
260,775	-0,16
261,242	-0,15
261,709	-0,16
262,175	-0,17
262,642	-0,17
263,109	-0,17
263,575	-0,19
264,042	-0,17
264,508	-0,17
264,975	-0,19
265,441	-0,2
265,908	-0,21
266,374	-0,21
266,841	-0,21
267,307	-0,2
267,773	-0,19
268,24	-0,19
268,706	-0,19
269,172	-0,2
269,639	-0,2
270,105	-0,19
270,571	-0,19
271,037	-0,18
271,503	-0,19
271,969	-0,19
272,435	-0,19
272,902	-0,21
273,368	-0,22
273,834	-0,22
274,3	-0,22
274,765	-0,22
275,231	-0,22
275,697	-0,21
276,163	-0,22
276,629	-0,21
277,095	-0,22
277,56	-0,21
278,026	-0,22
278,492	-0,2
278,958	-0,21
279,423	-0,21
279,889	-0,2
280,354	-0,2
280,82	-0,21
281,286	-0,21
281,751	-0,21
282,217	-0,2
282,682	-0,2
283,147	-0,2
283,613	-0,21
284,078	-0,21
284,544	-0,21
285,009	-0,22
285,474	-0,22
285,939	-0,22
286,405	-0,22
286,87	-0,21
287,335	-0,21
287,8	-0,2
288,265	-0,18
288,73	-0,19
289,195	-0,21
289,66	-0,2
290,125	-0,19
290,59	-0,19
291,055	-0,19
291,52	-0,19
291,985	-0,2
292,45	-0,21
292,915	-0,21
293,38	-0,22
293,844	-0,2
294,309	-0,18
294,774	-0,18
295,239	-0,19
295,703	-0,2
296,168	-0,19
296,632	-0,18
297,097	-0,16
297,562	-0,15
298,026	-0,15
298,491	-0,16
298,955	-0,16
299,419	-0,15
299,884	-0,15
300,348	-0,14
300,813	-0,13
301,277	-0,14
301,741	-0,14
302,205	-0,15
302,67	-0,13
303,134	-0,13
303,598	-0,12
304,062	-0,12
304,526	-0,11
304,99	-0,13
305,454	-0,13
305,919	-0,13
306,383	-0,12
306,847	-0,12
307,31	-0,13
307,774	-0,14
308,238	-0,14
308,702	-0,14
309,166	-0,16
309,63	-0,16
310,094	-0,13
310,557	-0,12
311,021	-0,12
311,485	-0,13
311,948	-0,12
312,412	-0,12
312,876	-0,11
313,339	-0,11
313,803	-0,12
314,266	-0,11
314,73	-0,11
315,193	-0,11
315,657	-0,1
316,12	-0,1
316,584	-0,08
317,047	-0,08
317,51	-0,07
317,973	-0,07
318,437	-0,06
318,9	-0,05
319,363	-0,04
319,826	-0,03
320,29	-0,04
320,753	-0,05
321,216	-0,04
321,679	-0,04
322,142	-0,04
322,605	-0,05
323,068	-0,05
323,531	-0,05
323,994	-0,05
324,457	-0,05
324,92	-0,03
325,382	-0,03
325,845	-0,03
326,308	-0,03
326,771	-0,02
327,233	-0,01
327,696	-0
328,159	0
328,622	0,01
329,084	0
329,547	0,01
330,009	0,01
330,472	0,02
330,934	0,03
331,397	0,03
331,859	0,04
332,322	0,04
332,784	0,04
333,246	0,05
333,709	0,05
334,171	0,06
334,633	0,07
335,096	0,06
335,558	0,06
336,02	0,06
336,482	0,06
336,944	0,07
337,406	0,08
337,868	0,09
338,331	0,09
338,793	0,11
339,255	0,11
339,717	0,11
340,178	0,12
340,64	0,13
341,102	0,13
341,564	0,14
342,026	0,15
342,488	0,16
342,949	0,17
343,411	0,2
343,873	0,23
344,335	0,25
344,796	0,3
345,258	0,34
345,719	0,39
346,181	0,43
346,643	0,47
347,104	0,51
347,566	0,53
348,027	0,56
348,488	0,58
348,95	0,6
349,411	0,62
349,873	0,64
350,334	0,66
350,795	0,68
351,256	0,69
351,718	0,69
352,179	0,7
352,64	0,7
353,101	0,7
353,562	0,71
354,023	0,71
354,484	0,71
354,945	0,72
355,406	0,72
355,867	0,72
356,328	0,72
356,789	0,72
357,25	0,72
357,711	0,73
358,172	0,73
358,633	0,73
359,093	0,73
359,554	0,73
360,015	0,73
360,476	0,73
360,936	0,74
361,397	0,74
361,858	0,74
362,318	0,74
362,779	0,74
363,239	0,74
363,7	0,74
364,16	0,74
364,621	0,74
365,081	0,74
365,541	0,74
366,002	0,74
366,462	0,74
366,922	0,74
367,383	0,74
367,843	0,74
368,303	0,74
368,763	0,74
369,223	0,74
369,684	0,74
370,144	0,74
370,604	0,74
371,064	0,74
371,524	0,74
371,984	0,74
372,444	0,74
372,904	0,74
373,363	0,74
373,823	0,74
374,283	0,74
374,743	0,74
375,203	0,74
375,663	0,74
376,122	0,74
376,582	0,74
377,042	0,74
377,501	0,74
377,961	0,74
378,42	0,74
378,88	0,74
379,34	0,74
379,799	0,74
380,259	0,73
380,718	0,73
381,177	0,73
381,637	0,73
382,096	0,73
382,555	0,73
383,015	0,73
383,474	0,73
383,933	0,73
384,393	0,73
384,852	0,73
385,311	0,73
385,77	0,73
386,229	0,73
386,688	0,73
387,147	0,73
387,606	0,73
388,065	0,73
388,524	0,73
388,983	0,73
389,442	0,73
389,901	0,73
390,36	0,73
390,819	0,73
391,277	0,73
391,736	0,73
392,195	0,73
392,654	0,73
393,112	0,72
393,571	0,72
394,03	0,72
394,488	0,72
394,947	0,72
395,405	0,72
395,864	0,72
396,322	0,72
396,781	0,72
397,239	0,72
397,698	0,72
398,156	0,72
398,614	0,72
399,073	0,72
399,531	0,72
399,989	0,72
400,447	0,72
400,905	0,72
401,364	0,72
401,822	0,72
402,28	0,72
402,738	0,72
403,196	0,72
403,654	0,72
404,112	0,72
404,57	0,72
405,028	0,72
405,486	0,72
405,944	0,72
406,402	0,72
406,859	0,72
407,317	0,72
407,775	0,72
408,233	0,72
408,691	0,72
409,148	0,72
409,606	0,72
410,064	0,72
410,521	0,72
410,979	0,72
411,436	0,72
411,894	0,71
412,351	0,71
412,809	0,71
413,266	0,71
413,724	0,71
414,181	0,71
414,638	0,71
415,096	0,71
415,553	0,71
416,01	0,71
416,467	0,71
416,925	0,71
417,382	0,71
417,839	0,71
418,296	0,71
418,753	0,71
419,21	0,71
419,667	0,71
420,124	0,71
420,581	0,71
421,038	0,71
421,495	0,71
421,952	0,71
422,409	0,71
422,866	0,71
423,322	0,71
423,779	0,71
424,236	0,71
424,693	0,71
425,149	0,71
425,606	0,71
426,063	0,71
426,519	0,71
426,976	0,71
427,433	0,71
427,889	0,71
428,346	0,71
428,802	0,71
429,258	0,71
429,715	0,71
430,171	0,71
430,628	0,71
431,084	0,71
431,54	0,71
431,997	0,71
432,453	0,71
432,909	0,71
433,365	0,71
433,821	0,71
434,277	0,71
434,734	0,7
435,19	0,71
435,646	0,71
436,102	0,71
436,558	0,71
437,014	0,71
437,47	0,71
437,925	0,71
438,381	0,71
438,837	0,71
439,293	0,71
439,749	0,71
440,205	0,71
440,66	0,71
441,116	0,71
441,572	0,71
442,027	0,71
442,483	0,71
442,939	0,71
443,394	0,71
443,85	0,71
444,305	0,71
444,761	0,71
445,216	0,71
445,672	0,71
446,127	0,71
446,582	0,71
447,038	0,71
447,493	0,71
447,948	0,71
448,403	0,71
448,859	0,71
449,314	0,71
449,769	0,71
450,224	0,71
450,679	0,71
451,134	0,71
451,589	0,71
452,044	0,71
452,499	0,71
452,954	0,71
453,409	0,71
453,864	0,71
454,319	0,71
454,774	0,71
455,229	0,71
455,684	0,71
456,138	0,71
456,593	0,71
457,048	0,71
457,503	0,71
457,957	0,71
458,412	0,71
458,866	0,72
459,321	0,72
459,776	0,72
460,23	0,72
460,685	0,72
461,139	0,72
461,593	0,72
462,048	0,72
462,502	0,72
462,957	0,72
463,411	0,72
463,865	0,72
464,319	0,73
464,774	0,73
465,228	0,73
465,682	0,73
466,136	0,73
466,59	0,73
467,044	0,73
467,499	0,73
467,953	0,73
468,407	0,73
468,861	0,73
469,315	0,73
469,768	0,73
470,222	0,73
470,676	0,73
471,13	0,74
471,584	0,74
472,038	0,74
472,491	0,74
472,945	0,74
473,399	0,74
473,852	0,74
474,306	0,74
474,76	0,74
475,213	0,74
475,667	0,75
476,12	0,75
476,574	0,75
477,027	0,75
477,481	0,75
477,934	0,75
478,388	0,75
478,841	0,76
479,294	0,76
479,748	0,76
480,201	0,76
480,654	0,76
481,107	0,76
481,561	0,77
482,014	0,77
482,467	0,77
482,92	0,77
483,373	0,77
483,826	0,77
484,279	0,77
484,732	0,78
485,185	0,78
485,638	0,78
486,091	0,78
486,544	0,78
486,997	0,79
487,449	0,79
487,902	0,79
488,355	0,79
488,808	0,8
489,26	0,8
489,713	0,8
490,166	0,8
490,618	0,81
491,071	0,81
491,523	0,81
491,976	0,81
492,429	0,82
492,881	0,82
493,333	0,82
493,786	0,82
494,238	0,83
494,691	0,83
495,143	0,83
495,595	0,84
496,048	0,84
496,5	0,84
496,952	0,85
497,404	0,85
497,856	0,85
498,309	0,86
498,761	0,86
499,213	0,86
499,665	0,87
500,117	0,87
500,569	0,88
501,021	0,88
501,473	0,88
501,925	0,89
502,377	0,89
502,828	0,89
503,28	0,9
503,732	0,9
504,184	0,91
504,636	0,91
505,087	0,91
505,539	0,92
505,991	0,92
506,442	0,92
506,894	0,93
507,345	0,93
507,797	0,93
508,249	0,94
508,7	0,94
509,151	0,95
509,603	0,95
510,054	0,95
510,506	0,96
510,957	0,96
511,408	0,96
511,86	0,97
512,311	0,97
512,762	0,97
513,213	0,98
513,665	0,98
514,116	0,98
514,567	0,99
515,018	0,99
515,469	0,99
515,92	0,99
516,371	1
516,822	1
517,273	1
517,724	1,01
518,175	1,01
518,626	1,01
519,076	1,01
519,527	1,02
519,978	1,02
520,429	1,02
520,88	1,02
521,33	1,02
521,781	1,03
522,232	1,03
522,682	1,03
523,133	1,03
523,583	1,03
524,034	1,03
524,484	1,04
524,935	1,04
525,385	1,04
525,836	1,04
526,286	1,04
526,736	1,04
527,187	1,04
527,637	1,04
528,087	1,03
528,538	1,03
528,988	1,03
529,438	1,03
529,888	1,03
530,338	1,03
530,788	1,03
531,238	1,03
531,688	1,03
532,139	1,03
532,589	1,02
533,038	1,02
533,488	1,02
533,938	1,02
534,388	1,02
534,838	1,02
535,288	1,01
535,738	1,01
536,187	1,01
536,637	1
537,087	1
537,537	1
537,986	0,99
538,436	0,99
538,885	0,98
539,335	0,98
539,785	0,97
540,234	0,97
540,684	0,97
541,133	0,96
541,582	0,96
542,032	0,95
542,481	0,95
542,931	0,94
543,38	0,94
543,829	0,94
544,278	0,93
544,728	0,93
545,177	0,92
545,626	0,92
546,075	0,92
546,524	0,91
546,973	0,91
547,422	0,9
547,871	0,9
548,32	0,9
548,769	0,89
549,218	0,89
549,667	0,89
550,116	0,89
550,565	0,88
551,014	0,88
551,463	0,87
551,911	0,87
552,36	0,87
552,809	0,86
553,258	0,86
553,706	0,85
554,155	0,85
554,603	0,85
555,052	0,84
555,501	0,84
555,949	0,83
556,398	0,83
556,846	0,82
557,294	0,82
557,743	0,81
558,191	0,81
558,64	0,8
559,088	0,8
559,536	0,8
559,985	0,79
560,433	0,79
560,881	0,78
561,329	0,78
561,777	0,77
562,225	0,77
562,674	0,77
563,122	0,76
563,57	0,76
564,018	0,76
564,466	0,75
564,914	0,75
565,362	0,75
565,809	0,74
566,257	0,74
566,705	0,73
567,153	0,73
567,601	0,73
568,048	0,72
568,496	0,72
568,944	0,72
569,392	0,71
569,839	0,71
570,287	0,71
570,734	0,7
571,182	0,7
571,63	0,7
572,077	0,69
572,525	0,69
572,972	0,69
573,419	0,68
573,867	0,68
574,314	0,68
574,761	0,67
575,209	0,67
575,656	0,67
576,103	0,66
576,551	0,66
576,998	0,66
577,445	0,66
577,892	0,65
578,339	0,65
578,786	0,65
579,233	0,64
579,68	0,64
580,127	0,64
580,574	0,64
581,021	0,63
581,468	0,63
581,915	0,63
582,362	0,63
582,809	0,62
583,255	0,62
583,702	0,62
584,149	0,62
584,596	0,62
585,042	0,61
585,489	0,61
585,936	0,61
586,382	0,61
586,829	0,61
587,275	0,6
587,722	0,6
588,168	0,6
588,615	0,6
589,061	0,59
589,508	0,59
589,954	0,59
590,4	0,59
590,847	0,59
591,293	0,59
591,739	0,58
592,185	0,58
592,632	0,58
593,078	0,58
593,524	0,58
593,97	0,58
594,416	0,58
594,862	0,58
595,308	0,57
595,754	0,57
596,2	0,57
596,646	0,57
597,092	0,57
597,538	0,57
597,984	0,57
598,43	0,56
598,876	0,56
599,321	0,56
599,767	0,56
600,213	0,56
600,659	0,56
601,104	0,56
601,55	0,56
601,995	0,55
602,441	0,55
602,887	0,55
603,332	0,55
603,778	0,55
604,223	0,55
604,668	0,55
605,114	0,55
605,559	0,54
606,005	0,54
606,45	0,54
606,895	0,54
607,341	0,54
607,786	0,54
608,231	0,54
608,676	0,53
609,121	0,53
609,566	0,52
610,012	0,52
610,457	0,51
610,902	0,51
611,347	0,51
611,792	0,51
612,237	0,51
612,682	0,5
613,127	0,5
613,571	0,51
614,016	0,51
614,461	0,51
614,906	0,51
615,351	0,51
615,795	0,51
616,24	0,51
616,685	0,51
617,129	0,51
617,574	0,52
618,019	0,52
618,463	0,51
618,908	0,51
619,352	0,51
619,797	0,51
620,241	0,51
620,686	0,51
621,13	0,51
621,574	0,51
622,019	0,51
622,463	0,51
622,907	0,51
623,352	0,5
623,796	0,5
624,24	0,5
624,684	0,5
625,128	0,5
625,572	0,5
626,016	0,5
626,461	0,5
626,905	0,5
627,349	0,5
627,793	0,5
628,236	0,5
628,68	0,5
629,124	0,5
629,568	0,5
630,012	0,5
630,456	0,5
630,9	0,5
631,343	0,5
631,787	0,5
632,231	0,5
632,674	0,5
633,118	0,5
633,562	0,5
634,005	0,5
634,449	0,5
634,892	0,5
635,336	0,5
635,779	0,5
636,223	0,5
636,666	0,5
637,109	0,5
637,553	0,5
637,996	0,5
638,439	0,49
638,883	0,49
639,326	0,49
639,769	0,49
640,212	0,49
640,655	0,49
641,099	0,49
641,542	0,49
641,985	0,49
642,428	0,49
642,871	0,49
643,314	0,49
643,757	0,48
644,2	0,48
644,643	0,48
645,085	0,48
645,528	0,48
645,971	0,48
646,414	0,48
646,857	0,48
647,299	0,48
647,742	0,48
648,185	0,48
648,627	0,48
649,07	0,48
649,513	0,48
649,955	0,48
650,398	0,48
650,84	0,48
651,283	0,48
651,725	0,48
652,168	0,48
652,61	0,48
653,052	0,48
653,495	0,48
653,937	0,4
654,379	0,34
654,821	0,35
655,264	0,35
655,706	0,35
656,148	0,35
656,59	0,35
657,032	0,35
657,474	0,35
657,916	0,35
658,358	0,34
658,8	0,4
659,242	0,48
659,684	0,48
660,126	0,48
660,568	0,48
661,01	0,48
661,452	0,48
661,894	0,48
662,335	0,48
662,777	0,47
663,219	0,47
663,661	0,47
664,102	0,47
664,544	0,47
664,985	0,47
665,427	0,47
665,869	0,47
666,31	0,47
666,752	0,47
667,193	0,47
667,634	0,47
668,076	0,47
668,517	0,47
668,959	0,47
669,4	0,47
669,841	0,47
670,282	0,47
670,724	0,47
671,165	0,47
671,606	0,47
672,047	0,47
672,488	0,47
672,929	0,47
673,37	0,47
673,811	0,47
674,252	0,47
674,693	0,47
675,134	0,47
675,575	0,47
676,016	0,46
676,457	0,46
676,898	0,46
677,339	0,46
677,78	0,46
678,22	0,46
678,661	0,46
679,102	0,46
679,542	0,46
679,983	0,46
680,424	0,46
680,864	0,46
681,305	0,46
681,745	0,46
682,186	0,46
682,626	0,46
683,067	0,46
683,507	0,46
683,948	0,46
684,388	0,46
684,828	0,46
685,269	0,46
685,709	0,46
686,149	0,46
686,589	0,46
687,029	0,46
687,47	0,46
687,91	0,46
688,35	0,46
688,79	0,46
689,23	0,46
689,67	0,46
690,11	0,46
690,55	0,46
690,99	0,46
691,43	0,45
691,87	0,45
692,31	0,45
692,749	0,45
693,189	0,45
693,629	0,45
694,069	0,45
694,508	0,45
694,948	0,45
695,388	0,45
695,827	0,45
696,267	0,45
696,706	0,45
697,146	0,45
697,586	0,45
698,025	0,45
698,464	0,45
698,904	0,45
699,343	0,45
699,783	0,45
700,222	0,45
700,661	0,45
701,101	0,45
701,54	0,45
701,979	0,46
702,418	0,46
702,857	0,46
703,297	0,46
703,736	0,46
704,175	0,45
704,614	0,45
705,053	0,45
705,492	0,45
705,931	0,45
706,37	0,45
706,809	0,45
707,248	0,45
707,687	0,45
708,125	0,45
708,564	0,45
709,003	0,45
709,442	0,45
709,88	0,45
710,319	0,45
710,758	0,45
711,196	0,44
711,635	0,44
712,074	0,44
712,512	0,44
712,951	0,44
713,389	0,44
713,828	0,44
714,266	0,44
714,705	0,44
715,143	0,44
715,581	0,44
716,02	0,44
716,458	0,44
716,896	0,44
717,334	0,44
717,773	0,44
718,211	0,44
718,649	0,44
719,087	0,44
719,525	0,44
719,963	0,44
720,401	0,44
720,839	0,44
721,277	0,44
721,715	0,44
722,153	0,44
722,591	0,44
723,029	0,44
723,467	0,44
723,905	0,44
724,342	0,44
724,78	0,44
725,218	0,44
725,656	0,44
726,093	0,44
726,531	0,44
726,969	0,44
727,406	0,44
727,844	0,44
728,281	0,44
728,719	0,44
729,156	0,44
729,594	0,44
730,031	0,44
730,469	0,44
730,906	0,44
731,343	0,44
731,781	0,44
732,218	0,44
732,655	0,43
733,092	0,43
733,53	0,43
733,967	0,43
734,404	0,43
734,841	0,43
735,278	0,43
735,715	0,43
736,152	0,43
736,589	0,43
737,026	0,42
737,463	0,42
737,9	0,42
738,337	0,42
738,774	0,42
739,211	0,42
739,647	0,42
740,084	0,42
740,521	0,42
740,958	0,43
741,394	0,43
741,831	0,43
742,268	0,43
742,704	0,42
743,141	0,42
743,577	0,42
744,014	0,42
744,45	0,42
744,887	0,42
745,323	0,42
745,76	0,42
746,196	0,42
746,632	0,42
747,069	0,42
747,505	0,42
747,941	0,42
748,378	0,42
748,814	0,42
749,25	0,42
749,686	0,42
750,122	0,42
750,558	0,42
750,994	0,42
751,43	0,42
751,866	0,42
752,302	0,43
752,738	0,43
753,174	0,43
753,61	0,43
754,046	0,43
754,482	0,43
754,918	0,43
755,354	0,43
755,789	0,43
756,225	0,42
756,661	0,42
757,096	0,42
757,532	0,42
757,968	0,42
758,403	0,42
758,839	0,41
759,274	0,41
759,71	0,41
760,145	0,4
760,581	0,4
761,016	0,39
761,452	0,39
761,887	0,38
762,322	0,38
762,758	0,37
763,193	0,37
763,628	0,36
764,063	0,35
764,499	0,35
764,934	0,34
765,369	0,34
765,804	0,33
766,239	0,32
766,674	0,32
767,109	0,31
767,544	0,3
767,979	0,29
768,414	0,28
768,849	0,27
769,284	0,27
769,719	0,26
770,154	0,25
770,588	0,24
771,023	0,23
771,458	0,22
771,893	0,21
772,327	0,19
772,762	0,18
773,197	0,17
773,631	0,17
774,066	0,16
774,5	0,15
774,935	0,14
775,369	0,13
775,804	0,11
776,238	0,11
776,673	0,1
777,107	0,09
777,541	0,08
777,976	0,08
778,41	0,06
778,844	0,05
779,279	0,04
779,713	0,03
780,147	0,02
780,581	0,02
781,015	0
781,449	-0,01
781,883	-0,01
782,317	-0,02
782,751	-0,03
783,185	-0,04
783,619	-0,05
784,053	-0,06
784,487	-0,06
784,921	-0,07
785,355	-0,08
785,789	-0,08
786,223	-0,09
786,656	-0,11
787,09	-0,12
787,524	-0,13
787,957	-0,14
788,391	-0,16
788,825	-0,17
789,258	-0,18
789,692	-0,2
790,125	-0,21
790,559	-0,23
790,992	-0,25
791,426	-0,27
791,859	-0,28
792,293	-0,31
792,726	-0,33
793,159	-0,35
793,593	-0,37
794,026	-0,4
794,459	-0,43
794,892	-0,46
795,326	-0,48
795,759	-0,52
796,192	-0,56
796,625	-0,61
797,058	-0,63
797,491	-0,68
797,924	-0,71
798,357	-0,76
798,79	-0,8
799,223	-0,84
799,656	-0,9
800,089	-0,95
800,522	-0,99
800,955	-1,03
801,387	-1,09
801,82	-1,14
802,253	-1,21
802,686	-1,28
803,118	-1,34
803,551	-1,39
803,984	-1,43
804,416	-1,47
804,849	-1,5
805,281	-1,61
805,714	-1,95
806,146	-2,43
806,579	-2,69
807,011	-2,86
807,444	-2,96
807,876	-3,05
808,308	-3,08
808,741	-3,11
809,173	-3,16
809,605	-3,18
810,037	-3,26
810,47	-3,18
810,902	-2,99
811,334	-2,84
811,766	-2,69
812,198	-2,45
812,63	-2,02
813,062	-1,79
813,494	-1,69
813,926	-1,61
814,358	-1,55
814,79	-1,47
815,222	-1,41
815,654	-1,36
816,086	-1,3
816,518	-1,24
816,949	-1,19
817,381	-1,15
817,813	-1,13
818,245	-1,09
818,676	-1,05
819,108	-1,02
819,54	-1
819,971	-0,98
820,403	-0,93
820,834	-0,91
821,266	-0,87
821,697	-0,84
822,129	-0,83
822,56	-0,8
822,991	-0,78
823,423	-0,75
823,854	-0,74
824,286	-0,72
824,717	-0,71
825,148	-0,69
825,579	-0,68
826,01	-0,66
826,442	-0,66
826,873	-0,64
827,304	-0,61
827,735	-0,61
828,166	-0,61
828,597	-0,6
829,028	-0,6
829,459	-0,6
829,89	-0,6
830,321	-0,57
830,752	-0,58
831,183	-0,56
831,613	-0,55
832,044	-0,55
832,475	-0,54
832,906	-0,56
833,336	-0,56
833,767	-0,56
834,198	-0,55
834,628	-0,52
835,059	-0,55
835,49	-0,56
835,92	-0,53
836,351	-0,54
836,781	-0,54
837,212	-0,54
837,642	-0,54
838,072	-0,52
838,503	-0,53
838,933	-0,51
839,364	-0,52
839,794	-0,5
840,224	-0,49
840,654	-0,53
841,085	-0,53
841,515	-0,51
841,945	-0,51
842,375	-0,47
842,805	-0,46
843,235	-0,45
843,665	-0,47
844,095	-0,46
844,525	-0,49
844,955	-0,49
845,385	-0,46
845,815	-0,45
846,245	-0,47
846,675	-0,47
847,105	-0,49
847,534	-0,49
847,964	-0,48
848,394	-0,46
848,824	-0,5
849,253	-0,49
849,683	-0,5
850,112	-0,51
850,542	-0,55
850,972	-0,55
851,401	-0,53
851,831	-0,51
852,26	-0,52
852,69	-0,55
853,119	-0,54
853,548	-0,54
853,978	-0,54
854,407	-0,53
854,836	-0,53
855,266	-0,52
855,695	-0,53
856,124	-0,55
856,553	-0,56
856,983	-0,57
857,412	-0,57
857,841	-0,57
858,27	-0,58
858,699	-0,58
859,128	-0,61
859,557	-0,61
859,986	-0,62
860,415	-0,59
860,844	-0,57
861,273	-0,57
861,702	-0,59
862,13	-0,56
862,559	-0,58
862,988	-0,56
863,417	-0,55
863,845	-0,55
864,274	-0,56
864,703	-0,55
865,131	-0,56
865,56	-0,57
865,989	-0,6
866,417	-0,57
866,846	-0,57
867,274	-0,56
867,703	-0,59
868,131	-0,6
868,559	-0,6
868,988	-0,61
869,416	-0,6
869,844	-0,62
870,273	-0,64
870,701	-0,61
871,129	-0,64
871,557	-0,67
871,986	-0,67
872,414	-0,67
872,842	-0,63
873,27	-0,62
873,698	-0,59
874,126	-0,63
874,554	-0,61
874,982	-0,6
875,41	-0,64
875,838	-0,59
876,266	-0,57
876,694	-0,58
877,122	-0,57
877,549	-0,63
877,977	-0,6
878,405	-0,62
878,833	-0,58
879,26	-0,57
879,688	-0,57
880,116	-0,55
880,543	-0,53
880,971	-0,53
881,399	-0,55
881,826	-0,56
882,254	-0,54
882,681	-0,57
883,109	-0,54
883,536	-0,55
883,963	-0,58
884,391	-0,56
884,818	-0,55
885,245	-0,59
885,673	-0,6
886,1	-0,58
886,527	-0,58
886,954	-0,55
887,381	-0,56
887,809	-0,58
888,236	-0,6
888,663	-0,6
889,09	-0,64
889,517	-0,66
889,944	-0,65
890,371	-0,63
890,798	-0,64
891,225	-0,63
891,652	-0,66
892,078	-0,63
892,505	-0,66
892,932	-0,61
893,359	-0,63
893,786	-0,62
894,212	-0,59
894,639	-0,61
895,066	-0,64
895,492	-0,59
895,919	-0,59
896,346	-0,59
896,772	-0,59
897,199	-0,55
897,625	-0,58
898,052	-0,55
898,478	-0,53
898,904	-0,54
899,331	-0,54
899,757	-0,55
900,183	-0,56
900,61	-0,54
901,036	-0,55
901,462	-0,55
901,888	-0,54
902,315	-0,53
902,741	-0,59
903,167	-0,57
903,593	-0,6
904,019	-0,58
904,445	-0,55
904,871	-0,58
905,297	-0,6
905,723	-0,59
906,149	-0,59
906,575	-0,59
907,001	-0,59
907,427	-0,56
907,852	-0,56
908,278	-0,56
908,704	-0,54
909,13	-0,53
909,555	-0,53
909,981	-0,53
910,407	-0,53
910,832	-0,52
911,258	-0,53
911,684	-0,54
912,109	-0,53
912,535	-0,54
912,96	-0,49
913,386	-0,53
913,811	-0,53
914,236	-0,55
914,662	-0,52
915,087	-0,56
915,512	-0,55
915,938	-0,57
916,363	-0,54
916,788	-0,56
917,213	-0,55
917,639	-0,6
918,064	-0,59
918,489	-0,6
918,914	-0,59
919,339	-0,61
919,764	-0,58
920,189	-0,59
920,614	-0,61
921,039	-0,62
921,464	-0,58
921,889	-0,61
922,314	-0,61
922,738	-0,65
923,163	-0,66
923,588	-0,66
924,013	-0,64
924,437	-0,64
924,862	-0,65
925,287	-0,61
925,711	-0,62
926,136	-0,63
926,561	-0,61
926,985	-0,6
927,41	-0,56
927,834	-0,54
928,259	-0,52
928,683	-0,5
929,108	-0,47
929,532	-0,48
929,956	-0,47
930,381	-0,47
930,805	-0,48
931,229	-0,47
931,653	-0,45
932,078	-0,45
932,502	-0,46
932,926	-0,47
933,35	-0,47
933,774	-0,47
934,198	-0,45
934,622	-0,45
935,046	-0,45
935,47	-0,45
935,894	-0,45
936,318	-0,44
936,742	-0,44
937,166	-0,44
937,59	-0,44
938,014	-0,46
938,437	-0,47
938,861	-0,49
939,285	-0,49
939,709	-0,49
940,132	-0,48
940,556	-0,49
940,98	-0,49
941,403	-0,48
941,827	-0,48
942,25	-0,5
942,674	-0,48
943,097	-0,47
943,521	-0,47
943,944	-0,48
944,368	-0,47
944,791	-0,46
945,214	-0,49
945,638	-0,49
946,061	-0,53
946,484	-0,53
946,907	-0,51
947,331	-0,51
947,754	-0,55
948,177	-0,52
948,6	-0,52
949,023	-0,52
949,446	-0,52
949,869	-0,49
950,292	-0,49
950,715	-0,47
951,138	-0,46
951,561	-0,44
951,984	-0,44
952,407	-0,43
952,83	-0,4
953,252	-0,37
953,675	-0,37
954,098	-0,38
954,521	-0,36
954,943	-0,36
955,366	-0,37
955,789	-0,34
956,211	-0,36
956,634	-0,37
957,056	-0,35
957,479	-0,36
957,902	-0,38
958,324	-0,38
958,746	-0,36
959,169	-0,37
959,591	-0,37
960,014	-0,37
960,436	-0,38
960,858	-0,37
961,281	-0,37
961,703	-0,38
962,125	-0,38
962,547	-0,36
962,969	-0,38
963,391	-0,38
963,814	-0,39
964,236	-0,39
964,658	-0,36
965,08	-0,37
965,502	-0,37
965,924	-0,33
966,346	-0,33
966,768	-0,32
967,189	-0,35
967,611	-0,33
968,033	-0,33
968,455	-0,31
968,877	-0,31
969,298	-0,33
969,72	-0,33
970,142	-0,32
970,563	-0,34
970,985	-0,33
971,407	-0,32
971,828	-0,3
972,25	-0,3
972,671	-0,29
973,093	-0,28
973,514	-0,27
973,936	-0,25
974,357	-0,24
974,778	-0,24
975,2	-0,23
975,621	-0,22
976,042	-0,2
976,464	-0,18
976,885	-0,17
977,306	-0,16
977,727	-0,16
978,148	-0,15
978,57	-0,14
978,991	-0,12
979,412	-0,1
979,833	-0,09
980,254	-0,08
980,675	-0,08
981,096	-0,08
981,517	-0,06
981,937	-0,06
982,358	-0,04
982,779	-0,03
983,2	-0,02
983,621	-0,02
984,042	-0
984,462	0,02
984,883	0,03
985,304	0,05
985,724	0,06
986,145	0,07
986,565	0,09
986,986	0,1
987,407	0,11
987,827	0,12
988,248	0,14
988,668	0,15
989,088	0,15
989,509	0,16
989,929	0,17
990,35	0,17
990,77	0,18
991,19	0,19
991,61	0,2
992,031	0,21
992,451	0,22
992,871	0,23
993,291	0,24
993,711	0,25
994,131	0,26
994,551	0,27
994,971	0,28
995,391	0,29
995,811	0,3
996,231	0,3
996,651	0,31
997,071	0,31
997,491	0,32
997,911	0,33
998,331	0,34
998,75	0,34
999,17	0,34
999,59	0,35
1000,009	0,35
1000,429	0,36
1000,849	0,37
1001,268	0,37
1001,688	0,37
1002,107	0,38
1002,527	0,38
1002,946	0,38
1003,366	0,39
1003,785	0,39
1004,205	0,39
1004,624	0,4
1005,044	0,4
1005,463	0,4
1005,882	0,4
1006,301	0,41
1006,721	0,41
1007,14	0,41
1007,559	0,41
1007,978	0,41
1008,397	0,41
1008,816	0,41
1009,235	0,41
1009,655	0,41
1010,074	0,41
1010,492	0,41
1010,911	0,41
1011,33	0,41
1011,749	0,41
1012,168	0,41
1012,587	0,41
1013,006	0,41
1013,425	0,41
1013,843	0,41
1014,262	0,41
1014,681	0,4
1015,099	0,4
1015,518	0,4
1015,937	0,4
1016,355	0,4
1016,774	0,4
1017,192	0,4
1017,611	0,4
1018,029	0,4
1018,448	0,4
1018,866	0,4
1019,285	0,4
1019,703	0,4
1020,121	0,4
1020,54	0,4
1020,958	0,4
1021,376	0,4
1021,794	0,4
1022,213	0,4
1022,631	0,4
1023,049	0,39
1023,467	0,39
1023,885	0,39
1024,303	0,39
1024,721	0,39
1025,139	0,39
1025,557	0,39
1025,975	0,39
1026,393	0,39
1026,811	0,39
1027,229	0,39
1027,647	0,39
1028,065	0,39
1028,482	0,39
1028,9	0,39
1029,318	0,38
1029,735	0,38
1030,153	0,38
1030,571	0,38
1030,988	0,38
1031,406	0,38
1031,823	0,39
1032,241	0,39
1032,659	0,39
1033,076	0,39
1033,493	0,39
1033,911	0,39
1034,328	0,39
1034,746	0,39
1035,163	0,39
1035,58	0,39
1035,997	0,39
1036,415	0,39
1036,832	0,39
1037,249	0,39
1037,666	0,39
1038,083	0,39
1038,501	0,39
1038,918	0,39
1039,335	0,39
1039,752	0,39
1040,169	0,39
1040,586	0,39
1041,003	0,39
1041,419	0,39
1041,836	0,39
1042,253	0,39
1042,67	0,39
1043,087	0,39
1043,504	0,39
1043,92	0,39
1044,337	0,39
1044,754	0,39
1045,17	0,39
1045,587	0,39
1046,004	0,39
1046,42	0,39
1046,837	0,39
1047,253	0,39
1047,67	0,39
1048,086	0,39
1048,503	0,39
1048,919	0,39
1049,335	0,39
1049,752	0,39
1050,168	0,39
1050,584	0,39
1051,001	0,39
1051,417	0,39
1051,833	0,39
1052,249	0,39
1052,665	0,39
1053,081	0,39
1053,497	0,39
1053,914	0,39
1054,33	0,39
1054,746	0,4
1055,162	0,4
1055,578	0,4
1055,993	0,4
1056,409	0,4
1056,825	0,4
1057,241	0,4
1057,657	0,4
1058,073	0,4
1058,488	0,4
1058,904	0,4
1059,32	0,4
1059,736	0,4
1060,151	0,39
1060,567	0,39
1060,982	0,39
1061,398	0,39
1061,813	0,39
1062,229	0,39
1062,644	0,39
1063,06	0,39
1063,475	0,39
1063,891	0,39
1064,306	0,39
1064,721	0,39
1065,137	0,39
1065,552	0,39
1065,967	0,39
1066,382	0,39
1066,798	0,39
1067,213	0,39
1067,628	0,39
1068,043	0,39
1068,458	0,39
1068,873	0,39
1069,288	0,39
1069,703	0,39
1070,118	0,39
1070,533	0,39
1070,948	0,39
1071,363	0,39
1071,778	0,39
1072,193	0,39
1072,607	0,39
1073,022	0,39
1073,437	0,39
1073,852	0,39
1074,266	0,39
1074,681	0,39
1075,096	0,39
1075,51	0,39
1075,925	0,39
1076,339	0,39
1076,754	0,39
1077,168	0,39
1077,583	0,39
1077,997	0,39
1078,412	0,39
1078,826	0,39
1079,24	0,39
1079,655	0,39
1080,069	0,39
1080,483	0,39
1080,897	0,38
1081,312	0,39
1081,726	0,39
1082,14	0,39
1082,554	0,38
1082,968	0,38
1083,382	0,38
1083,796	0,38
1084,21	0,38
1084,624	0,38
1085,038	0,38
1085,452	0,38
1085,866	0,38
1086,28	0,37
1086,694	0,37
1087,108	0,37
1087,521	0,37
1087,935	0,37
1088,349	0,36
1088,763	0,36
1089,176	0,36
1089,59	0,36
1090,004	0,35
1090,417	0,35
1090,831	0,35
1091,244	0,34
1091,658	0,34
1092,071	0,34
1092,485	0,34
1092,898	0,33
1093,312	0,33
1093,725	0,33
1094,138	0,33
1094,552	0,33
1094,965	0,32
1095,378	0,32
1095,791	0,32
1096,205	0,32
1096,618	0,31
1097,031	0,31
1097,444	0,31
1097,857	0,3
1098,27	0,3
1098,683	0,3
1099,096	0,29
1099,509	0,29
1099,922	0,29
1100,335	0,28
1100,748	0,28
1101,161	0,27
1101,574	0,27
1101,986	0,27
1102,399	0,27
1102,812	0,26
1103,225	0,26
1103,637	0,26
1104,05	0,25
1104,463	0,25
1104,875	0,25
1105,288	0,25
1105,7	0,24
1106,113	0,24
1106,525	0,24
1106,938	0,23
1107,35	0,23
1107,763	0,22
1108,175	0,22
1108,588	0,22
1109	0,21
1109,412	0,2
1109,824	0,2
1110,237	0,2
1110,649	0,2
1111,061	0,2
