Data from 18C-808nm-8A-cont_Absorbance__670__02099.txt Node

Date: Mon Jul 17 17:44:30 CEST 2023
User: Laser008
Spectrometer: MAYP115816
Trigger mode: 0
Integration Time (sec): 2,500000E-1
Scans to average: 10
Electric dark correction enabled: true
Nonlinearity correction enabled: true
Boxcar width: 5
XAxis mode: Wavelengths
Number of Pixels in Spectrum: 2068
>>>>>Begin Spectral Data<<<<<
198,914	-0,69
199,384	-0,49
199,855	-0,36
200,325	-0,29
200,796	-0,25
201,266	-0,2
201,737	-0,18
202,207	-0,16
202,677	-0,15
203,147	-0,14
203,618	-0,11
204,088	-0,1
204,558	-0,08
205,028	-0,08
205,498	-0,08
205,968	-0,08
206,439	-0,09
206,909	-0,09
207,379	-0,09
207,849	-0,09
208,319	-0,1
208,789	-0,1
209,258	-0,08
209,728	-0,1
210,198	-0,09
210,668	-0,1
211,138	-0,09
211,608	-0,08
212,077	-0,09
212,547	-0,09
213,017	-0,09
213,486	-0,09
213,956	-0,1
214,426	-0,11
214,895	-0,1
215,365	-0,11
215,834	-0,11
216,304	-0,12
216,773	-0,12
217,243	-0,14
217,712	-0,15
218,181	-0,15
218,651	-0,15
219,12	-0,15
219,589	-0,14
220,058	-0,14
220,528	-0,15
220,997	-0,15
221,466	-0,16
221,935	-0,17
222,404	-0,17
222,873	-0,16
223,342	-0,16
223,812	-0,16
224,281	-0,16
224,749	-0,17
225,218	-0,19
225,687	-0,19
226,156	-0,18
226,625	-0,16
227,094	-0,16
227,563	-0,15
228,031	-0,17
228,5	-0,17
228,969	-0,19
229,438	-0,19
229,906	-0,17
230,375	-0,16
230,844	-0,15
231,312	-0,15
231,781	-0,15
232,249	-0,15
232,718	-0,15
233,186	-0,13
233,655	-0,13
234,123	-0,12
234,591	-0,12
235,06	-0,13
235,528	-0,13
235,996	-0,14
236,465	-0,13
236,933	-0,13
237,401	-0,13
237,869	-0,13
238,337	-0,13
238,805	-0,12
239,274	-0,12
239,742	-0,12
240,21	-0,12
240,678	-0,11
241,146	-0,1
241,614	-0,11
242,081	-0,1
242,549	-0,1
243,017	-0,1
243,485	-0,1
243,953	-0,1
244,421	-0,09
244,888	-0,09
245,356	-0,08
245,824	-0,09
246,291	-0,09
246,759	-0,1
247,227	-0,1
247,694	-0,09
248,162	-0,08
248,629	-0,07
249,097	-0,08
249,564	-0,09
250,032	-0,1
250,499	-0,1
250,967	-0,1
251,434	-0,1
251,901	-0,1
252,369	-0,09
252,836	-0,1
253,303	-0,12
253,77	-0,14
254,237	-0,14
254,705	-0,13
255,172	-0,12
255,639	-0,12
256,106	-0,14
256,573	-0,14
257,04	-0,15
257,507	-0,16
257,974	-0,17
258,441	-0,15
258,908	-0,15
259,375	-0,16
259,841	-0,17
260,308	-0,18
260,775	-0,18
261,242	-0,16
261,709	-0,17
262,175	-0,17
262,642	-0,16
263,109	-0,16
263,575	-0,17
264,042	-0,15
264,508	-0,15
264,975	-0,16
265,441	-0,17
265,908	-0,17
266,374	-0,17
266,841	-0,17
267,307	-0,17
267,773	-0,17
268,24	-0,17
268,706	-0,18
269,172	-0,19
269,639	-0,2
270,105	-0,18
270,571	-0,18
271,037	-0,18
271,503	-0,18
271,969	-0,19
272,435	-0,18
272,902	-0,2
273,368	-0,21
273,834	-0,2
274,3	-0,21
274,765	-0,21
275,231	-0,22
275,697	-0,21
276,163	-0,21
276,629	-0,21
277,095	-0,21
277,56	-0,21
278,026	-0,21
278,492	-0,2
278,958	-0,2
279,423	-0,2
279,889	-0,19
280,354	-0,19
280,82	-0,19
281,286	-0,21
281,751	-0,22
282,217	-0,2
282,682	-0,21
283,147	-0,21
283,613	-0,21
284,078	-0,22
284,544	-0,22
285,009	-0,22
285,474	-0,22
285,939	-0,23
286,405	-0,21
286,87	-0,2
287,335	-0,2
287,8	-0,2
288,265	-0,18
288,73	-0,2
289,195	-0,22
289,66	-0,21
290,125	-0,21
290,59	-0,21
291,055	-0,21
291,52	-0,21
291,985	-0,21
292,45	-0,23
292,915	-0,22
293,38	-0,22
293,844	-0,2
294,309	-0,19
294,774	-0,18
295,239	-0,19
295,703	-0,2
296,168	-0,19
296,632	-0,17
297,097	-0,16
297,562	-0,14
298,026	-0,15
298,491	-0,16
298,955	-0,16
299,419	-0,15
299,884	-0,16
300,348	-0,15
300,813	-0,14
301,277	-0,14
301,741	-0,15
302,205	-0,15
302,67	-0,14
303,134	-0,14
303,598	-0,14
304,062	-0,13
304,526	-0,13
304,99	-0,13
305,454	-0,13
305,919	-0,13
306,383	-0,13
306,847	-0,12
307,31	-0,13
307,774	-0,14
308,238	-0,14
308,702	-0,14
309,166	-0,16
309,63	-0,17
310,094	-0,14
310,557	-0,14
311,021	-0,14
311,485	-0,13
311,948	-0,14
312,412	-0,13
312,876	-0,12
313,339	-0,13
313,803	-0,13
314,266	-0,11
314,73	-0,1
315,193	-0,11
315,657	-0,09
316,12	-0,08
316,584	-0,07
317,047	-0,07
317,51	-0,05
317,973	-0,06
318,437	-0,05
318,9	-0,04
319,363	-0,04
319,826	-0,04
320,29	-0,05
320,753	-0,05
321,216	-0,05
321,679	-0,06
322,142	-0,05
322,605	-0,06
323,068	-0,06
323,531	-0,06
323,994	-0,05
324,457	-0,04
324,92	-0,03
325,382	-0,02
325,845	-0,02
326,308	-0,01
326,771	-0,01
327,233	0
327,696	0,01
328,159	0,02
328,622	0,02
329,084	0,02
329,547	0,02
330,009	0,02
330,472	0,05
330,934	0,04
331,397	0,04
331,859	0,05
332,322	0,06
332,784	0,06
333,246	0,07
333,709	0,07
334,171	0,08
334,633	0,08
335,096	0,08
335,558	0,08
336,02	0,08
336,482	0,09
336,944	0,1
337,406	0,1
337,868	0,11
338,331	0,11
338,793	0,12
339,255	0,12
339,717	0,13
340,178	0,14
340,64	0,15
341,102	0,15
341,564	0,16
342,026	0,18
342,488	0,18
342,949	0,2
343,411	0,22
343,873	0,26
344,335	0,29
344,796	0,33
345,258	0,37
345,719	0,43
346,181	0,47
346,643	0,52
347,104	0,55
347,566	0,59
348,027	0,62
348,488	0,65
348,95	0,67
349,411	0,69
349,873	0,72
350,334	0,74
350,795	0,76
351,256	0,78
351,718	0,78
352,179	0,79
352,64	0,8
353,101	0,8
353,562	0,8
354,023	0,81
354,484	0,81
354,945	0,81
355,406	0,82
355,867	0,82
356,328	0,82
356,789	0,83
357,25	0,83
357,711	0,83
358,172	0,83
358,633	0,84
359,093	0,84
359,554	0,84
360,015	0,84
360,476	0,84
360,936	0,84
361,397	0,84
361,858	0,85
362,318	0,85
362,779	0,85
363,239	0,85
363,7	0,85
364,16	0,85
364,621	0,85
365,081	0,85
365,541	0,85
366,002	0,85
366,462	0,85
366,922	0,85
367,383	0,85
367,843	0,85
368,303	0,85
368,763	0,85
369,223	0,85
369,684	0,85
370,144	0,85
370,604	0,85
371,064	0,85
371,524	0,85
371,984	0,85
372,444	0,85
372,904	0,85
373,363	0,85
373,823	0,85
374,283	0,85
374,743	0,85
375,203	0,84
375,663	0,84
376,122	0,84
376,582	0,84
377,042	0,84
377,501	0,84
377,961	0,84
378,42	0,84
378,88	0,84
379,34	0,84
379,799	0,84
380,259	0,84
380,718	0,84
381,177	0,84
381,637	0,84
382,096	0,84
382,555	0,84
383,015	0,84
383,474	0,84
383,933	0,84
384,393	0,84
384,852	0,84
385,311	0,84
385,77	0,84
386,229	0,84
386,688	0,84
387,147	0,84
387,606	0,83
388,065	0,83
388,524	0,83
388,983	0,83
389,442	0,83
389,901	0,83
390,36	0,83
390,819	0,83
391,277	0,83
391,736	0,83
392,195	0,83
392,654	0,83
393,112	0,83
393,571	0,83
394,03	0,83
394,488	0,83
394,947	0,83
395,405	0,83
395,864	0,83
396,322	0,83
396,781	0,83
397,239	0,83
397,698	0,83
398,156	0,83
398,614	0,83
399,073	0,83
399,531	0,83
399,989	0,83
400,447	0,83
400,905	0,83
401,364	0,83
401,822	0,82
402,28	0,82
402,738	0,82
403,196	0,82
403,654	0,82
404,112	0,82
404,57	0,82
405,028	0,82
405,486	0,82
405,944	0,82
406,402	0,82
406,859	0,82
407,317	0,82
407,775	0,82
408,233	0,82
408,691	0,82
409,148	0,82
409,606	0,82
410,064	0,82
410,521	0,82
410,979	0,82
411,436	0,82
411,894	0,82
412,351	0,82
412,809	0,82
413,266	0,82
413,724	0,82
414,181	0,82
414,638	0,82
415,096	0,82
415,553	0,82
416,01	0,82
416,467	0,81
416,925	0,81
417,382	0,81
417,839	0,81
418,296	0,81
418,753	0,81
419,21	0,81
419,667	0,81
420,124	0,81
420,581	0,81
421,038	0,81
421,495	0,81
421,952	0,81
422,409	0,81
422,866	0,81
423,322	0,81
423,779	0,81
424,236	0,81
424,693	0,81
425,149	0,81
425,606	0,81
426,063	0,81
426,519	0,81
426,976	0,81
427,433	0,81
427,889	0,81
428,346	0,81
428,802	0,81
429,258	0,81
429,715	0,81
430,171	0,81
430,628	0,81
431,084	0,81
431,54	0,81
431,997	0,81
432,453	0,81
432,909	0,81
433,365	0,81
433,821	0,81
434,277	0,81
434,734	0,81
435,19	0,81
435,646	0,81
436,102	0,81
436,558	0,81
437,014	0,81
437,47	0,81
437,925	0,81
438,381	0,81
438,837	0,81
439,293	0,81
439,749	0,81
440,205	0,81
440,66	0,81
441,116	0,81
441,572	0,81
442,027	0,81
442,483	0,81
442,939	0,81
443,394	0,81
443,85	0,81
444,305	0,81
444,761	0,81
445,216	0,81
445,672	0,81
446,127	0,81
446,582	0,81
447,038	0,81
447,493	0,81
447,948	0,81
448,403	0,81
448,859	0,82
449,314	0,82
449,769	0,82
450,224	0,82
450,679	0,82
451,134	0,82
451,589	0,82
452,044	0,82
452,499	0,82
452,954	0,82
453,409	0,82
453,864	0,82
454,319	0,82
454,774	0,82
455,229	0,82
455,684	0,82
456,138	0,82
456,593	0,82
457,048	0,82
457,503	0,82
457,957	0,82
458,412	0,82
458,866	0,82
459,321	0,82
459,776	0,82
460,23	0,82
460,685	0,82
461,139	0,83
461,593	0,83
462,048	0,83
462,502	0,83
462,957	0,83
463,411	0,83
463,865	0,83
464,319	0,83
464,774	0,83
465,228	0,83
465,682	0,84
466,136	0,84
466,59	0,84
467,044	0,84
467,499	0,84
467,953	0,84
468,407	0,84
468,861	0,84
469,315	0,84
469,768	0,84
470,222	0,84
470,676	0,85
471,13	0,85
471,584	0,85
472,038	0,85
472,491	0,85
472,945	0,85
473,399	0,85
473,852	0,85
474,306	0,85
474,76	0,85
475,213	0,86
475,667	0,86
476,12	0,86
476,574	0,86
477,027	0,86
477,481	0,86
477,934	0,87
478,388	0,87
478,841	0,87
479,294	0,87
479,748	0,88
480,201	0,88
480,654	0,88
481,107	0,88
481,561	0,88
482,014	0,89
482,467	0,89
482,92	0,89
483,373	0,89
483,826	0,89
484,279	0,89
484,732	0,9
485,185	0,9
485,638	0,9
486,091	0,9
486,544	0,9
486,997	0,91
487,449	0,91
487,902	0,91
488,355	0,92
488,808	0,92
489,26	0,92
489,713	0,92
490,166	0,93
490,618	0,93
491,071	0,93
491,523	0,94
491,976	0,94
492,429	0,94
492,881	0,95
493,333	0,95
493,786	0,95
494,238	0,96
494,691	0,96
495,143	0,97
495,595	0,97
496,048	0,97
496,5	0,98
496,952	0,98
497,404	0,99
497,856	0,99
498,309	0,99
498,761	1
499,213	1
499,665	1,01
500,117	1,01
500,569	1,02
501,021	1,02
501,473	1,02
501,925	1,03
502,377	1,03
502,828	1,04
503,28	1,04
503,732	1,05
504,184	1,05
504,636	1,05
505,087	1,06
505,539	1,06
505,991	1,07
506,442	1,07
506,894	1,08
507,345	1,08
507,797	1,09
508,249	1,09
508,7	1,1
509,151	1,1
509,603	1,1
510,054	1,11
510,506	1,11
510,957	1,12
511,408	1,12
511,86	1,13
512,311	1,13
512,762	1,13
513,213	1,14
513,665	1,14
514,116	1,14
514,567	1,15
515,018	1,15
515,469	1,16
515,92	1,16
516,371	1,16
516,822	1,17
517,273	1,17
517,724	1,17
518,175	1,18
518,626	1,18
519,076	1,18
519,527	1,18
519,978	1,19
520,429	1,19
520,88	1,19
521,33	1,19
521,781	1,19
522,232	1,2
522,682	1,2
523,133	1,2
523,583	1,2
524,034	1,2
524,484	1,2
524,935	1,2
525,385	1,2
525,836	1,2
526,286	1,2
526,736	1,2
527,187	1,2
527,637	1,2
528,087	1,2
528,538	1,2
528,988	1,2
529,438	1,2
529,888	1,2
530,338	1,2
530,788	1,2
531,238	1,19
531,688	1,19
532,139	1,19
532,589	1,19
533,038	1,19
533,488	1,19
533,938	1,18
534,388	1,18
534,838	1,18
535,288	1,17
535,738	1,17
536,187	1,17
536,637	1,16
537,087	1,16
537,537	1,15
537,986	1,15
538,436	1,14
538,885	1,14
539,335	1,13
539,785	1,13
540,234	1,12
540,684	1,12
541,133	1,11
541,582	1,11
542,032	1,1
542,481	1,09
542,931	1,09
543,38	1,08
543,829	1,08
544,278	1,07
544,728	1,07
545,177	1,06
545,626	1,05
546,075	1,05
546,524	1,04
546,973	1,04
547,422	1,03
547,871	1,03
548,32	1,03
548,769	1,02
549,218	1,02
549,667	1,02
550,116	1,01
550,565	1,01
551,014	1
551,463	1
551,911	0,99
552,36	0,99
552,809	0,98
553,258	0,97
553,706	0,97
554,155	0,96
554,603	0,96
555,052	0,95
555,501	0,95
555,949	0,94
556,398	0,94
556,846	0,93
557,294	0,93
557,743	0,92
558,191	0,92
558,64	0,91
559,088	0,9
559,536	0,9
559,985	0,89
560,433	0,89
560,881	0,88
561,329	0,87
561,777	0,87
562,225	0,86
562,674	0,86
563,122	0,85
563,57	0,85
564,018	0,85
564,466	0,84
564,914	0,84
565,362	0,83
565,809	0,83
566,257	0,82
566,705	0,82
567,153	0,81
567,601	0,81
568,048	0,8
568,496	0,8
568,944	0,79
569,392	0,79
569,839	0,79
570,287	0,78
570,734	0,78
571,182	0,77
571,63	0,77
572,077	0,76
572,525	0,76
572,972	0,75
573,419	0,75
573,867	0,75
574,314	0,74
574,761	0,74
575,209	0,73
575,656	0,73
576,103	0,73
576,551	0,72
576,998	0,72
577,445	0,72
577,892	0,71
578,339	0,71
578,786	0,7
579,233	0,7
579,68	0,7
580,127	0,69
580,574	0,69
581,021	0,69
581,468	0,68
581,915	0,68
582,362	0,68
582,809	0,67
583,255	0,67
583,702	0,67
584,149	0,67
584,596	0,66
585,042	0,66
585,489	0,66
585,936	0,65
586,382	0,65
586,829	0,65
587,275	0,65
587,722	0,64
588,168	0,64
588,615	0,64
589,061	0,64
589,508	0,63
589,954	0,63
590,4	0,63
590,847	0,63
591,293	0,62
591,739	0,62
592,185	0,62
592,632	0,62
593,078	0,62
593,524	0,62
593,97	0,61
594,416	0,61
594,862	0,61
595,308	0,61
595,754	0,61
596,2	0,61
596,646	0,6
597,092	0,6
597,538	0,6
597,984	0,6
598,43	0,59
598,876	0,59
599,321	0,59
599,767	0,59
600,213	0,59
600,659	0,59
601,104	0,58
601,55	0,58
601,995	0,58
602,441	0,58
602,887	0,58
603,332	0,58
603,778	0,57
604,223	0,57
604,668	0,57
605,114	0,57
605,559	0,57
606,005	0,57
606,45	0,57
606,895	0,57
607,341	0,57
607,786	0,56
608,231	0,56
608,676	0,56
609,121	0,55
609,566	0,54
610,012	0,54
610,457	0,53
610,902	0,53
611,347	0,53
611,792	0,52
612,237	0,52
612,682	0,52
613,127	0,52
613,571	0,52
614,016	0,52
614,461	0,53
614,906	0,53
615,351	0,53
615,795	0,53
616,24	0,53
616,685	0,53
617,129	0,53
617,574	0,53
618,019	0,53
618,463	0,53
618,908	0,53
619,352	0,53
619,797	0,53
620,241	0,53
620,686	0,53
621,13	0,53
621,574	0,53
622,019	0,53
622,463	0,52
622,907	0,52
623,352	0,52
623,796	0,52
624,24	0,52
624,684	0,52
625,128	0,52
625,572	0,52
626,016	0,52
626,461	0,52
626,905	0,52
627,349	0,52
627,793	0,52
628,236	0,52
628,68	0,51
629,124	0,51
629,568	0,51
630,012	0,51
630,456	0,51
630,9	0,51
631,343	0,51
631,787	0,51
632,231	0,51
632,674	0,51
633,118	0,51
633,562	0,51
634,005	0,51
634,449	0,51
634,892	0,51
635,336	0,51
635,779	0,51
636,223	0,51
636,666	0,5
637,109	0,5
637,553	0,5
637,996	0,5
638,439	0,5
638,883	0,5
639,326	0,5
639,769	0,5
640,212	0,5
640,655	0,5
641,099	0,5
641,542	0,5
641,985	0,5
642,428	0,5
642,871	0,5
643,314	0,5
643,757	0,5
644,2	0,5
644,643	0,5
645,085	0,5
645,528	0,5
645,971	0,49
646,414	0,49
646,857	0,49
647,299	0,49
647,742	0,49
648,185	0,49
648,627	0,49
649,07	0,49
649,513	0,49
649,955	0,49
650,398	0,49
650,84	0,49
651,283	0,49
651,725	0,49
652,168	0,49
652,61	0,49
653,052	0,49
653,495	0,48
653,937	0,4
654,379	0,34
654,821	0,35
655,264	0,35
655,706	0,35
656,148	0,35
656,59	0,35
657,032	0,35
657,474	0,35
657,916	0,35
658,358	0,34
658,8	0,4
659,242	0,48
659,684	0,48
660,126	0,48
660,568	0,48
661,01	0,48
661,452	0,48
661,894	0,48
662,335	0,48
662,777	0,48
663,219	0,48
663,661	0,48
664,102	0,48
664,544	0,48
664,985	0,48
665,427	0,48
665,869	0,48
666,31	0,48
666,752	0,48
667,193	0,48
667,634	0,48
668,076	0,48
668,517	0,48
668,959	0,48
669,4	0,48
669,841	0,48
670,282	0,48
670,724	0,48
671,165	0,48
671,606	0,48
672,047	0,48
672,488	0,47
672,929	0,47
673,37	0,47
673,811	0,47
674,252	0,47
674,693	0,47
675,134	0,47
675,575	0,47
676,016	0,47
676,457	0,47
676,898	0,47
677,339	0,47
677,78	0,47
678,22	0,47
678,661	0,47
679,102	0,47
679,542	0,47
679,983	0,47
680,424	0,47
680,864	0,47
681,305	0,47
681,745	0,47
682,186	0,48
682,626	0,48
683,067	0,48
683,507	0,48
683,948	0,48
684,388	0,47
684,828	0,47
685,269	0,47
685,709	0,47
686,149	0,47
686,589	0,47
687,029	0,47
687,47	0,47
687,91	0,47
688,35	0,46
688,79	0,46
689,23	0,46
689,67	0,46
690,11	0,46
690,55	0,46
690,99	0,46
691,43	0,46
691,87	0,46
692,31	0,46
692,749	0,46
693,189	0,46
693,629	0,46
694,069	0,46
694,508	0,46
694,948	0,46
695,388	0,46
695,827	0,46
696,267	0,46
696,706	0,46
697,146	0,46
697,586	0,46
698,025	0,46
698,464	0,46
698,904	0,46
699,343	0,46
699,783	0,46
700,222	0,46
700,661	0,46
701,101	0,46
701,54	0,46
701,979	0,46
702,418	0,46
702,857	0,46
703,297	0,46
703,736	0,46
704,175	0,46
704,614	0,46
705,053	0,46
705,492	0,46
705,931	0,46
706,37	0,46
706,809	0,46
707,248	0,46
707,687	0,46
708,125	0,46
708,564	0,46
709,003	0,45
709,442	0,45
709,88	0,45
710,319	0,45
710,758	0,45
711,196	0,45
711,635	0,45
712,074	0,45
712,512	0,45
712,951	0,45
713,389	0,45
713,828	0,45
714,266	0,45
714,705	0,45
715,143	0,45
715,581	0,45
716,02	0,45
716,458	0,45
716,896	0,45
717,334	0,45
717,773	0,45
718,211	0,45
718,649	0,45
719,087	0,45
719,525	0,45
719,963	0,45
720,401	0,45
720,839	0,45
721,277	0,45
721,715	0,45
722,153	0,45
722,591	0,45
723,029	0,45
723,467	0,45
723,905	0,45
724,342	0,45
724,78	0,45
725,218	0,45
725,656	0,45
726,093	0,45
726,531	0,45
726,969	0,45
727,406	0,45
727,844	0,45
728,281	0,45
728,719	0,45
729,156	0,45
729,594	0,45
730,031	0,45
730,469	0,44
730,906	0,44
731,343	0,44
731,781	0,44
732,218	0,44
732,655	0,44
733,092	0,44
733,53	0,44
733,967	0,44
734,404	0,44
734,841	0,44
735,278	0,44
735,715	0,44
736,152	0,44
736,589	0,44
737,026	0,44
737,463	0,44
737,9	0,44
738,337	0,44
738,774	0,44
739,211	0,44
739,647	0,44
740,084	0,44
740,521	0,44
740,958	0,44
741,394	0,44
741,831	0,44
742,268	0,44
742,704	0,44
743,141	0,44
743,577	0,44
744,014	0,44
744,45	0,44
744,887	0,44
745,323	0,44
745,76	0,44
746,196	0,44
746,632	0,43
747,069	0,43
747,505	0,43
747,941	0,43
748,378	0,43
748,814	0,43
749,25	0,44
749,686	0,44
750,122	0,44
750,558	0,44
750,994	0,44
751,43	0,44
751,866	0,44
752,302	0,44
752,738	0,44
753,174	0,44
753,61	0,44
754,046	0,44
754,482	0,44
754,918	0,43
755,354	0,43
755,789	0,43
756,225	0,43
756,661	0,43
757,096	0,43
757,532	0,43
757,968	0,43
758,403	0,43
758,839	0,42
759,274	0,42
759,71	0,42
760,145	0,41
760,581	0,41
761,016	0,4
761,452	0,4
761,887	0,39
762,322	0,39
762,758	0,38
763,193	0,38
763,628	0,37
764,063	0,37
764,499	0,36
764,934	0,35
765,369	0,35
765,804	0,34
766,239	0,33
766,674	0,33
767,109	0,32
767,544	0,31
767,979	0,3
768,414	0,29
768,849	0,28
769,284	0,27
769,719	0,26
770,154	0,26
770,588	0,25
771,023	0,23
771,458	0,22
771,893	0,22
772,327	0,2
772,762	0,19
773,197	0,18
773,631	0,17
774,066	0,17
774,5	0,15
774,935	0,14
775,369	0,13
775,804	0,12
776,238	0,12
776,673	0,11
777,107	0,1
777,541	0,09
777,976	0,08
778,41	0,07
778,844	0,06
779,279	0,06
779,713	0,05
780,147	0,04
780,581	0,03
781,015	0,02
781,449	0,01
781,883	-0
782,317	-0,01
782,751	-0,03
783,185	-0,03
783,619	-0,04
784,053	-0,05
784,487	-0,05
784,921	-0,06
785,355	-0,07
785,789	-0,08
786,223	-0,09
786,656	-0,1
787,09	-0,11
787,524	-0,12
787,957	-0,13
788,391	-0,15
788,825	-0,17
789,258	-0,18
789,692	-0,2
790,125	-0,21
790,559	-0,23
790,992	-0,25
791,426	-0,27
791,859	-0,28
792,293	-0,32
792,726	-0,33
793,159	-0,35
793,593	-0,36
794,026	-0,38
794,459	-0,41
794,892	-0,44
795,326	-0,46
795,759	-0,5
796,192	-0,54
796,625	-0,59
797,058	-0,61
797,491	-0,65
797,924	-0,69
798,357	-0,74
798,79	-0,78
799,223	-0,82
799,656	-0,87
800,089	-0,92
800,522	-0,96
800,955	-1
801,387	-1,06
801,82	-1,11
802,253	-1,18
802,686	-1,25
803,118	-1,31
803,551	-1,36
803,984	-1,41
804,416	-1,44
804,849	-1,47
805,281	-1,58
805,714	-1,93
806,146	-2,4
806,579	-2,68
807,011	-2,85
807,444	-2,95
807,876	-3,04
808,308	-3,07
808,741	-3,1
809,173	-3,16
809,605	-3,18
810,037	-3,25
810,47	-3,18
810,902	-2,99
811,334	-2,84
811,766	-2,69
812,198	-2,45
812,63	-2,01
813,062	-1,77
813,494	-1,67
813,926	-1,58
814,358	-1,53
814,79	-1,45
815,222	-1,39
815,654	-1,34
816,086	-1,28
816,518	-1,22
816,949	-1,17
817,381	-1,13
817,813	-1,11
818,245	-1,07
818,676	-1,03
819,108	-1
819,54	-0,98
819,971	-0,96
820,403	-0,91
820,834	-0,9
821,266	-0,85
821,697	-0,83
822,129	-0,81
822,56	-0,79
822,991	-0,77
823,423	-0,74
823,854	-0,73
824,286	-0,71
824,717	-0,69
825,148	-0,68
825,579	-0,67
826,01	-0,66
826,442	-0,65
826,873	-0,64
827,304	-0,6
827,735	-0,6
828,166	-0,61
828,597	-0,6
829,028	-0,6
829,459	-0,6
829,89	-0,61
830,321	-0,56
830,752	-0,57
831,183	-0,56
831,613	-0,55
832,044	-0,55
832,475	-0,53
832,906	-0,55
833,336	-0,55
833,767	-0,56
834,198	-0,55
834,628	-0,53
835,059	-0,56
835,49	-0,57
835,92	-0,54
836,351	-0,53
836,781	-0,53
837,212	-0,55
837,642	-0,54
838,072	-0,52
838,503	-0,53
838,933	-0,51
839,364	-0,52
839,794	-0,49
840,224	-0,49
840,654	-0,53
841,085	-0,54
841,515	-0,52
841,945	-0,52
842,375	-0,48
842,805	-0,47
843,235	-0,46
843,665	-0,47
844,095	-0,45
844,525	-0,47
844,955	-0,48
845,385	-0,45
845,815	-0,43
846,245	-0,45
846,675	-0,46
847,105	-0,48
847,534	-0,49
847,964	-0,47
848,394	-0,46
848,824	-0,49
849,253	-0,48
849,683	-0,48
850,112	-0,49
850,542	-0,53
850,972	-0,53
851,401	-0,51
851,831	-0,5
852,26	-0,5
852,69	-0,53
853,119	-0,53
853,548	-0,54
853,978	-0,54
854,407	-0,52
854,836	-0,53
855,266	-0,52
855,695	-0,54
856,124	-0,54
856,553	-0,55
856,983	-0,57
857,412	-0,56
857,841	-0,56
858,27	-0,56
858,699	-0,56
859,128	-0,6
859,557	-0,6
859,986	-0,61
860,415	-0,59
860,844	-0,57
861,273	-0,58
861,702	-0,59
862,13	-0,56
862,559	-0,58
862,988	-0,57
863,417	-0,56
863,845	-0,55
864,274	-0,55
864,703	-0,54
865,131	-0,55
865,56	-0,56
865,989	-0,58
866,417	-0,55
866,846	-0,57
867,274	-0,56
867,703	-0,57
868,131	-0,58
868,559	-0,58
868,988	-0,6
869,416	-0,6
869,844	-0,6
870,273	-0,63
870,701	-0,6
871,129	-0,64
871,557	-0,65
871,986	-0,66
872,414	-0,68
872,842	-0,65
873,27	-0,63
873,698	-0,61
874,126	-0,64
874,554	-0,63
874,982	-0,62
875,41	-0,65
875,838	-0,6
876,266	-0,58
876,694	-0,58
877,122	-0,57
877,549	-0,62
877,977	-0,6
878,405	-0,63
878,833	-0,59
879,26	-0,57
879,688	-0,58
880,116	-0,56
880,543	-0,54
880,971	-0,53
881,399	-0,56
881,826	-0,57
882,254	-0,55
882,681	-0,58
883,109	-0,54
883,536	-0,55
883,963	-0,57
884,391	-0,55
884,818	-0,53
885,245	-0,57
885,673	-0,59
886,1	-0,56
886,527	-0,56
886,954	-0,53
887,381	-0,54
887,809	-0,56
888,236	-0,58
888,663	-0,58
889,09	-0,62
889,517	-0,65
889,944	-0,64
890,371	-0,63
890,798	-0,64
891,225	-0,64
891,652	-0,66
892,078	-0,63
892,505	-0,66
892,932	-0,61
893,359	-0,63
893,786	-0,63
894,212	-0,59
894,639	-0,62
895,066	-0,63
895,492	-0,57
895,919	-0,57
896,346	-0,58
896,772	-0,58
897,199	-0,55
897,625	-0,59
898,052	-0,54
898,478	-0,52
898,904	-0,54
899,331	-0,54
899,757	-0,55
900,183	-0,58
900,61	-0,57
901,036	-0,57
901,462	-0,57
901,888	-0,56
902,315	-0,55
902,741	-0,6
903,167	-0,59
903,593	-0,62
904,019	-0,59
904,445	-0,57
904,871	-0,59
905,297	-0,62
905,723	-0,61
906,149	-0,6
906,575	-0,61
907,001	-0,61
907,427	-0,57
907,852	-0,56
908,278	-0,56
908,704	-0,54
909,13	-0,54
909,555	-0,52
909,981	-0,51
910,407	-0,51
910,832	-0,51
911,258	-0,51
911,684	-0,52
912,109	-0,52
912,535	-0,54
912,96	-0,5
913,386	-0,54
913,811	-0,53
914,236	-0,55
914,662	-0,54
915,087	-0,57
915,512	-0,58
915,938	-0,59
916,363	-0,58
916,788	-0,6
917,213	-0,58
917,639	-0,63
918,064	-0,6
918,489	-0,61
918,914	-0,61
919,339	-0,62
919,764	-0,59
920,189	-0,59
920,614	-0,6
921,039	-0,61
921,464	-0,57
921,889	-0,61
922,314	-0,61
922,738	-0,64
923,163	-0,65
923,588	-0,65
924,013	-0,64
924,437	-0,64
924,862	-0,66
925,287	-0,62
925,711	-0,62
926,136	-0,63
926,561	-0,61
926,985	-0,6
927,41	-0,57
927,834	-0,54
928,259	-0,51
928,683	-0,49
929,108	-0,45
929,532	-0,46
929,956	-0,46
930,381	-0,45
930,805	-0,45
931,229	-0,45
931,653	-0,43
932,078	-0,44
932,502	-0,45
932,926	-0,46
933,35	-0,47
933,774	-0,47
934,198	-0,45
934,622	-0,44
935,046	-0,44
935,47	-0,44
935,894	-0,44
936,318	-0,43
936,742	-0,43
937,166	-0,43
937,59	-0,43
938,014	-0,45
938,437	-0,45
938,861	-0,47
939,285	-0,48
939,709	-0,49
940,132	-0,5
940,556	-0,51
940,98	-0,51
941,403	-0,49
941,827	-0,49
942,25	-0,51
942,674	-0,49
943,097	-0,49
943,521	-0,49
943,944	-0,5
944,368	-0,48
944,791	-0,46
945,214	-0,48
945,638	-0,48
946,061	-0,52
946,484	-0,53
946,907	-0,51
947,331	-0,51
947,754	-0,55
948,177	-0,52
948,6	-0,52
949,023	-0,53
949,446	-0,53
949,869	-0,5
950,292	-0,51
950,715	-0,48
951,138	-0,47
951,561	-0,44
951,984	-0,44
952,407	-0,43
952,83	-0,41
953,252	-0,38
953,675	-0,37
954,098	-0,38
954,521	-0,36
954,943	-0,35
955,366	-0,36
955,789	-0,34
956,211	-0,36
956,634	-0,37
957,056	-0,34
957,479	-0,34
957,902	-0,36
958,324	-0,36
958,746	-0,35
959,169	-0,36
959,591	-0,36
960,014	-0,36
960,436	-0,36
960,858	-0,36
961,281	-0,36
961,703	-0,36
962,125	-0,37
962,547	-0,35
962,969	-0,35
963,391	-0,36
963,814	-0,37
964,236	-0,36
964,658	-0,33
965,08	-0,35
965,502	-0,34
965,924	-0,31
966,346	-0,32
966,768	-0,31
967,189	-0,34
967,611	-0,33
968,033	-0,32
968,455	-0,31
968,877	-0,32
969,298	-0,33
969,72	-0,33
970,142	-0,33
970,563	-0,33
970,985	-0,31
971,407	-0,31
971,828	-0,28
972,25	-0,27
972,671	-0,26
973,093	-0,26
973,514	-0,24
973,936	-0,23
974,357	-0,22
974,778	-0,22
975,2	-0,21
975,621	-0,21
976,042	-0,19
976,464	-0,18
976,885	-0,17
977,306	-0,17
977,727	-0,16
978,148	-0,16
978,57	-0,14
978,991	-0,12
979,412	-0,11
979,833	-0,1
980,254	-0,09
980,675	-0,09
981,096	-0,08
981,517	-0,06
981,937	-0,05
982,358	-0,04
982,779	-0,02
983,2	-0,01
983,621	-0,01
984,042	0
984,462	0,01
984,883	0,03
985,304	0,04
985,724	0,05
986,145	0,07
986,565	0,08
986,986	0,09
987,407	0,1
987,827	0,12
988,248	0,14
988,668	0,15
989,088	0,16
989,509	0,17
989,929	0,19
990,35	0,2
990,77	0,21
991,19	0,22
991,61	0,23
992,031	0,24
992,451	0,25
992,871	0,26
993,291	0,27
993,711	0,27
994,131	0,27
994,551	0,28
994,971	0,29
995,391	0,3
995,811	0,31
996,231	0,31
996,651	0,32
997,071	0,33
997,491	0,34
997,911	0,34
998,331	0,35
998,75	0,37
999,17	0,37
999,59	0,38
1000,009	0,38
1000,429	0,38
1000,849	0,39
1001,268	0,4
1001,688	0,4
1002,107	0,4
1002,527	0,41
1002,946	0,41
1003,366	0,41
1003,785	0,42
1004,205	0,42
1004,624	0,43
1005,044	0,43
1005,463	0,43
1005,882	0,43
1006,301	0,43
1006,721	0,44
1007,14	0,44
1007,559	0,44
1007,978	0,44
1008,397	0,44
1008,816	0,44
1009,235	0,44
1009,655	0,44
1010,074	0,44
1010,492	0,44
1010,911	0,44
1011,33	0,44
1011,749	0,44
1012,168	0,43
1012,587	0,43
1013,006	0,43
1013,425	0,43
1013,843	0,43
1014,262	0,43
1014,681	0,43
1015,099	0,43
1015,518	0,43
1015,937	0,43
1016,355	0,43
1016,774	0,43
1017,192	0,43
1017,611	0,43
1018,029	0,43
1018,448	0,43
1018,866	0,43
1019,285	0,43
1019,703	0,43
1020,121	0,43
1020,54	0,43
1020,958	0,43
1021,376	0,43
1021,794	0,43
1022,213	0,43
1022,631	0,43
1023,049	0,43
1023,467	0,43
1023,885	0,43
1024,303	0,43
1024,721	0,42
1025,139	0,42
1025,557	0,42
1025,975	0,42
1026,393	0,42
1026,811	0,42
1027,229	0,42
1027,647	0,42
1028,065	0,42
1028,482	0,41
1028,9	0,41
1029,318	0,41
1029,735	0,41
1030,153	0,41
1030,571	0,41
1030,988	0,41
1031,406	0,41
1031,823	0,41
1032,241	0,41
1032,659	0,41
1033,076	0,42
1033,493	0,42
1033,911	0,42
1034,328	0,42
1034,746	0,42
1035,163	0,42
1035,58	0,42
1035,997	0,42
1036,415	0,42
1036,832	0,42
1037,249	0,42
1037,666	0,41
1038,083	0,41
1038,501	0,42
1038,918	0,41
1039,335	0,41
1039,752	0,41
1040,169	0,42
1040,586	0,42
1041,003	0,41
1041,419	0,42
1041,836	0,41
1042,253	0,41
1042,67	0,41
1043,087	0,41
1043,504	0,41
1043,92	0,41
1044,337	0,41
1044,754	0,41
1045,17	0,41
1045,587	0,41
1046,004	0,41
1046,42	0,41
1046,837	0,41
1047,253	0,41
1047,67	0,41
1048,086	0,41
1048,503	0,41
1048,919	0,41
1049,335	0,41
1049,752	0,41
1050,168	0,41
1050,584	0,41
1051,001	0,41
1051,417	0,41
1051,833	0,41
1052,249	0,41
1052,665	0,42
1053,081	0,42
1053,497	0,42
1053,914	0,42
1054,33	0,42
1054,746	0,42
1055,162	0,42
1055,578	0,42
1055,993	0,42
1056,409	0,42
1056,825	0,42
1057,241	0,43
1057,657	0,43
1058,073	0,43
1058,488	0,43
1058,904	0,43
1059,32	0,43
1059,736	0,43
1060,151	0,43
1060,567	0,43
1060,982	0,43
1061,398	0,43
1061,813	0,43
1062,229	0,43
1062,644	0,43
1063,06	0,43
1063,475	0,43
1063,891	0,43
1064,306	0,42
1064,721	0,42
1065,137	0,42
1065,552	0,42
1065,967	0,42
1066,382	0,42
1066,798	0,42
1067,213	0,42
1067,628	0,42
1068,043	0,42
1068,458	0,42
1068,873	0,42
1069,288	0,42
1069,703	0,42
1070,118	0,42
1070,533	0,42
1070,948	0,42
1071,363	0,42
1071,778	0,42
1072,193	0,42
1072,607	0,42
1073,022	0,42
1073,437	0,43
1073,852	0,43
1074,266	0,43
1074,681	0,43
1075,096	0,43
1075,51	0,43
1075,925	0,43
1076,339	0,43
1076,754	0,43
1077,168	0,43
1077,583	0,42
1077,997	0,42
1078,412	0,42
1078,826	0,42
1079,24	0,42
1079,655	0,42
1080,069	0,42
1080,483	0,42
1080,897	0,42
1081,312	0,42
1081,726	0,42
1082,14	0,42
1082,554	0,41
1082,968	0,41
1083,382	0,41
1083,796	0,41
1084,21	0,41
1084,624	0,41
1085,038	0,4
1085,452	0,4
1085,866	0,4
1086,28	0,4
1086,694	0,4
1087,108	0,4
1087,521	0,4
1087,935	0,39
1088,349	0,39
1088,763	0,39
1089,176	0,39
1089,59	0,38
1090,004	0,38
1090,417	0,38
1090,831	0,37
1091,244	0,37
1091,658	0,37
1092,071	0,36
1092,485	0,36
1092,898	0,36
1093,312	0,36
1093,725	0,36
1094,138	0,35
1094,552	0,35
1094,965	0,35
1095,378	0,35
1095,791	0,35
1096,205	0,34
1096,618	0,34
1097,031	0,34
1097,444	0,33
1097,857	0,33
1098,27	0,33
1098,683	0,33
1099,096	0,32
1099,509	0,32
1099,922	0,31
1100,335	0,31
1100,748	0,3
1101,161	0,3
1101,574	0,29
1101,986	0,29
1102,399	0,28
1102,812	0,28
1103,225	0,27
1103,637	0,27
1104,05	0,27
1104,463	0,27
1104,875	0,27
1105,288	0,27
1105,7	0,26
1106,113	0,26
1106,525	0,26
1106,938	0,26
1107,35	0,25
1107,763	0,25
1108,175	0,24
1108,588	0,24
1109	0,24
1109,412	0,23
1109,824	0,22
1110,237	0,22
1110,649	0,22
1111,061	0,2
