Data from 18C-808nm-8A-cont_Absorbance__440__01869.txt Node

Date: Mon Jul 17 17:34:55 CEST 2023
User: Laser008
Spectrometer: MAYP115816
Trigger mode: 0
Integration Time (sec): 2,500000E-1
Scans to average: 10
Electric dark correction enabled: true
Nonlinearity correction enabled: true
Boxcar width: 5
XAxis mode: Wavelengths
Number of Pixels in Spectrum: 2068
>>>>>Begin Spectral Data<<<<<
198,914	-0,7
199,384	-0,49
199,855	-0,37
200,325	-0,28
200,796	-0,25
201,266	-0,21
201,737	-0,19
202,207	-0,18
202,677	-0,18
203,147	-0,16
203,618	-0,13
204,088	-0,11
204,558	-0,09
205,028	-0,09
205,498	-0,1
205,968	-0,09
206,439	-0,11
206,909	-0,1
207,379	-0,11
207,849	-0,11
208,319	-0,11
208,789	-0,12
209,258	-0,12
209,728	-0,14
210,198	-0,14
210,668	-0,13
211,138	-0,12
211,608	-0,12
212,077	-0,12
212,547	-0,12
213,017	-0,12
213,486	-0,13
213,956	-0,13
214,426	-0,13
214,895	-0,13
215,365	-0,14
215,834	-0,14
216,304	-0,15
216,773	-0,16
217,243	-0,17
217,712	-0,18
218,181	-0,18
218,651	-0,18
219,12	-0,18
219,589	-0,18
220,058	-0,17
220,528	-0,18
220,997	-0,19
221,466	-0,2
221,935	-0,2
222,404	-0,19
222,873	-0,19
223,342	-0,19
223,812	-0,18
224,281	-0,18
224,749	-0,19
225,218	-0,21
225,687	-0,2
226,156	-0,19
226,625	-0,17
227,094	-0,17
227,563	-0,17
228,031	-0,18
228,5	-0,18
228,969	-0,19
229,438	-0,19
229,906	-0,17
230,375	-0,16
230,844	-0,16
231,312	-0,16
231,781	-0,17
232,249	-0,16
232,718	-0,17
233,186	-0,14
233,655	-0,15
234,123	-0,14
234,591	-0,14
235,06	-0,15
235,528	-0,16
235,996	-0,16
236,465	-0,16
236,933	-0,16
237,401	-0,16
237,869	-0,15
238,337	-0,16
238,805	-0,14
239,274	-0,13
239,742	-0,13
240,21	-0,13
240,678	-0,12
241,146	-0,11
241,614	-0,11
242,081	-0,1
242,549	-0,1
243,017	-0,1
243,485	-0,1
243,953	-0,1
244,421	-0,1
244,888	-0,1
245,356	-0,1
245,824	-0,09
246,291	-0,09
246,759	-0,09
247,227	-0,1
247,694	-0,09
248,162	-0,08
248,629	-0,08
249,097	-0,08
249,564	-0,1
250,032	-0,11
250,499	-0,11
250,967	-0,12
251,434	-0,12
251,901	-0,12
252,369	-0,12
252,836	-0,14
253,303	-0,15
253,77	-0,16
254,237	-0,15
254,705	-0,15
255,172	-0,14
255,639	-0,14
256,106	-0,17
256,573	-0,17
257,04	-0,17
257,507	-0,18
257,974	-0,18
258,441	-0,16
258,908	-0,17
259,375	-0,18
259,841	-0,19
260,308	-0,19
260,775	-0,19
261,242	-0,17
261,709	-0,18
262,175	-0,19
262,642	-0,19
263,109	-0,18
263,575	-0,19
264,042	-0,17
264,508	-0,17
264,975	-0,19
265,441	-0,19
265,908	-0,2
266,374	-0,19
266,841	-0,19
267,307	-0,19
267,773	-0,19
268,24	-0,19
268,706	-0,19
269,172	-0,2
269,639	-0,21
270,105	-0,19
270,571	-0,19
271,037	-0,2
271,503	-0,21
271,969	-0,21
272,435	-0,2
272,902	-0,22
273,368	-0,24
273,834	-0,23
274,3	-0,23
274,765	-0,23
275,231	-0,24
275,697	-0,23
276,163	-0,22
276,629	-0,22
277,095	-0,23
277,56	-0,22
278,026	-0,23
278,492	-0,21
278,958	-0,21
279,423	-0,21
279,889	-0,21
280,354	-0,21
280,82	-0,21
281,286	-0,22
281,751	-0,23
282,217	-0,22
282,682	-0,22
283,147	-0,22
283,613	-0,22
284,078	-0,22
284,544	-0,22
285,009	-0,23
285,474	-0,22
285,939	-0,23
286,405	-0,22
286,87	-0,22
287,335	-0,21
287,8	-0,21
288,265	-0,19
288,73	-0,21
289,195	-0,23
289,66	-0,23
290,125	-0,21
290,59	-0,22
291,055	-0,2
291,52	-0,2
291,985	-0,21
292,45	-0,22
292,915	-0,21
293,38	-0,22
293,844	-0,21
294,309	-0,19
294,774	-0,17
295,239	-0,19
295,703	-0,2
296,168	-0,19
296,632	-0,18
297,097	-0,17
297,562	-0,16
298,026	-0,16
298,491	-0,17
298,955	-0,16
299,419	-0,16
299,884	-0,16
300,348	-0,16
300,813	-0,15
301,277	-0,15
301,741	-0,16
302,205	-0,16
302,67	-0,17
303,134	-0,16
303,598	-0,15
304,062	-0,15
304,526	-0,14
304,99	-0,15
305,454	-0,15
305,919	-0,14
306,383	-0,14
306,847	-0,14
307,31	-0,15
307,774	-0,15
308,238	-0,15
308,702	-0,15
309,166	-0,16
309,63	-0,16
310,094	-0,13
310,557	-0,12
311,021	-0,12
311,485	-0,12
311,948	-0,11
312,412	-0,11
312,876	-0,1
313,339	-0,12
313,803	-0,13
314,266	-0,12
314,73	-0,12
315,193	-0,13
315,657	-0,12
316,12	-0,12
316,584	-0,1
317,047	-0,11
317,51	-0,09
317,973	-0,08
318,437	-0,07
318,9	-0,05
319,363	-0,05
319,826	-0,04
320,29	-0,04
320,753	-0,04
321,216	-0,04
321,679	-0,04
322,142	-0,04
322,605	-0,05
323,068	-0,05
323,531	-0,05
323,994	-0,05
324,457	-0,05
324,92	-0,04
325,382	-0,04
325,845	-0,04
326,308	-0,03
326,771	-0,03
327,233	-0,03
327,696	-0,02
328,159	-0,01
328,622	-0
329,084	-0,01
329,547	0
330,009	0
330,472	0,01
330,934	0,01
331,397	0,02
331,859	0,03
332,322	0,03
332,784	0,04
333,246	0,05
333,709	0,06
334,171	0,07
334,633	0,07
335,096	0,07
335,558	0,07
336,02	0,08
336,482	0,08
336,944	0,09
337,406	0,1
337,868	0,1
338,331	0,1
338,793	0,11
339,255	0,11
339,717	0,11
340,178	0,13
340,64	0,13
341,102	0,14
341,564	0,15
342,026	0,15
342,488	0,16
342,949	0,18
343,411	0,2
343,873	0,23
344,335	0,27
344,796	0,31
345,258	0,36
345,719	0,41
346,181	0,45
346,643	0,5
347,104	0,54
347,566	0,58
348,027	0,61
348,488	0,64
348,95	0,66
349,411	0,69
349,873	0,71
350,334	0,74
350,795	0,76
351,256	0,77
351,718	0,78
352,179	0,79
352,64	0,79
353,101	0,8
353,562	0,8
354,023	0,8
354,484	0,81
354,945	0,81
355,406	0,81
355,867	0,82
356,328	0,82
356,789	0,82
357,25	0,83
357,711	0,83
358,172	0,83
358,633	0,83
359,093	0,83
359,554	0,83
360,015	0,84
360,476	0,84
360,936	0,84
361,397	0,84
361,858	0,84
362,318	0,84
362,779	0,84
363,239	0,84
363,7	0,84
364,16	0,85
364,621	0,85
365,081	0,85
365,541	0,85
366,002	0,85
366,462	0,85
366,922	0,85
367,383	0,84
367,843	0,85
368,303	0,85
368,763	0,85
369,223	0,85
369,684	0,85
370,144	0,85
370,604	0,85
371,064	0,85
371,524	0,85
371,984	0,85
372,444	0,85
372,904	0,85
373,363	0,84
373,823	0,84
374,283	0,84
374,743	0,84
375,203	0,84
375,663	0,84
376,122	0,84
376,582	0,84
377,042	0,84
377,501	0,84
377,961	0,84
378,42	0,84
378,88	0,84
379,34	0,84
379,799	0,84
380,259	0,84
380,718	0,84
381,177	0,84
381,637	0,84
382,096	0,84
382,555	0,84
383,015	0,84
383,474	0,84
383,933	0,84
384,393	0,84
384,852	0,84
385,311	0,84
385,77	0,84
386,229	0,84
386,688	0,84
387,147	0,83
387,606	0,83
388,065	0,83
388,524	0,83
388,983	0,83
389,442	0,83
389,901	0,83
390,36	0,83
390,819	0,83
391,277	0,83
391,736	0,83
392,195	0,83
392,654	0,83
393,112	0,83
393,571	0,83
394,03	0,83
394,488	0,83
394,947	0,83
395,405	0,83
395,864	0,83
396,322	0,83
396,781	0,83
397,239	0,83
397,698	0,83
398,156	0,83
398,614	0,83
399,073	0,83
399,531	0,83
399,989	0,83
400,447	0,83
400,905	0,82
401,364	0,82
401,822	0,82
402,28	0,82
402,738	0,82
403,196	0,82
403,654	0,82
404,112	0,82
404,57	0,82
405,028	0,82
405,486	0,82
405,944	0,82
406,402	0,82
406,859	0,82
407,317	0,82
407,775	0,82
408,233	0,82
408,691	0,82
409,148	0,82
409,606	0,82
410,064	0,82
410,521	0,82
410,979	0,82
411,436	0,82
411,894	0,82
412,351	0,82
412,809	0,82
413,266	0,82
413,724	0,82
414,181	0,82
414,638	0,82
415,096	0,82
415,553	0,82
416,01	0,82
416,467	0,82
416,925	0,82
417,382	0,82
417,839	0,81
418,296	0,81
418,753	0,81
419,21	0,81
419,667	0,81
420,124	0,81
420,581	0,81
421,038	0,81
421,495	0,81
421,952	0,81
422,409	0,81
422,866	0,81
423,322	0,81
423,779	0,81
424,236	0,81
424,693	0,81
425,149	0,81
425,606	0,81
426,063	0,81
426,519	0,81
426,976	0,81
427,433	0,81
427,889	0,81
428,346	0,81
428,802	0,81
429,258	0,81
429,715	0,81
430,171	0,81
430,628	0,81
431,084	0,81
431,54	0,81
431,997	0,81
432,453	0,81
432,909	0,81
433,365	0,81
433,821	0,81
434,277	0,81
434,734	0,81
435,19	0,81
435,646	0,81
436,102	0,81
436,558	0,81
437,014	0,81
437,47	0,81
437,925	0,81
438,381	0,81
438,837	0,81
439,293	0,81
439,749	0,81
440,205	0,81
440,66	0,81
441,116	0,81
441,572	0,81
442,027	0,81
442,483	0,81
442,939	0,81
443,394	0,81
443,85	0,81
444,305	0,81
444,761	0,81
445,216	0,81
445,672	0,81
446,127	0,81
446,582	0,81
447,038	0,82
447,493	0,82
447,948	0,82
448,403	0,82
448,859	0,82
449,314	0,82
449,769	0,82
450,224	0,82
450,679	0,82
451,134	0,82
451,589	0,82
452,044	0,82
452,499	0,82
452,954	0,82
453,409	0,82
453,864	0,82
454,319	0,82
454,774	0,82
455,229	0,82
455,684	0,82
456,138	0,82
456,593	0,82
457,048	0,82
457,503	0,82
457,957	0,82
458,412	0,82
458,866	0,82
459,321	0,82
459,776	0,82
460,23	0,83
460,685	0,83
461,139	0,83
461,593	0,83
462,048	0,83
462,502	0,83
462,957	0,83
463,411	0,83
463,865	0,83
464,319	0,83
464,774	0,83
465,228	0,83
465,682	0,84
466,136	0,84
466,59	0,84
467,044	0,84
467,499	0,84
467,953	0,84
468,407	0,84
468,861	0,84
469,315	0,84
469,768	0,84
470,222	0,84
470,676	0,84
471,13	0,85
471,584	0,85
472,038	0,85
472,491	0,85
472,945	0,85
473,399	0,85
473,852	0,85
474,306	0,85
474,76	0,85
475,213	0,86
475,667	0,86
476,12	0,86
476,574	0,86
477,027	0,86
477,481	0,86
477,934	0,86
478,388	0,87
478,841	0,87
479,294	0,87
479,748	0,87
480,201	0,88
480,654	0,88
481,107	0,88
481,561	0,88
482,014	0,88
482,467	0,88
482,92	0,89
483,373	0,89
483,826	0,89
484,279	0,89
484,732	0,89
485,185	0,9
485,638	0,9
486,091	0,9
486,544	0,9
486,997	0,9
487,449	0,91
487,902	0,91
488,355	0,91
488,808	0,92
489,26	0,92
489,713	0,92
490,166	0,92
490,618	0,93
491,071	0,93
491,523	0,93
491,976	0,93
492,429	0,94
492,881	0,94
493,333	0,94
493,786	0,95
494,238	0,95
494,691	0,95
495,143	0,96
495,595	0,96
496,048	0,97
496,5	0,97
496,952	0,97
497,404	0,98
497,856	0,98
498,309	0,98
498,761	0,99
499,213	0,99
499,665	1
500,117	1
500,569	1,01
501,021	1,01
501,473	1,02
501,925	1,02
502,377	1,02
502,828	1,03
503,28	1,03
503,732	1,04
504,184	1,04
504,636	1,04
505,087	1,05
505,539	1,05
505,991	1,06
506,442	1,06
506,894	1,06
507,345	1,07
507,797	1,07
508,249	1,08
508,7	1,08
509,151	1,08
509,603	1,09
510,054	1,09
510,506	1,1
510,957	1,1
511,408	1,11
511,86	1,11
512,311	1,11
512,762	1,12
513,213	1,12
513,665	1,12
514,116	1,13
514,567	1,13
515,018	1,13
515,469	1,14
515,92	1,14
516,371	1,14
516,822	1,15
517,273	1,15
517,724	1,15
518,175	1,16
518,626	1,16
519,076	1,16
519,527	1,16
519,978	1,17
520,429	1,17
520,88	1,17
521,33	1,17
521,781	1,17
522,232	1,18
522,682	1,18
523,133	1,18
523,583	1,18
524,034	1,18
524,484	1,18
524,935	1,18
525,385	1,19
525,836	1,19
526,286	1,19
526,736	1,19
527,187	1,19
527,637	1,19
528,087	1,18
528,538	1,18
528,988	1,18
529,438	1,18
529,888	1,18
530,338	1,18
530,788	1,18
531,238	1,18
531,688	1,18
532,139	1,18
532,589	1,17
533,038	1,17
533,488	1,17
533,938	1,17
534,388	1,17
534,838	1,16
535,288	1,16
535,738	1,15
536,187	1,15
536,637	1,15
537,087	1,14
537,537	1,14
537,986	1,13
538,436	1,13
538,885	1,12
539,335	1,12
539,785	1,11
540,234	1,11
540,684	1,11
541,133	1,1
541,582	1,09
542,032	1,09
542,481	1,08
542,931	1,08
543,38	1,07
543,829	1,07
544,278	1,06
544,728	1,06
545,177	1,05
545,626	1,05
546,075	1,04
546,524	1,04
546,973	1,04
547,422	1,03
547,871	1,03
548,32	1,02
548,769	1,02
549,218	1,02
549,667	1,01
550,116	1,01
550,565	1
551,014	1
551,463	0,99
551,911	0,99
552,36	0,98
552,809	0,98
553,258	0,97
553,706	0,97
554,155	0,96
554,603	0,96
555,052	0,95
555,501	0,95
555,949	0,94
556,398	0,94
556,846	0,93
557,294	0,93
557,743	0,92
558,191	0,92
558,64	0,91
559,088	0,91
559,536	0,9
559,985	0,9
560,433	0,89
560,881	0,89
561,329	0,88
561,777	0,88
562,225	0,87
562,674	0,87
563,122	0,86
563,57	0,86
564,018	0,86
564,466	0,85
564,914	0,85
565,362	0,84
565,809	0,84
566,257	0,83
566,705	0,83
567,153	0,82
567,601	0,82
568,048	0,81
568,496	0,81
568,944	0,8
569,392	0,8
569,839	0,8
570,287	0,79
570,734	0,79
571,182	0,79
571,63	0,78
572,077	0,78
572,525	0,78
572,972	0,77
573,419	0,77
573,867	0,76
574,314	0,76
574,761	0,76
575,209	0,75
575,656	0,75
576,103	0,74
576,551	0,74
576,998	0,74
577,445	0,74
577,892	0,73
578,339	0,73
578,786	0,73
579,233	0,72
579,68	0,72
580,127	0,71
580,574	0,71
581,021	0,71
581,468	0,71
581,915	0,7
582,362	0,7
582,809	0,7
583,255	0,69
583,702	0,69
584,149	0,69
584,596	0,69
585,042	0,68
585,489	0,68
585,936	0,68
586,382	0,68
586,829	0,67
587,275	0,67
587,722	0,67
588,168	0,67
588,615	0,66
589,061	0,66
589,508	0,66
589,954	0,66
590,4	0,66
590,847	0,65
591,293	0,65
591,739	0,65
592,185	0,65
592,632	0,64
593,078	0,64
593,524	0,64
593,97	0,64
594,416	0,64
594,862	0,64
595,308	0,64
595,754	0,63
596,2	0,63
596,646	0,63
597,092	0,63
597,538	0,63
597,984	0,62
598,43	0,62
598,876	0,62
599,321	0,62
599,767	0,62
600,213	0,62
600,659	0,62
601,104	0,61
601,55	0,61
601,995	0,61
602,441	0,61
602,887	0,61
603,332	0,61
603,778	0,61
604,223	0,6
604,668	0,6
605,114	0,6
605,559	0,6
606,005	0,6
606,45	0,6
606,895	0,6
607,341	0,6
607,786	0,6
608,231	0,59
608,676	0,59
609,121	0,58
609,566	0,57
610,012	0,57
610,457	0,57
610,902	0,56
611,347	0,56
611,792	0,56
612,237	0,55
612,682	0,55
613,127	0,55
613,571	0,55
614,016	0,56
614,461	0,56
614,906	0,56
615,351	0,56
615,795	0,56
616,24	0,56
616,685	0,56
617,129	0,57
617,574	0,57
618,019	0,57
618,463	0,57
618,908	0,56
619,352	0,56
619,797	0,56
620,241	0,56
620,686	0,56
621,13	0,56
621,574	0,56
622,019	0,56
622,463	0,56
622,907	0,55
623,352	0,55
623,796	0,55
624,24	0,55
624,684	0,55
625,128	0,55
625,572	0,55
626,016	0,55
626,461	0,55
626,905	0,55
627,349	0,55
627,793	0,55
628,236	0,55
628,68	0,55
629,124	0,55
629,568	0,55
630,012	0,55
630,456	0,55
630,9	0,55
631,343	0,55
631,787	0,55
632,231	0,55
632,674	0,55
633,118	0,55
633,562	0,55
634,005	0,55
634,449	0,55
634,892	0,54
635,336	0,54
635,779	0,54
636,223	0,54
636,666	0,54
637,109	0,54
637,553	0,54
637,996	0,54
638,439	0,54
638,883	0,54
639,326	0,54
639,769	0,54
640,212	0,54
640,655	0,54
641,099	0,53
641,542	0,53
641,985	0,53
642,428	0,53
642,871	0,53
643,314	0,53
643,757	0,53
644,2	0,53
644,643	0,53
645,085	0,53
645,528	0,53
645,971	0,53
646,414	0,53
646,857	0,53
647,299	0,53
647,742	0,53
648,185	0,53
648,627	0,53
649,07	0,53
649,513	0,53
649,955	0,53
650,398	0,53
650,84	0,53
651,283	0,53
651,725	0,53
652,168	0,53
652,61	0,53
653,052	0,53
653,495	0,52
653,937	0,44
654,379	0,38
654,821	0,39
655,264	0,39
655,706	0,39
656,148	0,39
656,59	0,39
657,032	0,39
657,474	0,39
657,916	0,39
658,358	0,38
658,8	0,44
659,242	0,52
659,684	0,52
660,126	0,52
660,568	0,52
661,01	0,52
661,452	0,52
661,894	0,52
662,335	0,52
662,777	0,52
663,219	0,52
663,661	0,52
664,102	0,52
664,544	0,52
664,985	0,52
665,427	0,52
665,869	0,52
666,31	0,52
666,752	0,52
667,193	0,52
667,634	0,52
668,076	0,52
668,517	0,52
668,959	0,52
669,4	0,52
669,841	0,52
670,282	0,52
670,724	0,52
671,165	0,52
671,606	0,52
672,047	0,52
672,488	0,52
672,929	0,51
673,37	0,51
673,811	0,51
674,252	0,51
674,693	0,51
675,134	0,51
675,575	0,51
676,016	0,51
676,457	0,51
676,898	0,51
677,339	0,51
677,78	0,51
678,22	0,51
678,661	0,51
679,102	0,51
679,542	0,51
679,983	0,51
680,424	0,51
680,864	0,51
681,305	0,51
681,745	0,51
682,186	0,51
682,626	0,51
683,067	0,51
683,507	0,51
683,948	0,51
684,388	0,51
684,828	0,51
685,269	0,51
685,709	0,51
686,149	0,51
686,589	0,5
687,029	0,5
687,47	0,5
687,91	0,5
688,35	0,5
688,79	0,5
689,23	0,5
689,67	0,5
690,11	0,5
690,55	0,5
690,99	0,5
691,43	0,5
691,87	0,5
692,31	0,5
692,749	0,49
693,189	0,49
693,629	0,49
694,069	0,49
694,508	0,49
694,948	0,49
695,388	0,49
695,827	0,49
696,267	0,49
696,706	0,49
697,146	0,49
697,586	0,49
698,025	0,5
698,464	0,5
698,904	0,5
699,343	0,5
699,783	0,5
700,222	0,5
700,661	0,5
701,101	0,5
701,54	0,5
701,979	0,5
702,418	0,5
702,857	0,5
703,297	0,5
703,736	0,5
704,175	0,5
704,614	0,5
705,053	0,5
705,492	0,5
705,931	0,49
706,37	0,49
706,809	0,49
707,248	0,49
707,687	0,49
708,125	0,49
708,564	0,49
709,003	0,49
709,442	0,49
709,88	0,49
710,319	0,49
710,758	0,49
711,196	0,49
711,635	0,49
712,074	0,49
712,512	0,49
712,951	0,49
713,389	0,48
713,828	0,48
714,266	0,48
714,705	0,48
715,143	0,48
715,581	0,48
716,02	0,48
716,458	0,48
716,896	0,48
717,334	0,48
717,773	0,48
718,211	0,48
718,649	0,49
719,087	0,49
719,525	0,49
719,963	0,49
720,401	0,49
720,839	0,49
721,277	0,49
721,715	0,49
722,153	0,49
722,591	0,49
723,029	0,49
723,467	0,49
723,905	0,49
724,342	0,49
724,78	0,49
725,218	0,49
725,656	0,49
726,093	0,48
726,531	0,48
726,969	0,48
727,406	0,48
727,844	0,48
728,281	0,48
728,719	0,48
729,156	0,48
729,594	0,48
730,031	0,48
730,469	0,48
730,906	0,48
731,343	0,48
731,781	0,48
732,218	0,48
732,655	0,48
733,092	0,47
733,53	0,47
733,967	0,47
734,404	0,47
734,841	0,47
735,278	0,47
735,715	0,47
736,152	0,47
736,589	0,47
737,026	0,47
737,463	0,47
737,9	0,47
738,337	0,47
738,774	0,47
739,211	0,47
739,647	0,47
740,084	0,47
740,521	0,47
740,958	0,47
741,394	0,47
741,831	0,47
742,268	0,47
742,704	0,47
743,141	0,47
743,577	0,47
744,014	0,47
744,45	0,47
744,887	0,47
745,323	0,47
745,76	0,47
746,196	0,47
746,632	0,46
747,069	0,46
747,505	0,46
747,941	0,46
748,378	0,46
748,814	0,46
749,25	0,46
749,686	0,46
750,122	0,47
750,558	0,47
750,994	0,47
751,43	0,47
751,866	0,47
752,302	0,47
752,738	0,47
753,174	0,47
753,61	0,47
754,046	0,47
754,482	0,47
754,918	0,47
755,354	0,47
755,789	0,47
756,225	0,47
756,661	0,46
757,096	0,46
757,532	0,46
757,968	0,46
758,403	0,45
758,839	0,45
759,274	0,45
759,71	0,44
760,145	0,44
760,581	0,43
761,016	0,43
761,452	0,42
761,887	0,42
762,322	0,41
762,758	0,41
763,193	0,41
763,628	0,4
764,063	0,39
764,499	0,38
764,934	0,38
765,369	0,37
765,804	0,36
766,239	0,36
766,674	0,35
767,109	0,34
767,544	0,33
767,979	0,32
768,414	0,31
768,849	0,3
769,284	0,29
769,719	0,28
770,154	0,27
770,588	0,26
771,023	0,25
771,458	0,23
771,893	0,22
772,327	0,21
772,762	0,2
773,197	0,19
773,631	0,18
774,066	0,17
774,5	0,16
774,935	0,15
775,369	0,14
775,804	0,13
776,238	0,12
776,673	0,11
777,107	0,09
777,541	0,08
777,976	0,07
778,41	0,07
778,844	0,05
779,279	0,05
779,713	0,04
780,147	0,03
780,581	0,02
781,015	0,02
781,449	0,01
781,883	0
782,317	-0,01
782,751	-0,03
783,185	-0,04
783,619	-0,04
784,053	-0,05
784,487	-0,06
784,921	-0,06
785,355	-0,07
785,789	-0,09
786,223	-0,1
786,656	-0,11
787,09	-0,12
787,524	-0,13
787,957	-0,14
788,391	-0,15
788,825	-0,17
789,258	-0,19
789,692	-0,2
790,125	-0,21
790,559	-0,23
790,992	-0,25
791,426	-0,27
791,859	-0,28
792,293	-0,32
792,726	-0,34
793,159	-0,36
793,593	-0,38
794,026	-0,4
794,459	-0,43
794,892	-0,46
795,326	-0,49
795,759	-0,52
796,192	-0,56
796,625	-0,61
797,058	-0,63
797,491	-0,68
797,924	-0,72
798,357	-0,77
798,79	-0,81
799,223	-0,85
799,656	-0,9
800,089	-0,95
800,522	-0,99
800,955	-1,03
801,387	-1,09
801,82	-1,14
802,253	-1,2
802,686	-1,28
803,118	-1,34
803,551	-1,39
803,984	-1,44
804,416	-1,47
804,849	-1,51
805,281	-1,66
805,714	-2,04
806,146	-2,47
806,579	-2,72
807,011	-2,88
807,444	-2,97
807,876	-3,05
808,308	-3,08
808,741	-3,11
809,173	-3,16
809,605	-3,18
810,037	-3,26
810,47	-3,17
810,902	-2,97
811,334	-2,82
811,766	-2,65
812,198	-2,39
812,63	-1,97
813,062	-1,77
813,494	-1,68
813,926	-1,59
814,358	-1,54
814,79	-1,46
815,222	-1,4
815,654	-1,35
816,086	-1,29
816,518	-1,23
816,949	-1,18
817,381	-1,14
817,813	-1,12
818,245	-1,08
818,676	-1,04
819,108	-1,01
819,54	-0,99
819,971	-0,97
820,403	-0,92
820,834	-0,91
821,266	-0,87
821,697	-0,85
822,129	-0,83
822,56	-0,81
822,991	-0,79
823,423	-0,76
823,854	-0,75
824,286	-0,72
824,717	-0,71
825,148	-0,7
825,579	-0,69
826,01	-0,68
826,442	-0,67
826,873	-0,65
827,304	-0,62
827,735	-0,61
828,166	-0,62
828,597	-0,62
829,028	-0,61
829,459	-0,61
829,89	-0,61
830,321	-0,57
830,752	-0,58
831,183	-0,58
831,613	-0,57
832,044	-0,57
832,475	-0,56
832,906	-0,57
833,336	-0,57
833,767	-0,57
834,198	-0,56
834,628	-0,53
835,059	-0,57
835,49	-0,57
835,92	-0,54
836,351	-0,54
836,781	-0,55
837,212	-0,56
837,642	-0,56
838,072	-0,55
838,503	-0,55
838,933	-0,53
839,364	-0,54
839,794	-0,52
840,224	-0,51
840,654	-0,56
841,085	-0,57
841,515	-0,54
841,945	-0,54
842,375	-0,5
842,805	-0,48
843,235	-0,47
843,665	-0,48
844,095	-0,47
844,525	-0,49
844,955	-0,49
845,385	-0,46
845,815	-0,45
846,245	-0,47
846,675	-0,48
847,105	-0,49
847,534	-0,5
847,964	-0,48
848,394	-0,47
848,824	-0,51
849,253	-0,49
849,683	-0,49
850,112	-0,51
850,542	-0,54
850,972	-0,55
851,401	-0,53
851,831	-0,52
852,26	-0,53
852,69	-0,57
853,119	-0,55
853,548	-0,56
853,978	-0,56
854,407	-0,54
854,836	-0,55
855,266	-0,54
855,695	-0,55
856,124	-0,55
856,553	-0,56
856,983	-0,58
857,412	-0,57
857,841	-0,59
858,27	-0,59
858,699	-0,6
859,128	-0,64
859,557	-0,64
859,986	-0,66
860,415	-0,64
860,844	-0,61
861,273	-0,61
861,702	-0,62
862,13	-0,59
862,559	-0,62
862,988	-0,59
863,417	-0,58
863,845	-0,57
864,274	-0,58
864,703	-0,57
865,131	-0,57
865,56	-0,59
865,989	-0,63
866,417	-0,6
866,846	-0,6
867,274	-0,58
867,703	-0,61
868,131	-0,62
868,559	-0,63
868,988	-0,64
869,416	-0,63
869,844	-0,64
870,273	-0,66
870,701	-0,63
871,129	-0,66
871,557	-0,69
871,986	-0,69
872,414	-0,7
872,842	-0,65
873,27	-0,64
873,698	-0,61
874,126	-0,65
874,554	-0,64
874,982	-0,63
875,41	-0,66
875,838	-0,61
876,266	-0,59
876,694	-0,59
877,122	-0,58
877,549	-0,65
877,977	-0,62
878,405	-0,64
878,833	-0,61
879,26	-0,6
879,688	-0,6
880,116	-0,58
880,543	-0,57
880,971	-0,55
881,399	-0,58
881,826	-0,58
882,254	-0,56
882,681	-0,6
883,109	-0,56
883,536	-0,57
883,963	-0,59
884,391	-0,57
884,818	-0,56
885,245	-0,6
885,673	-0,62
886,1	-0,59
886,527	-0,59
886,954	-0,55
887,381	-0,57
887,809	-0,58
888,236	-0,6
888,663	-0,61
889,09	-0,65
889,517	-0,67
889,944	-0,66
890,371	-0,65
890,798	-0,65
891,225	-0,65
891,652	-0,68
892,078	-0,66
892,505	-0,68
892,932	-0,62
893,359	-0,63
893,786	-0,62
894,212	-0,58
894,639	-0,61
895,066	-0,63
895,492	-0,57
895,919	-0,58
896,346	-0,57
896,772	-0,58
897,199	-0,55
897,625	-0,58
898,052	-0,54
898,478	-0,52
898,904	-0,55
899,331	-0,55
899,757	-0,57
900,183	-0,59
900,61	-0,57
901,036	-0,58
901,462	-0,57
901,888	-0,57
902,315	-0,55
902,741	-0,61
903,167	-0,59
903,593	-0,62
904,019	-0,6
904,445	-0,57
904,871	-0,6
905,297	-0,62
905,723	-0,61
906,149	-0,61
906,575	-0,62
907,001	-0,63
907,427	-0,6
907,852	-0,59
908,278	-0,59
908,704	-0,57
909,13	-0,57
909,555	-0,55
909,981	-0,54
910,407	-0,55
910,832	-0,54
911,258	-0,54
911,684	-0,54
912,109	-0,54
912,535	-0,57
912,96	-0,53
913,386	-0,57
913,811	-0,57
914,236	-0,58
914,662	-0,56
915,087	-0,59
915,512	-0,59
915,938	-0,61
916,363	-0,6
916,788	-0,61
917,213	-0,58
917,639	-0,64
918,064	-0,6
918,489	-0,6
918,914	-0,61
919,339	-0,62
919,764	-0,6
920,189	-0,6
920,614	-0,62
921,039	-0,62
921,464	-0,58
921,889	-0,61
922,314	-0,6
922,738	-0,64
923,163	-0,65
923,588	-0,64
924,013	-0,64
924,437	-0,63
924,862	-0,64
925,287	-0,6
925,711	-0,6
926,136	-0,62
926,561	-0,6
926,985	-0,59
927,41	-0,56
927,834	-0,55
928,259	-0,52
928,683	-0,51
929,108	-0,48
929,532	-0,49
929,956	-0,49
930,381	-0,48
930,805	-0,48
931,229	-0,48
931,653	-0,46
932,078	-0,46
932,502	-0,47
932,926	-0,48
933,35	-0,48
933,774	-0,47
934,198	-0,46
934,622	-0,44
935,046	-0,45
935,47	-0,45
935,894	-0,46
936,318	-0,45
936,742	-0,45
937,166	-0,45
937,59	-0,46
938,014	-0,47
938,437	-0,48
938,861	-0,5
939,285	-0,51
939,709	-0,51
940,132	-0,51
940,556	-0,51
940,98	-0,51
941,403	-0,49
941,827	-0,49
942,25	-0,5
942,674	-0,48
943,097	-0,48
943,521	-0,48
943,944	-0,49
944,368	-0,48
944,791	-0,47
945,214	-0,49
945,638	-0,5
946,061	-0,53
946,484	-0,54
946,907	-0,52
947,331	-0,52
947,754	-0,56
948,177	-0,53
948,6	-0,53
949,023	-0,53
949,446	-0,53
949,869	-0,51
950,292	-0,52
950,715	-0,49
951,138	-0,48
951,561	-0,46
951,984	-0,46
952,407	-0,44
952,83	-0,43
953,252	-0,39
953,675	-0,39
954,098	-0,4
954,521	-0,39
954,943	-0,37
955,366	-0,38
955,789	-0,36
956,211	-0,38
956,634	-0,38
957,056	-0,37
957,479	-0,38
957,902	-0,39
958,324	-0,39
958,746	-0,38
959,169	-0,38
959,591	-0,39
960,014	-0,4
960,436	-0,4
960,858	-0,4
961,281	-0,39
961,703	-0,4
962,125	-0,4
962,547	-0,38
962,969	-0,39
963,391	-0,39
963,814	-0,4
964,236	-0,39
964,658	-0,37
965,08	-0,37
965,502	-0,36
965,924	-0,33
966,346	-0,34
966,768	-0,32
967,189	-0,34
967,611	-0,34
968,033	-0,35
968,455	-0,33
968,877	-0,34
969,298	-0,34
969,72	-0,35
970,142	-0,34
970,563	-0,35
970,985	-0,33
971,407	-0,33
971,828	-0,3
972,25	-0,29
972,671	-0,27
973,093	-0,28
973,514	-0,27
973,936	-0,25
974,357	-0,23
974,778	-0,24
975,2	-0,23
975,621	-0,22
976,042	-0,21
976,464	-0,2
976,885	-0,19
977,306	-0,18
977,727	-0,16
978,148	-0,15
978,57	-0,14
978,991	-0,12
979,412	-0,11
979,833	-0,1
980,254	-0,09
980,675	-0,1
981,096	-0,08
981,517	-0,07
981,937	-0,07
982,358	-0,05
982,779	-0,03
983,2	-0,03
983,621	-0,02
984,042	-0
984,462	0,01
984,883	0,03
985,304	0,04
985,724	0,06
986,145	0,07
986,565	0,09
986,986	0,1
987,407	0,11
987,827	0,13
988,248	0,14
988,668	0,15
989,088	0,16
989,509	0,18
989,929	0,19
990,35	0,2
990,77	0,22
991,19	0,23
991,61	0,24
992,031	0,25
992,451	0,26
992,871	0,27
993,291	0,28
993,711	0,29
994,131	0,3
994,551	0,31
994,971	0,32
995,391	0,32
995,811	0,33
996,231	0,33
996,651	0,34
997,071	0,35
997,491	0,36
997,911	0,37
998,331	0,37
998,75	0,38
999,17	0,38
999,59	0,39
1000,009	0,39
1000,429	0,4
1000,849	0,41
1001,268	0,41
1001,688	0,42
1002,107	0,42
1002,527	0,43
1002,946	0,43
1003,366	0,43
1003,785	0,44
1004,205	0,44
1004,624	0,45
1005,044	0,45
1005,463	0,45
1005,882	0,45
1006,301	0,46
1006,721	0,46
1007,14	0,46
1007,559	0,46
1007,978	0,46
1008,397	0,46
1008,816	0,46
1009,235	0,46
1009,655	0,46
1010,074	0,46
1010,492	0,46
1010,911	0,46
1011,33	0,46
1011,749	0,46
1012,168	0,46
1012,587	0,46
1013,006	0,46
1013,425	0,46
1013,843	0,46
1014,262	0,46
1014,681	0,46
1015,099	0,46
1015,518	0,46
1015,937	0,46
1016,355	0,46
1016,774	0,46
1017,192	0,46
1017,611	0,46
1018,029	0,45
1018,448	0,45
1018,866	0,45
1019,285	0,45
1019,703	0,45
1020,121	0,45
1020,54	0,45
1020,958	0,45
1021,376	0,45
1021,794	0,45
1022,213	0,45
1022,631	0,45
1023,049	0,45
1023,467	0,45
1023,885	0,45
1024,303	0,45
1024,721	0,45
1025,139	0,45
1025,557	0,45
1025,975	0,44
1026,393	0,44
1026,811	0,44
1027,229	0,44
1027,647	0,44
1028,065	0,44
1028,482	0,44
1028,9	0,44
1029,318	0,44
1029,735	0,44
1030,153	0,44
1030,571	0,44
1030,988	0,44
1031,406	0,44
1031,823	0,44
1032,241	0,44
1032,659	0,44
1033,076	0,44
1033,493	0,44
1033,911	0,44
1034,328	0,44
1034,746	0,44
1035,163	0,45
1035,58	0,45
1035,997	0,45
1036,415	0,45
1036,832	0,45
1037,249	0,45
1037,666	0,45
1038,083	0,45
1038,501	0,45
1038,918	0,45
1039,335	0,45
1039,752	0,45
1040,169	0,45
1040,586	0,45
1041,003	0,44
1041,419	0,45
1041,836	0,44
1042,253	0,44
1042,67	0,44
1043,087	0,44
1043,504	0,44
1043,92	0,44
1044,337	0,44
1044,754	0,44
1045,17	0,44
1045,587	0,44
1046,004	0,44
1046,42	0,43
1046,837	0,44
1047,253	0,44
1047,67	0,44
1048,086	0,44
1048,503	0,44
1048,919	0,43
1049,335	0,44
1049,752	0,44
1050,168	0,44
1050,584	0,44
1051,001	0,44
1051,417	0,44
1051,833	0,44
1052,249	0,44
1052,665	0,44
1053,081	0,44
1053,497	0,44
1053,914	0,44
1054,33	0,44
1054,746	0,44
1055,162	0,45
1055,578	0,45
1055,993	0,45
1056,409	0,45
1056,825	0,45
1057,241	0,45
1057,657	0,45
1058,073	0,45
1058,488	0,45
1058,904	0,45
1059,32	0,45
1059,736	0,45
1060,151	0,45
1060,567	0,45
1060,982	0,45
1061,398	0,45
1061,813	0,45
1062,229	0,45
1062,644	0,45
1063,06	0,45
1063,475	0,45
1063,891	0,45
1064,306	0,44
1064,721	0,44
1065,137	0,44
1065,552	0,44
1065,967	0,44
1066,382	0,44
1066,798	0,44
1067,213	0,44
1067,628	0,44
1068,043	0,44
1068,458	0,44
1068,873	0,44
1069,288	0,44
1069,703	0,45
1070,118	0,45
1070,533	0,45
1070,948	0,45
1071,363	0,45
1071,778	0,44
1072,193	0,45
1072,607	0,45
1073,022	0,45
1073,437	0,45
1073,852	0,45
1074,266	0,45
1074,681	0,45
1075,096	0,45
1075,51	0,44
1075,925	0,45
1076,339	0,45
1076,754	0,44
1077,168	0,44
1077,583	0,44
1077,997	0,44
1078,412	0,44
1078,826	0,44
1079,24	0,44
1079,655	0,44
1080,069	0,44
1080,483	0,44
1080,897	0,44
1081,312	0,44
1081,726	0,44
1082,14	0,43
1082,554	0,43
1082,968	0,43
1083,382	0,43
1083,796	0,43
1084,21	0,43
1084,624	0,43
1085,038	0,43
1085,452	0,42
1085,866	0,42
1086,28	0,42
1086,694	0,42
1087,108	0,42
1087,521	0,42
1087,935	0,41
1088,349	0,41
1088,763	0,41
1089,176	0,4
1089,59	0,4
1090,004	0,4
1090,417	0,4
1090,831	0,39
1091,244	0,39
1091,658	0,39
1092,071	0,38
1092,485	0,38
1092,898	0,38
1093,312	0,38
1093,725	0,37
1094,138	0,37
1094,552	0,37
1094,965	0,37
1095,378	0,37
1095,791	0,36
1096,205	0,36
1096,618	0,36
1097,031	0,35
1097,444	0,35
1097,857	0,35
1098,27	0,34
1098,683	0,34
1099,096	0,34
1099,509	0,34
1099,922	0,33
1100,335	0,32
1100,748	0,32
1101,161	0,32
1101,574	0,31
1101,986	0,31
1102,399	0,3
1102,812	0,3
1103,225	0,29
1103,637	0,29
1104,05	0,29
1104,463	0,29
1104,875	0,28
1105,288	0,28
1105,7	0,27
1106,113	0,27
1106,525	0,27
1106,938	0,27
1107,35	0,26
1107,763	0,26
1108,175	0,26
1108,588	0,26
1109	0,25
1109,412	0,25
1109,824	0,25
1110,237	0,25
1110,649	0,25
1111,061	0,24
