Data from 18C-808nm-8A-cont_Absorbance__388__01817.txt Node

Date: Mon Jul 17 17:32:45 CEST 2023
User: Laser008
Spectrometer: MAYP115816
Trigger mode: 0
Integration Time (sec): 2,500000E-1
Scans to average: 10
Electric dark correction enabled: true
Nonlinearity correction enabled: true
Boxcar width: 5
XAxis mode: Wavelengths
Number of Pixels in Spectrum: 2068
>>>>>Begin Spectral Data<<<<<
198,914	-0,75
199,384	-0,49
199,855	-0,35
200,325	-0,27
200,796	-0,26
201,266	-0,22
201,737	-0,19
202,207	-0,17
202,677	-0,17
203,147	-0,15
203,618	-0,1
204,088	-0,08
204,558	-0,08
205,028	-0,08
205,498	-0,08
205,968	-0,07
206,439	-0,07
206,909	-0,06
207,379	-0,07
207,849	-0,07
208,319	-0,08
208,789	-0,08
209,258	-0,08
209,728	-0,09
210,198	-0,08
210,668	-0,07
211,138	-0,07
211,608	-0,08
212,077	-0,09
212,547	-0,08
213,017	-0,08
213,486	-0,08
213,956	-0,1
214,426	-0,1
214,895	-0,1
215,365	-0,12
215,834	-0,12
216,304	-0,13
216,773	-0,13
217,243	-0,15
217,712	-0,16
218,181	-0,16
218,651	-0,16
219,12	-0,15
219,589	-0,15
220,058	-0,14
220,528	-0,15
220,997	-0,16
221,466	-0,17
221,935	-0,17
222,404	-0,16
222,873	-0,15
223,342	-0,15
223,812	-0,14
224,281	-0,15
224,749	-0,15
225,218	-0,16
225,687	-0,16
226,156	-0,14
226,625	-0,13
227,094	-0,13
227,563	-0,13
228,031	-0,15
228,5	-0,15
228,969	-0,15
229,438	-0,15
229,906	-0,14
230,375	-0,13
230,844	-0,13
231,312	-0,14
231,781	-0,15
232,249	-0,14
232,718	-0,14
233,186	-0,13
233,655	-0,13
234,123	-0,13
234,591	-0,13
235,06	-0,14
235,528	-0,15
235,996	-0,15
236,465	-0,14
236,933	-0,13
237,401	-0,13
237,869	-0,12
238,337	-0,12
238,805	-0,11
239,274	-0,11
239,742	-0,11
240,21	-0,11
240,678	-0,1
241,146	-0,1
241,614	-0,1
242,081	-0,1
242,549	-0,1
243,017	-0,1
243,485	-0,1
243,953	-0,1
244,421	-0,1
244,888	-0,09
245,356	-0,09
245,824	-0,09
246,291	-0,09
246,759	-0,09
247,227	-0,09
247,694	-0,09
248,162	-0,08
248,629	-0,07
249,097	-0,07
249,564	-0,08
250,032	-0,09
250,499	-0,09
250,967	-0,09
251,434	-0,09
251,901	-0,08
252,369	-0,09
252,836	-0,1
253,303	-0,11
253,77	-0,13
254,237	-0,13
254,705	-0,14
255,172	-0,13
255,639	-0,13
256,106	-0,16
256,573	-0,16
257,04	-0,17
257,507	-0,17
257,974	-0,17
258,441	-0,15
258,908	-0,15
259,375	-0,16
259,841	-0,17
260,308	-0,18
260,775	-0,17
261,242	-0,16
261,709	-0,16
262,175	-0,17
262,642	-0,17
263,109	-0,17
263,575	-0,18
264,042	-0,17
264,508	-0,17
264,975	-0,18
265,441	-0,17
265,908	-0,18
266,374	-0,18
266,841	-0,19
267,307	-0,19
267,773	-0,18
268,24	-0,19
268,706	-0,19
269,172	-0,2
269,639	-0,21
270,105	-0,19
270,571	-0,2
271,037	-0,2
271,503	-0,2
271,969	-0,19
272,435	-0,19
272,902	-0,2
273,368	-0,22
273,834	-0,22
274,3	-0,22
274,765	-0,21
275,231	-0,21
275,697	-0,2
276,163	-0,2
276,629	-0,19
277,095	-0,2
277,56	-0,19
278,026	-0,19
278,492	-0,17
278,958	-0,17
279,423	-0,17
279,889	-0,17
280,354	-0,18
280,82	-0,17
281,286	-0,19
281,751	-0,2
282,217	-0,19
282,682	-0,19
283,147	-0,19
283,613	-0,2
284,078	-0,2
284,544	-0,22
285,009	-0,23
285,474	-0,22
285,939	-0,24
286,405	-0,22
286,87	-0,22
287,335	-0,22
287,8	-0,21
288,265	-0,2
288,73	-0,21
289,195	-0,23
289,66	-0,22
290,125	-0,2
290,59	-0,2
291,055	-0,2
291,52	-0,2
291,985	-0,21
292,45	-0,22
292,915	-0,22
293,38	-0,23
293,844	-0,21
294,309	-0,2
294,774	-0,19
295,239	-0,2
295,703	-0,21
296,168	-0,2
296,632	-0,2
297,097	-0,18
297,562	-0,16
298,026	-0,17
298,491	-0,17
298,955	-0,16
299,419	-0,15
299,884	-0,15
300,348	-0,14
300,813	-0,13
301,277	-0,14
301,741	-0,13
302,205	-0,13
302,67	-0,14
303,134	-0,13
303,598	-0,13
304,062	-0,12
304,526	-0,12
304,99	-0,13
305,454	-0,14
305,919	-0,13
306,383	-0,13
306,847	-0,13
307,31	-0,14
307,774	-0,14
308,238	-0,13
308,702	-0,13
309,166	-0,15
309,63	-0,14
310,094	-0,12
310,557	-0,11
311,021	-0,11
311,485	-0,11
311,948	-0,1
312,412	-0,09
312,876	-0,08
313,339	-0,09
313,803	-0,09
314,266	-0,09
314,73	-0,1
315,193	-0,1
315,657	-0,08
316,12	-0,09
316,584	-0,08
317,047	-0,08
317,51	-0,07
317,973	-0,07
318,437	-0,06
318,9	-0,05
319,363	-0,03
319,826	-0,03
320,29	-0,03
320,753	-0,04
321,216	-0,03
321,679	-0,04
322,142	-0,03
322,605	-0,04
323,068	-0,04
323,531	-0,04
323,994	-0,04
324,457	-0,03
324,92	-0,02
325,382	-0,02
325,845	-0,01
326,308	-0,01
326,771	-0,01
327,233	-0
327,696	0
328,159	0,02
328,622	0,03
329,084	0,03
329,547	0,03
330,009	0,02
330,472	0,04
330,934	0,05
331,397	0,06
331,859	0,07
332,322	0,07
332,784	0,07
333,246	0,07
333,709	0,06
334,171	0,07
334,633	0,07
335,096	0,07
335,558	0,07
336,02	0,07
336,482	0,07
336,944	0,07
337,406	0,08
337,868	0,09
338,331	0,09
338,793	0,1
339,255	0,11
339,717	0,11
340,178	0,13
340,64	0,13
341,102	0,14
341,564	0,15
342,026	0,17
342,488	0,18
342,949	0,2
343,411	0,23
343,873	0,26
344,335	0,29
344,796	0,33
345,258	0,37
345,719	0,42
346,181	0,46
346,643	0,51
347,104	0,54
347,566	0,57
348,027	0,6
348,488	0,63
348,95	0,64
349,411	0,67
349,873	0,7
350,334	0,72
350,795	0,74
351,256	0,76
351,718	0,77
352,179	0,77
352,64	0,78
353,101	0,78
353,562	0,78
354,023	0,79
354,484	0,79
354,945	0,79
355,406	0,8
355,867	0,8
356,328	0,8
356,789	0,81
357,25	0,81
357,711	0,82
358,172	0,82
358,633	0,82
359,093	0,82
359,554	0,82
360,015	0,82
360,476	0,82
360,936	0,83
361,397	0,83
361,858	0,83
362,318	0,83
362,779	0,83
363,239	0,83
363,7	0,83
364,16	0,83
364,621	0,83
365,081	0,83
365,541	0,83
366,002	0,83
366,462	0,83
366,922	0,83
367,383	0,83
367,843	0,83
368,303	0,83
368,763	0,83
369,223	0,83
369,684	0,83
370,144	0,83
370,604	0,83
371,064	0,83
371,524	0,83
371,984	0,83
372,444	0,83
372,904	0,82
373,363	0,82
373,823	0,82
374,283	0,82
374,743	0,82
375,203	0,82
375,663	0,82
376,122	0,82
376,582	0,82
377,042	0,82
377,501	0,82
377,961	0,82
378,42	0,82
378,88	0,82
379,34	0,82
379,799	0,82
380,259	0,82
380,718	0,82
381,177	0,82
381,637	0,82
382,096	0,82
382,555	0,82
383,015	0,82
383,474	0,82
383,933	0,82
384,393	0,82
384,852	0,82
385,311	0,82
385,77	0,82
386,229	0,82
386,688	0,82
387,147	0,82
387,606	0,82
388,065	0,82
388,524	0,82
388,983	0,82
389,442	0,81
389,901	0,81
390,36	0,81
390,819	0,81
391,277	0,81
391,736	0,81
392,195	0,81
392,654	0,81
393,112	0,81
393,571	0,81
394,03	0,81
394,488	0,81
394,947	0,81
395,405	0,81
395,864	0,81
396,322	0,81
396,781	0,81
397,239	0,81
397,698	0,81
398,156	0,81
398,614	0,81
399,073	0,81
399,531	0,81
399,989	0,81
400,447	0,81
400,905	0,81
401,364	0,81
401,822	0,81
402,28	0,8
402,738	0,8
403,196	0,8
403,654	0,8
404,112	0,8
404,57	0,8
405,028	0,8
405,486	0,8
405,944	0,8
406,402	0,8
406,859	0,8
407,317	0,8
407,775	0,8
408,233	0,8
408,691	0,8
409,148	0,8
409,606	0,8
410,064	0,8
410,521	0,8
410,979	0,8
411,436	0,8
411,894	0,8
412,351	0,8
412,809	0,8
413,266	0,8
413,724	0,8
414,181	0,8
414,638	0,8
415,096	0,8
415,553	0,8
416,01	0,8
416,467	0,8
416,925	0,8
417,382	0,8
417,839	0,8
418,296	0,8
418,753	0,8
419,21	0,8
419,667	0,8
420,124	0,8
420,581	0,8
421,038	0,8
421,495	0,8
421,952	0,8
422,409	0,8
422,866	0,8
423,322	0,8
423,779	0,8
424,236	0,8
424,693	0,8
425,149	0,8
425,606	0,8
426,063	0,8
426,519	0,8
426,976	0,8
427,433	0,8
427,889	0,8
428,346	0,8
428,802	0,8
429,258	0,79
429,715	0,79
430,171	0,79
430,628	0,79
431,084	0,79
431,54	0,79
431,997	0,79
432,453	0,79
432,909	0,79
433,365	0,79
433,821	0,79
434,277	0,79
434,734	0,79
435,19	0,79
435,646	0,79
436,102	0,79
436,558	0,79
437,014	0,79
437,47	0,79
437,925	0,79
438,381	0,79
438,837	0,79
439,293	0,79
439,749	0,79
440,205	0,79
440,66	0,79
441,116	0,79
441,572	0,8
442,027	0,8
442,483	0,8
442,939	0,8
443,394	0,8
443,85	0,8
444,305	0,8
444,761	0,8
445,216	0,8
445,672	0,8
446,127	0,8
446,582	0,8
447,038	0,8
447,493	0,8
447,948	0,8
448,403	0,8
448,859	0,8
449,314	0,8
449,769	0,8
450,224	0,8
450,679	0,8
451,134	0,8
451,589	0,8
452,044	0,8
452,499	0,8
452,954	0,8
453,409	0,8
453,864	0,8
454,319	0,8
454,774	0,8
455,229	0,8
455,684	0,8
456,138	0,8
456,593	0,8
457,048	0,8
457,503	0,8
457,957	0,8
458,412	0,8
458,866	0,8
459,321	0,8
459,776	0,81
460,23	0,81
460,685	0,81
461,139	0,81
461,593	0,81
462,048	0,81
462,502	0,81
462,957	0,81
463,411	0,81
463,865	0,81
464,319	0,81
464,774	0,81
465,228	0,82
465,682	0,82
466,136	0,82
466,59	0,82
467,044	0,82
467,499	0,82
467,953	0,82
468,407	0,82
468,861	0,82
469,315	0,82
469,768	0,82
470,222	0,82
470,676	0,83
471,13	0,83
471,584	0,83
472,038	0,83
472,491	0,83
472,945	0,83
473,399	0,83
473,852	0,83
474,306	0,83
474,76	0,83
475,213	0,84
475,667	0,84
476,12	0,84
476,574	0,84
477,027	0,84
477,481	0,84
477,934	0,85
478,388	0,85
478,841	0,85
479,294	0,85
479,748	0,85
480,201	0,85
480,654	0,86
481,107	0,86
481,561	0,86
482,014	0,86
482,467	0,86
482,92	0,87
483,373	0,87
483,826	0,87
484,279	0,87
484,732	0,87
485,185	0,87
485,638	0,88
486,091	0,88
486,544	0,88
486,997	0,88
487,449	0,88
487,902	0,89
488,355	0,89
488,808	0,89
489,26	0,9
489,713	0,9
490,166	0,9
490,618	0,9
491,071	0,91
491,523	0,91
491,976	0,91
492,429	0,92
492,881	0,92
493,333	0,92
493,786	0,93
494,238	0,93
494,691	0,93
495,143	0,94
495,595	0,94
496,048	0,94
496,5	0,95
496,952	0,95
497,404	0,95
497,856	0,96
498,309	0,96
498,761	0,97
499,213	0,97
499,665	0,97
500,117	0,98
500,569	0,98
501,021	0,99
501,473	0,99
501,925	0,99
502,377	1
502,828	1
503,28	1,01
503,732	1,01
504,184	1,01
504,636	1,02
505,087	1,02
505,539	1,03
505,991	1,03
506,442	1,04
506,894	1,04
507,345	1,04
507,797	1,05
508,249	1,05
508,7	1,06
509,151	1,06
509,603	1,06
510,054	1,07
510,506	1,07
510,957	1,08
511,408	1,08
511,86	1,08
512,311	1,09
512,762	1,09
513,213	1,09
513,665	1,1
514,116	1,1
514,567	1,1
515,018	1,11
515,469	1,11
515,92	1,11
516,371	1,12
516,822	1,12
517,273	1,12
517,724	1,12
518,175	1,13
518,626	1,13
519,076	1,13
519,527	1,13
519,978	1,14
520,429	1,14
520,88	1,14
521,33	1,15
521,781	1,15
522,232	1,15
522,682	1,15
523,133	1,15
523,583	1,16
524,034	1,16
524,484	1,16
524,935	1,16
525,385	1,16
525,836	1,16
526,286	1,16
526,736	1,16
527,187	1,16
527,637	1,16
528,087	1,16
528,538	1,16
528,988	1,15
529,438	1,15
529,888	1,15
530,338	1,15
530,788	1,15
531,238	1,15
531,688	1,15
532,139	1,15
532,589	1,15
533,038	1,14
533,488	1,14
533,938	1,14
534,388	1,14
534,838	1,13
535,288	1,13
535,738	1,13
536,187	1,12
536,637	1,12
537,087	1,12
537,537	1,11
537,986	1,11
538,436	1,1
538,885	1,1
539,335	1,09
539,785	1,09
540,234	1,08
540,684	1,08
541,133	1,08
541,582	1,07
542,032	1,07
542,481	1,06
542,931	1,05
543,38	1,05
543,829	1,04
544,278	1,04
544,728	1,04
545,177	1,03
545,626	1,03
546,075	1,02
546,524	1,02
546,973	1,01
547,422	1,01
547,871	1
548,32	1
548,769	1
549,218	0,99
549,667	0,99
550,116	0,99
550,565	0,98
551,014	0,98
551,463	0,97
551,911	0,97
552,36	0,96
552,809	0,96
553,258	0,95
553,706	0,95
554,155	0,94
554,603	0,94
555,052	0,93
555,501	0,93
555,949	0,93
556,398	0,92
556,846	0,92
557,294	0,91
557,743	0,91
558,191	0,9
558,64	0,9
559,088	0,89
559,536	0,88
559,985	0,88
560,433	0,87
560,881	0,87
561,329	0,86
561,777	0,86
562,225	0,86
562,674	0,85
563,122	0,85
563,57	0,84
564,018	0,84
564,466	0,83
564,914	0,83
565,362	0,82
565,809	0,82
566,257	0,82
566,705	0,81
567,153	0,81
567,601	0,8
568,048	0,8
568,496	0,8
568,944	0,79
569,392	0,79
569,839	0,78
570,287	0,78
570,734	0,78
571,182	0,77
571,63	0,77
572,077	0,77
572,525	0,76
572,972	0,76
573,419	0,76
573,867	0,75
574,314	0,75
574,761	0,74
575,209	0,74
575,656	0,74
576,103	0,73
576,551	0,73
576,998	0,73
577,445	0,72
577,892	0,72
578,339	0,72
578,786	0,71
579,233	0,71
579,68	0,71
580,127	0,7
580,574	0,7
581,021	0,7
581,468	0,69
581,915	0,69
582,362	0,69
582,809	0,69
583,255	0,68
583,702	0,68
584,149	0,68
584,596	0,68
585,042	0,67
585,489	0,67
585,936	0,67
586,382	0,67
586,829	0,67
587,275	0,66
587,722	0,66
588,168	0,66
588,615	0,66
589,061	0,65
589,508	0,65
589,954	0,65
590,4	0,65
590,847	0,64
591,293	0,64
591,739	0,64
592,185	0,64
592,632	0,64
593,078	0,64
593,524	0,63
593,97	0,63
594,416	0,63
594,862	0,63
595,308	0,63
595,754	0,63
596,2	0,63
596,646	0,62
597,092	0,62
597,538	0,62
597,984	0,62
598,43	0,62
598,876	0,62
599,321	0,61
599,767	0,61
600,213	0,61
600,659	0,61
601,104	0,61
601,55	0,61
601,995	0,61
602,441	0,6
602,887	0,6
603,332	0,6
603,778	0,6
604,223	0,6
604,668	0,6
605,114	0,6
605,559	0,59
606,005	0,59
606,45	0,59
606,895	0,59
607,341	0,59
607,786	0,59
608,231	0,59
608,676	0,58
609,121	0,58
609,566	0,57
610,012	0,56
610,457	0,56
610,902	0,56
611,347	0,56
611,792	0,55
612,237	0,55
612,682	0,55
613,127	0,55
613,571	0,55
614,016	0,55
614,461	0,56
614,906	0,56
615,351	0,56
615,795	0,56
616,24	0,56
616,685	0,56
617,129	0,56
617,574	0,56
618,019	0,56
618,463	0,56
618,908	0,56
619,352	0,56
619,797	0,56
620,241	0,56
620,686	0,56
621,13	0,56
621,574	0,55
622,019	0,55
622,463	0,55
622,907	0,55
623,352	0,55
623,796	0,55
624,24	0,55
624,684	0,55
625,128	0,55
625,572	0,55
626,016	0,55
626,461	0,55
626,905	0,55
627,349	0,55
627,793	0,55
628,236	0,55
628,68	0,54
629,124	0,54
629,568	0,54
630,012	0,54
630,456	0,54
630,9	0,54
631,343	0,54
631,787	0,54
632,231	0,54
632,674	0,54
633,118	0,54
633,562	0,54
634,005	0,54
634,449	0,54
634,892	0,54
635,336	0,54
635,779	0,54
636,223	0,54
636,666	0,54
637,109	0,54
637,553	0,54
637,996	0,54
638,439	0,54
638,883	0,54
639,326	0,54
639,769	0,54
640,212	0,54
640,655	0,53
641,099	0,53
641,542	0,53
641,985	0,53
642,428	0,53
642,871	0,53
643,314	0,53
643,757	0,53
644,2	0,53
644,643	0,53
645,085	0,53
645,528	0,53
645,971	0,53
646,414	0,53
646,857	0,52
647,299	0,52
647,742	0,52
648,185	0,52
648,627	0,52
649,07	0,52
649,513	0,52
649,955	0,52
650,398	0,52
650,84	0,52
651,283	0,52
651,725	0,52
652,168	0,52
652,61	0,52
653,052	0,53
653,495	0,52
653,937	0,44
654,379	0,38
654,821	0,39
655,264	0,39
655,706	0,39
656,148	0,39
656,59	0,39
657,032	0,39
657,474	0,39
657,916	0,39
658,358	0,38
658,8	0,44
659,242	0,52
659,684	0,52
660,126	0,52
660,568	0,52
661,01	0,52
661,452	0,52
661,894	0,52
662,335	0,52
662,777	0,52
663,219	0,51
663,661	0,51
664,102	0,51
664,544	0,51
664,985	0,51
665,427	0,51
665,869	0,51
666,31	0,51
666,752	0,51
667,193	0,51
667,634	0,51
668,076	0,51
668,517	0,51
668,959	0,51
669,4	0,51
669,841	0,52
670,282	0,52
670,724	0,52
671,165	0,52
671,606	0,52
672,047	0,51
672,488	0,51
672,929	0,51
673,37	0,51
673,811	0,51
674,252	0,51
674,693	0,51
675,134	0,51
675,575	0,5
676,016	0,5
676,457	0,5
676,898	0,5
677,339	0,5
677,78	0,5
678,22	0,5
678,661	0,5
679,102	0,5
679,542	0,5
679,983	0,5
680,424	0,5
680,864	0,5
681,305	0,5
681,745	0,5
682,186	0,5
682,626	0,5
683,067	0,51
683,507	0,51
683,948	0,51
684,388	0,5
684,828	0,5
685,269	0,5
685,709	0,5
686,149	0,5
686,589	0,5
687,029	0,5
687,47	0,5
687,91	0,5
688,35	0,5
688,79	0,5
689,23	0,5
689,67	0,5
690,11	0,5
690,55	0,5
690,99	0,5
691,43	0,5
691,87	0,49
692,31	0,49
692,749	0,49
693,189	0,49
693,629	0,49
694,069	0,49
694,508	0,49
694,948	0,49
695,388	0,49
695,827	0,49
696,267	0,49
696,706	0,49
697,146	0,49
697,586	0,49
698,025	0,49
698,464	0,49
698,904	0,49
699,343	0,49
699,783	0,49
700,222	0,49
700,661	0,49
701,101	0,49
701,54	0,49
701,979	0,49
702,418	0,49
702,857	0,49
703,297	0,49
703,736	0,49
704,175	0,49
704,614	0,49
705,053	0,49
705,492	0,49
705,931	0,49
706,37	0,49
706,809	0,49
707,248	0,49
707,687	0,49
708,125	0,49
708,564	0,49
709,003	0,49
709,442	0,49
709,88	0,49
710,319	0,49
710,758	0,49
711,196	0,48
711,635	0,48
712,074	0,48
712,512	0,48
712,951	0,48
713,389	0,48
713,828	0,48
714,266	0,48
714,705	0,48
715,143	0,48
715,581	0,48
716,02	0,48
716,458	0,48
716,896	0,48
717,334	0,48
717,773	0,48
718,211	0,48
718,649	0,48
719,087	0,48
719,525	0,48
719,963	0,48
720,401	0,48
720,839	0,48
721,277	0,48
721,715	0,48
722,153	0,48
722,591	0,48
723,029	0,48
723,467	0,48
723,905	0,48
724,342	0,48
724,78	0,48
725,218	0,48
725,656	0,48
726,093	0,48
726,531	0,48
726,969	0,48
727,406	0,48
727,844	0,48
728,281	0,48
728,719	0,48
729,156	0,48
729,594	0,48
730,031	0,48
730,469	0,48
730,906	0,48
731,343	0,48
731,781	0,48
732,218	0,48
732,655	0,47
733,092	0,47
733,53	0,47
733,967	0,47
734,404	0,47
734,841	0,47
735,278	0,47
735,715	0,47
736,152	0,46
736,589	0,46
737,026	0,46
737,463	0,46
737,9	0,46
738,337	0,46
738,774	0,46
739,211	0,46
739,647	0,46
740,084	0,46
740,521	0,46
740,958	0,46
741,394	0,46
741,831	0,46
742,268	0,46
742,704	0,46
743,141	0,46
743,577	0,46
744,014	0,46
744,45	0,46
744,887	0,46
745,323	0,46
745,76	0,46
746,196	0,46
746,632	0,46
747,069	0,46
747,505	0,46
747,941	0,46
748,378	0,45
748,814	0,45
749,25	0,46
749,686	0,46
750,122	0,46
750,558	0,46
750,994	0,46
751,43	0,46
751,866	0,46
752,302	0,46
752,738	0,47
753,174	0,47
753,61	0,47
754,046	0,47
754,482	0,47
754,918	0,47
755,354	0,47
755,789	0,47
756,225	0,46
756,661	0,46
757,096	0,46
757,532	0,46
757,968	0,46
758,403	0,45
758,839	0,45
759,274	0,45
759,71	0,44
760,145	0,44
760,581	0,43
761,016	0,42
761,452	0,42
761,887	0,41
762,322	0,41
762,758	0,4
763,193	0,4
763,628	0,39
764,063	0,39
764,499	0,38
764,934	0,37
765,369	0,37
765,804	0,36
766,239	0,35
766,674	0,35
767,109	0,34
767,544	0,33
767,979	0,32
768,414	0,31
768,849	0,3
769,284	0,29
769,719	0,28
770,154	0,27
770,588	0,26
771,023	0,24
771,458	0,23
771,893	0,22
772,327	0,2
772,762	0,2
773,197	0,19
773,631	0,18
774,066	0,17
774,5	0,16
774,935	0,15
775,369	0,13
775,804	0,12
776,238	0,12
776,673	0,1
777,107	0,1
777,541	0,08
777,976	0,07
778,41	0,06
778,844	0,05
779,279	0,05
779,713	0,04
780,147	0,03
780,581	0,03
781,015	0,02
781,449	0,01
781,883	0
782,317	-0,01
782,751	-0,03
783,185	-0,03
783,619	-0,05
784,053	-0,06
784,487	-0,06
784,921	-0,07
785,355	-0,08
785,789	-0,09
786,223	-0,1
786,656	-0,11
787,09	-0,12
787,524	-0,12
787,957	-0,13
788,391	-0,14
788,825	-0,16
789,258	-0,18
789,692	-0,19
790,125	-0,21
790,559	-0,22
790,992	-0,24
791,426	-0,26
791,859	-0,28
792,293	-0,31
792,726	-0,33
793,159	-0,35
793,593	-0,37
794,026	-0,39
794,459	-0,42
794,892	-0,45
795,326	-0,48
795,759	-0,52
796,192	-0,56
796,625	-0,61
797,058	-0,63
797,491	-0,68
797,924	-0,71
798,357	-0,76
798,79	-0,81
799,223	-0,85
799,656	-0,9
800,089	-0,95
800,522	-0,99
800,955	-1,04
801,387	-1,09
801,82	-1,15
802,253	-1,21
802,686	-1,29
803,118	-1,35
803,551	-1,4
803,984	-1,44
804,416	-1,48
804,849	-1,51
805,281	-1,64
805,714	-2
806,146	-2,46
806,579	-2,71
807,011	-2,87
807,444	-2,97
807,876	-3,05
808,308	-3,08
808,741	-3,11
809,173	-3,16
809,605	-3,18
810,037	-3,26
810,47	-3,18
810,902	-2,98
811,334	-2,82
811,766	-2,66
812,198	-2,41
812,63	-1,99
813,062	-1,78
813,494	-1,68
813,926	-1,6
814,358	-1,54
814,79	-1,46
815,222	-1,4
815,654	-1,35
816,086	-1,29
816,518	-1,24
816,949	-1,19
817,381	-1,14
817,813	-1,12
818,245	-1,08
818,676	-1,04
819,108	-1,01
819,54	-1
819,971	-0,97
820,403	-0,92
820,834	-0,91
821,266	-0,86
821,697	-0,84
822,129	-0,82
822,56	-0,8
822,991	-0,78
823,423	-0,75
823,854	-0,74
824,286	-0,71
824,717	-0,7
825,148	-0,69
825,579	-0,68
826,01	-0,67
826,442	-0,66
826,873	-0,64
827,304	-0,61
827,735	-0,6
828,166	-0,61
828,597	-0,6
829,028	-0,6
829,459	-0,61
829,89	-0,61
830,321	-0,57
830,752	-0,57
831,183	-0,56
831,613	-0,55
832,044	-0,55
832,475	-0,53
832,906	-0,55
833,336	-0,56
833,767	-0,55
834,198	-0,54
834,628	-0,53
835,059	-0,56
835,49	-0,56
835,92	-0,54
836,351	-0,54
836,781	-0,54
837,212	-0,55
837,642	-0,55
838,072	-0,53
838,503	-0,55
838,933	-0,52
839,364	-0,53
839,794	-0,51
840,224	-0,51
840,654	-0,55
841,085	-0,55
841,515	-0,53
841,945	-0,54
842,375	-0,5
842,805	-0,49
843,235	-0,48
843,665	-0,49
844,095	-0,47
844,525	-0,49
844,955	-0,5
845,385	-0,47
845,815	-0,47
846,245	-0,49
846,675	-0,49
847,105	-0,51
847,534	-0,51
847,964	-0,49
848,394	-0,48
848,824	-0,52
849,253	-0,51
849,683	-0,5
850,112	-0,51
850,542	-0,54
850,972	-0,54
851,401	-0,52
851,831	-0,51
852,26	-0,51
852,69	-0,54
853,119	-0,54
853,548	-0,54
853,978	-0,54
854,407	-0,53
854,836	-0,53
855,266	-0,52
855,695	-0,52
856,124	-0,54
856,553	-0,55
856,983	-0,56
857,412	-0,56
857,841	-0,57
858,27	-0,57
858,699	-0,58
859,128	-0,61
859,557	-0,62
859,986	-0,64
860,415	-0,62
860,844	-0,59
861,273	-0,6
861,702	-0,61
862,13	-0,6
862,559	-0,61
862,988	-0,58
863,417	-0,57
863,845	-0,56
864,274	-0,57
864,703	-0,56
865,131	-0,57
865,56	-0,57
865,989	-0,6
866,417	-0,57
866,846	-0,57
867,274	-0,56
867,703	-0,58
868,131	-0,59
868,559	-0,59
868,988	-0,61
869,416	-0,59
869,844	-0,59
870,273	-0,6
870,701	-0,58
871,129	-0,61
871,557	-0,64
871,986	-0,64
872,414	-0,66
872,842	-0,64
873,27	-0,62
873,698	-0,59
874,126	-0,64
874,554	-0,63
874,982	-0,63
875,41	-0,66
875,838	-0,61
876,266	-0,58
876,694	-0,58
877,122	-0,57
877,549	-0,62
877,977	-0,58
878,405	-0,61
878,833	-0,59
879,26	-0,57
879,688	-0,57
880,116	-0,55
880,543	-0,53
880,971	-0,53
881,399	-0,56
881,826	-0,57
882,254	-0,55
882,681	-0,6
883,109	-0,56
883,536	-0,57
883,963	-0,58
884,391	-0,57
884,818	-0,56
885,245	-0,6
885,673	-0,61
886,1	-0,58
886,527	-0,58
886,954	-0,55
887,381	-0,56
887,809	-0,57
888,236	-0,58
888,663	-0,58
889,09	-0,62
889,517	-0,63
889,944	-0,63
890,371	-0,62
890,798	-0,62
891,225	-0,62
891,652	-0,65
892,078	-0,61
892,505	-0,64
892,932	-0,6
893,359	-0,61
893,786	-0,61
894,212	-0,58
894,639	-0,6
895,066	-0,62
895,492	-0,58
895,919	-0,59
896,346	-0,59
896,772	-0,6
897,199	-0,57
897,625	-0,6
898,052	-0,56
898,478	-0,54
898,904	-0,55
899,331	-0,54
899,757	-0,56
900,183	-0,57
900,61	-0,54
901,036	-0,55
901,462	-0,54
901,888	-0,53
902,315	-0,52
902,741	-0,58
903,167	-0,56
903,593	-0,59
904,019	-0,57
904,445	-0,55
904,871	-0,57
905,297	-0,6
905,723	-0,59
906,149	-0,58
906,575	-0,59
907,001	-0,6
907,427	-0,56
907,852	-0,55
908,278	-0,55
908,704	-0,54
909,13	-0,53
909,555	-0,52
909,981	-0,51
910,407	-0,51
910,832	-0,51
911,258	-0,51
911,684	-0,52
912,109	-0,52
912,535	-0,54
912,96	-0,5
913,386	-0,53
913,811	-0,52
914,236	-0,55
914,662	-0,53
915,087	-0,56
915,512	-0,57
915,938	-0,58
916,363	-0,57
916,788	-0,58
917,213	-0,56
917,639	-0,61
918,064	-0,59
918,489	-0,59
918,914	-0,59
919,339	-0,6
919,764	-0,57
920,189	-0,57
920,614	-0,58
921,039	-0,59
921,464	-0,56
921,889	-0,59
922,314	-0,59
922,738	-0,63
923,163	-0,65
923,588	-0,64
924,013	-0,63
924,437	-0,63
924,862	-0,64
925,287	-0,6
925,711	-0,61
926,136	-0,62
926,561	-0,6
926,985	-0,6
927,41	-0,56
927,834	-0,54
928,259	-0,51
928,683	-0,5
929,108	-0,48
929,532	-0,49
929,956	-0,48
930,381	-0,47
930,805	-0,46
931,229	-0,46
931,653	-0,44
932,078	-0,45
932,502	-0,46
932,926	-0,46
933,35	-0,46
933,774	-0,45
934,198	-0,43
934,622	-0,42
935,046	-0,43
935,47	-0,44
935,894	-0,44
936,318	-0,43
936,742	-0,42
937,166	-0,42
937,59	-0,42
938,014	-0,45
938,437	-0,45
938,861	-0,47
939,285	-0,48
939,709	-0,48
940,132	-0,48
940,556	-0,49
940,98	-0,49
941,403	-0,48
941,827	-0,48
942,25	-0,5
942,674	-0,48
943,097	-0,48
943,521	-0,48
943,944	-0,49
944,368	-0,48
944,791	-0,47
945,214	-0,48
945,638	-0,5
946,061	-0,53
946,484	-0,54
946,907	-0,53
947,331	-0,53
947,754	-0,57
948,177	-0,54
948,6	-0,53
949,023	-0,53
949,446	-0,53
949,869	-0,51
950,292	-0,5
950,715	-0,47
951,138	-0,45
951,561	-0,43
951,984	-0,43
952,407	-0,41
952,83	-0,39
953,252	-0,36
953,675	-0,36
954,098	-0,37
954,521	-0,36
954,943	-0,36
955,366	-0,37
955,789	-0,34
956,211	-0,36
956,634	-0,38
957,056	-0,35
957,479	-0,37
957,902	-0,39
958,324	-0,39
958,746	-0,38
959,169	-0,38
959,591	-0,39
960,014	-0,39
960,436	-0,39
960,858	-0,39
961,281	-0,38
961,703	-0,4
962,125	-0,39
962,547	-0,37
962,969	-0,37
963,391	-0,37
963,814	-0,38
964,236	-0,37
964,658	-0,34
965,08	-0,35
965,502	-0,35
965,924	-0,31
966,346	-0,31
966,768	-0,31
967,189	-0,33
967,611	-0,32
968,033	-0,31
968,455	-0,3
968,877	-0,31
969,298	-0,32
969,72	-0,32
970,142	-0,31
970,563	-0,32
970,985	-0,3
971,407	-0,3
971,828	-0,28
972,25	-0,27
972,671	-0,26
973,093	-0,26
973,514	-0,25
973,936	-0,24
974,357	-0,23
974,778	-0,23
975,2	-0,22
975,621	-0,22
976,042	-0,2
976,464	-0,19
976,885	-0,19
977,306	-0,18
977,727	-0,16
978,148	-0,15
978,57	-0,13
978,991	-0,12
979,412	-0,1
979,833	-0,09
980,254	-0,09
980,675	-0,09
981,096	-0,08
981,517	-0,06
981,937	-0,05
982,358	-0,04
982,779	-0,02
983,2	-0,03
983,621	-0,02
984,042	-0
984,462	0,01
984,883	0,03
985,304	0,05
985,724	0,06
986,145	0,07
986,565	0,09
986,986	0,1
987,407	0,11
987,827	0,13
988,248	0,14
988,668	0,15
989,088	0,16
989,509	0,17
989,929	0,18
990,35	0,19
990,77	0,21
991,19	0,21
991,61	0,22
992,031	0,23
992,451	0,24
992,871	0,26
993,291	0,27
993,711	0,28
994,131	0,3
994,551	0,3
994,971	0,31
995,391	0,32
995,811	0,33
996,231	0,34
996,651	0,34
997,071	0,35
997,491	0,36
997,911	0,36
998,331	0,37
998,75	0,38
999,17	0,38
999,59	0,39
1000,009	0,39
1000,429	0,4
1000,849	0,4
1001,268	0,41
1001,688	0,42
1002,107	0,42
1002,527	0,42
1002,946	0,43
1003,366	0,43
1003,785	0,44
1004,205	0,44
1004,624	0,44
1005,044	0,45
1005,463	0,45
1005,882	0,45
1006,301	0,45
1006,721	0,45
1007,14	0,46
1007,559	0,46
1007,978	0,46
1008,397	0,46
1008,816	0,46
1009,235	0,46
1009,655	0,46
1010,074	0,46
1010,492	0,46
1010,911	0,46
1011,33	0,46
1011,749	0,46
1012,168	0,46
1012,587	0,46
1013,006	0,46
1013,425	0,45
1013,843	0,45
1014,262	0,45
1014,681	0,45
1015,099	0,45
1015,518	0,45
1015,937	0,45
1016,355	0,45
1016,774	0,45
1017,192	0,45
1017,611	0,45
1018,029	0,45
1018,448	0,45
1018,866	0,45
1019,285	0,45
1019,703	0,45
1020,121	0,45
1020,54	0,45
1020,958	0,45
1021,376	0,45
1021,794	0,44
1022,213	0,44
1022,631	0,44
1023,049	0,44
1023,467	0,44
1023,885	0,44
1024,303	0,44
1024,721	0,44
1025,139	0,44
1025,557	0,44
1025,975	0,43
1026,393	0,43
1026,811	0,43
1027,229	0,43
1027,647	0,43
1028,065	0,43
1028,482	0,43
1028,9	0,43
1029,318	0,43
1029,735	0,43
1030,153	0,43
1030,571	0,43
1030,988	0,43
1031,406	0,43
1031,823	0,43
1032,241	0,43
1032,659	0,43
1033,076	0,43
1033,493	0,43
1033,911	0,43
1034,328	0,43
1034,746	0,43
1035,163	0,43
1035,58	0,43
1035,997	0,43
1036,415	0,44
1036,832	0,43
1037,249	0,44
1037,666	0,43
1038,083	0,43
1038,501	0,43
1038,918	0,43
1039,335	0,44
1039,752	0,44
1040,169	0,44
1040,586	0,44
1041,003	0,44
1041,419	0,44
1041,836	0,44
1042,253	0,44
1042,67	0,44
1043,087	0,44
1043,504	0,44
1043,92	0,44
1044,337	0,44
1044,754	0,44
1045,17	0,43
1045,587	0,43
1046,004	0,43
1046,42	0,43
1046,837	0,43
1047,253	0,43
1047,67	0,43
1048,086	0,44
1048,503	0,44
1048,919	0,44
1049,335	0,44
1049,752	0,44
1050,168	0,44
1050,584	0,44
1051,001	0,44
1051,417	0,44
1051,833	0,44
1052,249	0,44
1052,665	0,44
1053,081	0,44
1053,497	0,44
1053,914	0,44
1054,33	0,44
1054,746	0,44
1055,162	0,44
1055,578	0,45
1055,993	0,45
1056,409	0,45
1056,825	0,45
1057,241	0,45
1057,657	0,45
1058,073	0,45
1058,488	0,45
1058,904	0,45
1059,32	0,45
1059,736	0,44
1060,151	0,44
1060,567	0,44
1060,982	0,44
1061,398	0,44
1061,813	0,44
1062,229	0,44
1062,644	0,44
1063,06	0,44
1063,475	0,44
1063,891	0,44
1064,306	0,44
1064,721	0,44
1065,137	0,44
1065,552	0,44
1065,967	0,44
1066,382	0,44
1066,798	0,44
1067,213	0,44
1067,628	0,44
1068,043	0,44
1068,458	0,44
1068,873	0,44
1069,288	0,44
1069,703	0,44
1070,118	0,44
1070,533	0,44
1070,948	0,44
1071,363	0,44
1071,778	0,44
1072,193	0,44
1072,607	0,44
1073,022	0,44
1073,437	0,44
1073,852	0,44
1074,266	0,44
1074,681	0,44
1075,096	0,44
1075,51	0,43
1075,925	0,43
1076,339	0,43
1076,754	0,43
1077,168	0,43
1077,583	0,43
1077,997	0,43
1078,412	0,43
1078,826	0,43
1079,24	0,43
1079,655	0,43
1080,069	0,43
1080,483	0,43
1080,897	0,43
1081,312	0,43
1081,726	0,43
1082,14	0,43
1082,554	0,43
1082,968	0,43
1083,382	0,43
1083,796	0,42
1084,21	0,42
1084,624	0,42
1085,038	0,42
1085,452	0,42
1085,866	0,42
1086,28	0,42
1086,694	0,42
1087,108	0,42
1087,521	0,41
1087,935	0,41
1088,349	0,41
1088,763	0,41
1089,176	0,4
1089,59	0,4
1090,004	0,4
1090,417	0,39
1090,831	0,39
1091,244	0,39
1091,658	0,38
1092,071	0,38
1092,485	0,37
1092,898	0,37
1093,312	0,37
1093,725	0,37
1094,138	0,37
1094,552	0,37
1094,965	0,36
1095,378	0,36
1095,791	0,36
1096,205	0,36
1096,618	0,36
1097,031	0,35
1097,444	0,35
1097,857	0,34
1098,27	0,34
1098,683	0,34
1099,096	0,33
1099,509	0,33
1099,922	0,32
1100,335	0,32
1100,748	0,31
1101,161	0,31
1101,574	0,3
1101,986	0,29
1102,399	0,29
1102,812	0,29
1103,225	0,28
1103,637	0,28
1104,05	0,28
1104,463	0,28
1104,875	0,28
1105,288	0,28
1105,7	0,27
1106,113	0,27
1106,525	0,27
1106,938	0,26
1107,35	0,25
1107,763	0,25
1108,175	0,25
1108,588	0,24
1109	0,24
1109,412	0,22
1109,824	0,22
1110,237	0,23
1110,649	0,22
1111,061	0,22
