Data from 18C-808nm-8A-cont_Absorbance__708__02137.txt Node

Date: Mon Jul 17 17:46:05 CEST 2023
User: Laser008
Spectrometer: MAYP115816
Trigger mode: 0
Integration Time (sec): 2,500000E-1
Scans to average: 10
Electric dark correction enabled: true
Nonlinearity correction enabled: true
Boxcar width: 5
XAxis mode: Wavelengths
Number of Pixels in Spectrum: 2068
>>>>>Begin Spectral Data<<<<<
198,914	-0,63
199,384	-0,41
199,855	-0,27
200,325	-0,19
200,796	-0,17
201,266	-0,13
201,737	-0,13
202,207	-0,12
202,677	-0,1
203,147	-0,09
203,618	-0,06
204,088	-0,05
204,558	-0,03
205,028	-0,03
205,498	-0,05
205,968	-0,04
206,439	-0,06
206,909	-0,04
207,379	-0,04
207,849	-0,05
208,319	-0,06
208,789	-0,07
209,258	-0,06
209,728	-0,09
210,198	-0,08
210,668	-0,08
211,138	-0,08
211,608	-0,08
212,077	-0,09
212,547	-0,08
213,017	-0,09
213,486	-0,08
213,956	-0,09
214,426	-0,09
214,895	-0,09
215,365	-0,1
215,834	-0,1
216,304	-0,11
216,773	-0,11
217,243	-0,12
217,712	-0,13
218,181	-0,12
218,651	-0,13
219,12	-0,13
219,589	-0,13
220,058	-0,11
220,528	-0,13
220,997	-0,14
221,466	-0,15
221,935	-0,16
222,404	-0,16
222,873	-0,15
223,342	-0,15
223,812	-0,15
224,281	-0,15
224,749	-0,15
225,218	-0,17
225,687	-0,17
226,156	-0,15
226,625	-0,14
227,094	-0,14
227,563	-0,14
228,031	-0,16
228,5	-0,16
228,969	-0,17
229,438	-0,16
229,906	-0,14
230,375	-0,13
230,844	-0,13
231,312	-0,13
231,781	-0,13
232,249	-0,12
232,718	-0,12
233,186	-0,1
233,655	-0,1
234,123	-0,09
234,591	-0,1
235,06	-0,1
235,528	-0,11
235,996	-0,11
236,465	-0,11
236,933	-0,11
237,401	-0,11
237,869	-0,1
238,337	-0,1
238,805	-0,09
239,274	-0,09
239,742	-0,08
240,21	-0,08
240,678	-0,07
241,146	-0,06
241,614	-0,06
242,081	-0,06
242,549	-0,05
243,017	-0,06
243,485	-0,05
243,953	-0,06
244,421	-0,05
244,888	-0,05
245,356	-0,06
245,824	-0,06
246,291	-0,05
246,759	-0,06
247,227	-0,06
247,694	-0,05
248,162	-0,05
248,629	-0,05
249,097	-0,05
249,564	-0,06
250,032	-0,07
250,499	-0,07
250,967	-0,08
251,434	-0,09
251,901	-0,08
252,369	-0,08
252,836	-0,1
253,303	-0,11
253,77	-0,12
254,237	-0,11
254,705	-0,11
255,172	-0,11
255,639	-0,11
256,106	-0,12
256,573	-0,12
257,04	-0,12
257,507	-0,13
257,974	-0,13
258,441	-0,11
258,908	-0,11
259,375	-0,12
259,841	-0,13
260,308	-0,14
260,775	-0,13
261,242	-0,12
261,709	-0,12
262,175	-0,13
262,642	-0,13
263,109	-0,12
263,575	-0,14
264,042	-0,13
264,508	-0,13
264,975	-0,13
265,441	-0,14
265,908	-0,15
266,374	-0,15
266,841	-0,15
267,307	-0,15
267,773	-0,14
268,24	-0,15
268,706	-0,15
269,172	-0,17
269,639	-0,18
270,105	-0,17
270,571	-0,17
271,037	-0,17
271,503	-0,17
271,969	-0,17
272,435	-0,17
272,902	-0,19
273,368	-0,2
273,834	-0,19
274,3	-0,19
274,765	-0,19
275,231	-0,19
275,697	-0,18
276,163	-0,17
276,629	-0,17
277,095	-0,18
277,56	-0,18
278,026	-0,19
278,492	-0,17
278,958	-0,17
279,423	-0,17
279,889	-0,16
280,354	-0,17
280,82	-0,17
281,286	-0,18
281,751	-0,19
282,217	-0,18
282,682	-0,17
283,147	-0,18
283,613	-0,18
284,078	-0,19
284,544	-0,21
285,009	-0,22
285,474	-0,21
285,939	-0,22
286,405	-0,21
286,87	-0,2
287,335	-0,19
287,8	-0,19
288,265	-0,17
288,73	-0,18
289,195	-0,2
289,66	-0,19
290,125	-0,17
290,59	-0,18
291,055	-0,16
291,52	-0,17
291,985	-0,18
292,45	-0,19
292,915	-0,19
293,38	-0,2
293,844	-0,18
294,309	-0,17
294,774	-0,16
295,239	-0,17
295,703	-0,19
296,168	-0,18
296,632	-0,17
297,097	-0,15
297,562	-0,14
298,026	-0,14
298,491	-0,15
298,955	-0,14
299,419	-0,14
299,884	-0,14
300,348	-0,13
300,813	-0,11
301,277	-0,12
301,741	-0,12
302,205	-0,13
302,67	-0,12
303,134	-0,12
303,598	-0,11
304,062	-0,1
304,526	-0,1
304,99	-0,11
305,454	-0,11
305,919	-0,11
306,383	-0,1
306,847	-0,1
307,31	-0,1
307,774	-0,12
308,238	-0,12
308,702	-0,12
309,166	-0,13
309,63	-0,13
310,094	-0,11
310,557	-0,11
311,021	-0,1
311,485	-0,1
311,948	-0,1
312,412	-0,09
312,876	-0,08
313,339	-0,08
313,803	-0,09
314,266	-0,08
314,73	-0,08
315,193	-0,07
315,657	-0,06
316,12	-0,05
316,584	-0,04
317,047	-0,04
317,51	-0,02
317,973	-0,02
318,437	-0,01
318,9	-0
319,363	0,01
319,826	0,01
320,29	0
320,753	-0
321,216	-0,01
321,679	-0,01
322,142	-0,01
322,605	-0,02
323,068	-0,02
323,531	-0,02
323,994	-0,02
324,457	-0,02
324,92	-0,02
325,382	-0,01
325,845	-0,01
326,308	0
326,771	0,01
327,233	0,02
327,696	0,03
328,159	0,04
328,622	0,05
329,084	0,05
329,547	0,06
330,009	0,07
330,472	0,09
330,934	0,1
331,397	0,11
331,859	0,11
332,322	0,11
332,784	0,11
333,246	0,11
333,709	0,11
334,171	0,12
334,633	0,13
335,096	0,12
335,558	0,11
336,02	0,1
336,482	0,1
336,944	0,11
337,406	0,11
337,868	0,12
338,331	0,12
338,793	0,13
339,255	0,15
339,717	0,15
340,178	0,17
340,64	0,18
341,102	0,19
341,564	0,2
342,026	0,21
342,488	0,22
342,949	0,24
343,411	0,27
343,873	0,29
344,335	0,32
344,796	0,37
345,258	0,41
345,719	0,46
346,181	0,52
346,643	0,56
347,104	0,61
347,566	0,65
348,027	0,68
348,488	0,71
348,95	0,73
349,411	0,76
349,873	0,79
350,334	0,81
350,795	0,84
351,256	0,85
351,718	0,86
352,179	0,87
352,64	0,87
353,101	0,88
353,562	0,88
354,023	0,89
354,484	0,89
354,945	0,9
355,406	0,9
355,867	0,9
356,328	0,91
356,789	0,91
357,25	0,91
357,711	0,91
358,172	0,92
358,633	0,92
359,093	0,92
359,554	0,92
360,015	0,92
360,476	0,93
360,936	0,93
361,397	0,93
361,858	0,93
362,318	0,93
362,779	0,94
363,239	0,94
363,7	0,94
364,16	0,94
364,621	0,94
365,081	0,94
365,541	0,94
366,002	0,94
366,462	0,94
366,922	0,94
367,383	0,94
367,843	0,94
368,303	0,94
368,763	0,94
369,223	0,94
369,684	0,94
370,144	0,94
370,604	0,94
371,064	0,94
371,524	0,94
371,984	0,94
372,444	0,94
372,904	0,94
373,363	0,94
373,823	0,94
374,283	0,94
374,743	0,94
375,203	0,94
375,663	0,94
376,122	0,94
376,582	0,94
377,042	0,94
377,501	0,94
377,961	0,94
378,42	0,94
378,88	0,94
379,34	0,94
379,799	0,93
380,259	0,93
380,718	0,93
381,177	0,93
381,637	0,93
382,096	0,93
382,555	0,93
383,015	0,93
383,474	0,93
383,933	0,93
384,393	0,93
384,852	0,93
385,311	0,93
385,77	0,93
386,229	0,93
386,688	0,93
387,147	0,93
387,606	0,93
388,065	0,93
388,524	0,93
388,983	0,93
389,442	0,93
389,901	0,93
390,36	0,92
390,819	0,92
391,277	0,92
391,736	0,92
392,195	0,92
392,654	0,92
393,112	0,92
393,571	0,92
394,03	0,92
394,488	0,92
394,947	0,92
395,405	0,92
395,864	0,92
396,322	0,92
396,781	0,92
397,239	0,92
397,698	0,92
398,156	0,92
398,614	0,92
399,073	0,92
399,531	0,92
399,989	0,92
400,447	0,92
400,905	0,92
401,364	0,92
401,822	0,92
402,28	0,92
402,738	0,92
403,196	0,92
403,654	0,92
404,112	0,92
404,57	0,92
405,028	0,92
405,486	0,92
405,944	0,92
406,402	0,91
406,859	0,91
407,317	0,91
407,775	0,92
408,233	0,91
408,691	0,92
409,148	0,91
409,606	0,91
410,064	0,91
410,521	0,91
410,979	0,91
411,436	0,91
411,894	0,91
412,351	0,91
412,809	0,91
413,266	0,91
413,724	0,91
414,181	0,91
414,638	0,91
415,096	0,91
415,553	0,91
416,01	0,91
416,467	0,91
416,925	0,91
417,382	0,91
417,839	0,91
418,296	0,91
418,753	0,91
419,21	0,91
419,667	0,91
420,124	0,91
420,581	0,91
421,038	0,91
421,495	0,91
421,952	0,91
422,409	0,91
422,866	0,91
423,322	0,91
423,779	0,91
424,236	0,91
424,693	0,91
425,149	0,91
425,606	0,91
426,063	0,91
426,519	0,91
426,976	0,91
427,433	0,91
427,889	0,91
428,346	0,91
428,802	0,91
429,258	0,91
429,715	0,91
430,171	0,91
430,628	0,91
431,084	0,91
431,54	0,91
431,997	0,91
432,453	0,91
432,909	0,91
433,365	0,91
433,821	0,9
434,277	0,9
434,734	0,9
435,19	0,9
435,646	0,9
436,102	0,9
436,558	0,9
437,014	0,9
437,47	0,9
437,925	0,9
438,381	0,91
438,837	0,91
439,293	0,91
439,749	0,91
440,205	0,91
440,66	0,91
441,116	0,91
441,572	0,91
442,027	0,91
442,483	0,91
442,939	0,91
443,394	0,91
443,85	0,91
444,305	0,91
444,761	0,91
445,216	0,91
445,672	0,91
446,127	0,91
446,582	0,91
447,038	0,91
447,493	0,91
447,948	0,91
448,403	0,91
448,859	0,91
449,314	0,91
449,769	0,91
450,224	0,91
450,679	0,92
451,134	0,92
451,589	0,92
452,044	0,92
452,499	0,92
452,954	0,92
453,409	0,92
453,864	0,92
454,319	0,92
454,774	0,92
455,229	0,92
455,684	0,92
456,138	0,92
456,593	0,92
457,048	0,92
457,503	0,92
457,957	0,92
458,412	0,92
458,866	0,92
459,321	0,92
459,776	0,92
460,23	0,92
460,685	0,92
461,139	0,93
461,593	0,93
462,048	0,93
462,502	0,93
462,957	0,93
463,411	0,93
463,865	0,93
464,319	0,93
464,774	0,93
465,228	0,93
465,682	0,94
466,136	0,94
466,59	0,94
467,044	0,94
467,499	0,94
467,953	0,94
468,407	0,94
468,861	0,94
469,315	0,94
469,768	0,94
470,222	0,94
470,676	0,94
471,13	0,95
471,584	0,95
472,038	0,95
472,491	0,95
472,945	0,95
473,399	0,95
473,852	0,95
474,306	0,95
474,76	0,96
475,213	0,96
475,667	0,96
476,12	0,96
476,574	0,96
477,027	0,96
477,481	0,96
477,934	0,97
478,388	0,97
478,841	0,97
479,294	0,97
479,748	0,97
480,201	0,98
480,654	0,98
481,107	0,98
481,561	0,98
482,014	0,98
482,467	0,99
482,92	0,99
483,373	0,99
483,826	0,99
484,279	1
484,732	1
485,185	1
485,638	1
486,091	1
486,544	1,01
486,997	1,01
487,449	1,01
487,902	1,01
488,355	1,02
488,808	1,02
489,26	1,02
489,713	1,02
490,166	1,03
490,618	1,03
491,071	1,03
491,523	1,04
491,976	1,04
492,429	1,05
492,881	1,05
493,333	1,05
493,786	1,06
494,238	1,06
494,691	1,06
495,143	1,07
495,595	1,07
496,048	1,07
496,5	1,08
496,952	1,08
497,404	1,09
497,856	1,09
498,309	1,09
498,761	1,1
499,213	1,1
499,665	1,11
500,117	1,11
500,569	1,12
501,021	1,12
501,473	1,12
501,925	1,13
502,377	1,13
502,828	1,14
503,28	1,14
503,732	1,15
504,184	1,15
504,636	1,16
505,087	1,16
505,539	1,16
505,991	1,17
506,442	1,17
506,894	1,18
507,345	1,18
507,797	1,19
508,249	1,19
508,7	1,2
509,151	1,2
509,603	1,21
510,054	1,21
510,506	1,21
510,957	1,22
511,408	1,22
511,86	1,23
512,311	1,23
512,762	1,23
513,213	1,24
513,665	1,24
514,116	1,24
514,567	1,25
515,018	1,25
515,469	1,25
515,92	1,26
516,371	1,26
516,822	1,26
517,273	1,27
517,724	1,27
518,175	1,27
518,626	1,28
519,076	1,28
519,527	1,28
519,978	1,28
520,429	1,29
520,88	1,29
521,33	1,29
521,781	1,29
522,232	1,3
522,682	1,3
523,133	1,3
523,583	1,3
524,034	1,3
524,484	1,3
524,935	1,3
525,385	1,3
525,836	1,31
526,286	1,31
526,736	1,31
527,187	1,31
527,637	1,3
528,087	1,3
528,538	1,3
528,988	1,3
529,438	1,3
529,888	1,3
530,338	1,3
530,788	1,3
531,238	1,29
531,688	1,29
532,139	1,29
532,589	1,29
533,038	1,29
533,488	1,29
533,938	1,28
534,388	1,28
534,838	1,28
535,288	1,27
535,738	1,27
536,187	1,27
536,637	1,26
537,087	1,26
537,537	1,25
537,986	1,25
538,436	1,24
538,885	1,24
539,335	1,23
539,785	1,22
540,234	1,22
540,684	1,21
541,133	1,21
541,582	1,2
542,032	1,2
542,481	1,19
542,931	1,18
543,38	1,18
543,829	1,17
544,278	1,16
544,728	1,16
545,177	1,15
545,626	1,15
546,075	1,14
546,524	1,14
546,973	1,13
547,422	1,13
547,871	1,12
548,32	1,12
548,769	1,12
549,218	1,11
549,667	1,11
550,116	1,11
550,565	1,1
551,014	1,1
551,463	1,09
551,911	1,09
552,36	1,08
552,809	1,08
553,258	1,07
553,706	1,07
554,155	1,07
554,603	1,06
555,052	1,06
555,501	1,05
555,949	1,04
556,398	1,04
556,846	1,03
557,294	1,03
557,743	1,02
558,191	1,02
558,64	1,01
559,088	1
559,536	1
559,985	0,99
560,433	0,99
560,881	0,98
561,329	0,98
561,777	0,97
562,225	0,97
562,674	0,96
563,122	0,96
563,57	0,96
564,018	0,95
564,466	0,95
564,914	0,94
565,362	0,94
565,809	0,93
566,257	0,93
566,705	0,92
567,153	0,91
567,601	0,91
568,048	0,91
568,496	0,9
568,944	0,9
569,392	0,89
569,839	0,89
570,287	0,88
570,734	0,88
571,182	0,88
571,63	0,87
572,077	0,87
572,525	0,86
572,972	0,86
573,419	0,85
573,867	0,85
574,314	0,85
574,761	0,84
575,209	0,84
575,656	0,83
576,103	0,83
576,551	0,83
576,998	0,82
577,445	0,82
577,892	0,82
578,339	0,81
578,786	0,81
579,233	0,8
579,68	0,8
580,127	0,8
580,574	0,79
581,021	0,79
581,468	0,79
581,915	0,78
582,362	0,78
582,809	0,78
583,255	0,78
583,702	0,77
584,149	0,77
584,596	0,77
585,042	0,76
585,489	0,76
585,936	0,75
586,382	0,75
586,829	0,75
587,275	0,75
587,722	0,74
588,168	0,74
588,615	0,74
589,061	0,74
589,508	0,73
589,954	0,73
590,4	0,73
590,847	0,73
591,293	0,73
591,739	0,72
592,185	0,72
592,632	0,72
593,078	0,72
593,524	0,72
593,97	0,72
594,416	0,71
594,862	0,71
595,308	0,71
595,754	0,71
596,2	0,71
596,646	0,7
597,092	0,7
597,538	0,7
597,984	0,7
598,43	0,7
598,876	0,69
599,321	0,69
599,767	0,69
600,213	0,69
600,659	0,69
601,104	0,69
601,55	0,69
601,995	0,68
602,441	0,68
602,887	0,68
603,332	0,68
603,778	0,68
604,223	0,68
604,668	0,68
605,114	0,67
605,559	0,67
606,005	0,67
606,45	0,67
606,895	0,67
607,341	0,67
607,786	0,67
608,231	0,66
608,676	0,66
609,121	0,65
609,566	0,64
610,012	0,63
610,457	0,63
610,902	0,62
611,347	0,62
611,792	0,62
612,237	0,62
612,682	0,61
613,127	0,61
613,571	0,62
614,016	0,62
614,461	0,63
614,906	0,63
615,351	0,63
615,795	0,63
616,24	0,63
616,685	0,63
617,129	0,63
617,574	0,63
618,019	0,63
618,463	0,63
618,908	0,63
619,352	0,63
619,797	0,63
620,241	0,63
620,686	0,63
621,13	0,63
621,574	0,63
622,019	0,63
622,463	0,63
622,907	0,63
623,352	0,62
623,796	0,62
624,24	0,62
624,684	0,62
625,128	0,62
625,572	0,62
626,016	0,62
626,461	0,62
626,905	0,62
627,349	0,62
627,793	0,62
628,236	0,62
628,68	0,62
629,124	0,61
629,568	0,61
630,012	0,61
630,456	0,61
630,9	0,61
631,343	0,61
631,787	0,61
632,231	0,61
632,674	0,61
633,118	0,61
633,562	0,61
634,005	0,61
634,449	0,61
634,892	0,61
635,336	0,61
635,779	0,61
636,223	0,61
636,666	0,61
637,109	0,61
637,553	0,61
637,996	0,61
638,439	0,61
638,883	0,61
639,326	0,61
639,769	0,61
640,212	0,61
640,655	0,61
641,099	0,61
641,542	0,61
641,985	0,61
642,428	0,61
642,871	0,61
643,314	0,6
643,757	0,6
644,2	0,6
644,643	0,6
645,085	0,6
645,528	0,6
645,971	0,6
646,414	0,6
646,857	0,6
647,299	0,6
647,742	0,59
648,185	0,59
648,627	0,59
649,07	0,59
649,513	0,59
649,955	0,59
650,398	0,59
650,84	0,59
651,283	0,59
651,725	0,59
652,168	0,59
652,61	0,59
653,052	0,59
653,495	0,59
653,937	0,5
654,379	0,44
654,821	0,45
655,264	0,45
655,706	0,45
656,148	0,45
656,59	0,45
657,032	0,45
657,474	0,45
657,916	0,45
658,358	0,44
658,8	0,51
659,242	0,59
659,684	0,59
660,126	0,59
660,568	0,59
661,01	0,59
661,452	0,59
661,894	0,59
662,335	0,59
662,777	0,59
663,219	0,59
663,661	0,59
664,102	0,59
664,544	0,59
664,985	0,59
665,427	0,59
665,869	0,58
666,31	0,58
666,752	0,58
667,193	0,58
667,634	0,58
668,076	0,58
668,517	0,58
668,959	0,58
669,4	0,58
669,841	0,58
670,282	0,58
670,724	0,58
671,165	0,58
671,606	0,58
672,047	0,58
672,488	0,58
672,929	0,58
673,37	0,58
673,811	0,58
674,252	0,58
674,693	0,58
675,134	0,58
675,575	0,58
676,016	0,58
676,457	0,58
676,898	0,58
677,339	0,58
677,78	0,58
678,22	0,58
678,661	0,58
679,102	0,58
679,542	0,58
679,983	0,58
680,424	0,58
680,864	0,58
681,305	0,58
681,745	0,58
682,186	0,58
682,626	0,58
683,067	0,58
683,507	0,58
683,948	0,58
684,388	0,58
684,828	0,58
685,269	0,58
685,709	0,58
686,149	0,58
686,589	0,57
687,029	0,57
687,47	0,57
687,91	0,57
688,35	0,57
688,79	0,57
689,23	0,57
689,67	0,57
690,11	0,57
690,55	0,57
690,99	0,57
691,43	0,57
691,87	0,57
692,31	0,57
692,749	0,57
693,189	0,57
693,629	0,56
694,069	0,56
694,508	0,56
694,948	0,56
695,388	0,56
695,827	0,56
696,267	0,56
696,706	0,57
697,146	0,57
697,586	0,57
698,025	0,57
698,464	0,57
698,904	0,57
699,343	0,57
699,783	0,57
700,222	0,57
700,661	0,57
701,101	0,57
701,54	0,57
701,979	0,57
702,418	0,57
702,857	0,57
703,297	0,57
703,736	0,57
704,175	0,57
704,614	0,57
705,053	0,57
705,492	0,57
705,931	0,57
706,37	0,57
706,809	0,57
707,248	0,56
707,687	0,56
708,125	0,56
708,564	0,56
709,003	0,56
709,442	0,56
709,88	0,56
710,319	0,56
710,758	0,56
711,196	0,56
711,635	0,56
712,074	0,56
712,512	0,56
712,951	0,56
713,389	0,56
713,828	0,56
714,266	0,56
714,705	0,56
715,143	0,56
715,581	0,56
716,02	0,56
716,458	0,56
716,896	0,56
717,334	0,56
717,773	0,56
718,211	0,56
718,649	0,56
719,087	0,56
719,525	0,56
719,963	0,56
720,401	0,56
720,839	0,56
721,277	0,56
721,715	0,56
722,153	0,56
722,591	0,56
723,029	0,56
723,467	0,56
723,905	0,56
724,342	0,56
724,78	0,55
725,218	0,55
725,656	0,55
726,093	0,55
726,531	0,55
726,969	0,55
727,406	0,55
727,844	0,55
728,281	0,55
728,719	0,55
729,156	0,55
729,594	0,55
730,031	0,55
730,469	0,55
730,906	0,55
731,343	0,55
731,781	0,55
732,218	0,55
732,655	0,55
733,092	0,55
733,53	0,55
733,967	0,55
734,404	0,55
734,841	0,55
735,278	0,55
735,715	0,55
736,152	0,54
736,589	0,54
737,026	0,54
737,463	0,54
737,9	0,54
738,337	0,54
738,774	0,54
739,211	0,54
739,647	0,54
740,084	0,54
740,521	0,54
740,958	0,55
741,394	0,55
741,831	0,55
742,268	0,55
742,704	0,55
743,141	0,55
743,577	0,54
744,014	0,54
744,45	0,54
744,887	0,54
745,323	0,54
745,76	0,54
746,196	0,54
746,632	0,54
747,069	0,54
747,505	0,54
747,941	0,54
748,378	0,54
748,814	0,54
749,25	0,54
749,686	0,54
750,122	0,54
750,558	0,54
750,994	0,54
751,43	0,54
751,866	0,54
752,302	0,54
752,738	0,54
753,174	0,53
753,61	0,53
754,046	0,53
754,482	0,53
754,918	0,53
755,354	0,53
755,789	0,53
756,225	0,53
756,661	0,53
757,096	0,53
757,532	0,52
757,968	0,52
758,403	0,52
758,839	0,51
759,274	0,51
759,71	0,51
760,145	0,5
760,581	0,49
761,016	0,49
761,452	0,48
761,887	0,48
762,322	0,47
762,758	0,47
763,193	0,46
763,628	0,46
764,063	0,45
764,499	0,44
764,934	0,43
765,369	0,42
765,804	0,42
766,239	0,41
766,674	0,4
767,109	0,39
767,544	0,38
767,979	0,37
768,414	0,35
768,849	0,34
769,284	0,33
769,719	0,32
770,154	0,31
770,588	0,31
771,023	0,29
771,458	0,28
771,893	0,27
772,327	0,25
772,762	0,24
773,197	0,24
773,631	0,22
774,066	0,22
774,5	0,21
774,935	0,19
775,369	0,18
775,804	0,17
776,238	0,16
776,673	0,15
777,107	0,14
777,541	0,13
777,976	0,12
778,41	0,11
778,844	0,1
779,279	0,09
779,713	0,08
780,147	0,07
780,581	0,06
781,015	0,04
781,449	0,03
781,883	0,03
782,317	0,01
782,751	-0
783,185	-0,01
783,619	-0,02
784,053	-0,03
784,487	-0,04
784,921	-0,04
785,355	-0,05
785,789	-0,07
786,223	-0,07
786,656	-0,09
787,09	-0,1
787,524	-0,1
787,957	-0,11
788,391	-0,13
788,825	-0,15
789,258	-0,17
789,692	-0,19
790,125	-0,2
790,559	-0,21
790,992	-0,23
791,426	-0,26
791,859	-0,27
792,293	-0,31
792,726	-0,32
793,159	-0,34
793,593	-0,36
794,026	-0,38
794,459	-0,41
794,892	-0,44
795,326	-0,47
795,759	-0,51
796,192	-0,55
796,625	-0,6
797,058	-0,62
797,491	-0,67
797,924	-0,7
798,357	-0,75
798,79	-0,8
799,223	-0,84
799,656	-0,89
800,089	-0,94
800,522	-0,98
800,955	-1,03
801,387	-1,08
801,82	-1,14
802,253	-1,2
802,686	-1,28
803,118	-1,34
803,551	-1,39
803,984	-1,43
804,416	-1,47
804,849	-1,5
805,281	-1,6
805,714	-1,94
806,146	-2,42
806,579	-2,69
807,011	-2,86
807,444	-2,95
807,876	-3,05
808,308	-3,09
808,741	-3,12
809,173	-3,17
809,605	-3,19
810,037	-3,27
810,47	-3,2
810,902	-3,01
811,334	-2,86
811,766	-2,72
812,198	-2,51
812,63	-2,07
813,062	-1,82
813,494	-1,71
813,926	-1,62
814,358	-1,56
814,79	-1,48
815,222	-1,42
815,654	-1,37
816,086	-1,31
816,518	-1,25
816,949	-1,2
817,381	-1,16
817,813	-1,14
818,245	-1,1
818,676	-1,06
819,108	-1,02
819,54	-1,01
819,971	-0,98
820,403	-0,93
820,834	-0,92
821,266	-0,87
821,697	-0,84
822,129	-0,83
822,56	-0,8
822,991	-0,77
823,423	-0,75
823,854	-0,74
824,286	-0,71
824,717	-0,7
825,148	-0,68
825,579	-0,68
826,01	-0,67
826,442	-0,66
826,873	-0,64
827,304	-0,61
827,735	-0,6
828,166	-0,6
828,597	-0,6
829,028	-0,59
829,459	-0,6
829,89	-0,59
830,321	-0,55
830,752	-0,56
831,183	-0,54
831,613	-0,54
832,044	-0,54
832,475	-0,53
832,906	-0,54
833,336	-0,54
833,767	-0,54
834,198	-0,53
834,628	-0,52
835,059	-0,55
835,49	-0,56
835,92	-0,53
836,351	-0,53
836,781	-0,53
837,212	-0,54
837,642	-0,54
838,072	-0,52
838,503	-0,53
838,933	-0,51
839,364	-0,52
839,794	-0,49
840,224	-0,48
840,654	-0,53
841,085	-0,53
841,515	-0,51
841,945	-0,51
842,375	-0,46
842,805	-0,45
843,235	-0,44
843,665	-0,45
844,095	-0,43
844,525	-0,44
844,955	-0,44
845,385	-0,43
845,815	-0,42
846,245	-0,43
846,675	-0,44
847,105	-0,47
847,534	-0,48
847,964	-0,46
848,394	-0,45
848,824	-0,48
849,253	-0,47
849,683	-0,47
850,112	-0,48
850,542	-0,51
850,972	-0,51
851,401	-0,49
851,831	-0,46
852,26	-0,47
852,69	-0,51
853,119	-0,5
853,548	-0,5
853,978	-0,51
854,407	-0,49
854,836	-0,49
855,266	-0,49
855,695	-0,5
856,124	-0,51
856,553	-0,53
856,983	-0,55
857,412	-0,55
857,841	-0,56
858,27	-0,56
858,699	-0,57
859,128	-0,6
859,557	-0,6
859,986	-0,62
860,415	-0,6
860,844	-0,57
861,273	-0,58
861,702	-0,58
862,13	-0,56
862,559	-0,58
862,988	-0,56
863,417	-0,55
863,845	-0,54
864,274	-0,55
864,703	-0,55
865,131	-0,55
865,56	-0,56
865,989	-0,58
866,417	-0,55
866,846	-0,55
867,274	-0,55
867,703	-0,56
868,131	-0,58
868,559	-0,58
868,988	-0,6
869,416	-0,59
869,844	-0,6
870,273	-0,63
870,701	-0,61
871,129	-0,64
871,557	-0,67
871,986	-0,67
872,414	-0,69
872,842	-0,65
873,27	-0,63
873,698	-0,6
874,126	-0,64
874,554	-0,63
874,982	-0,63
875,41	-0,66
875,838	-0,62
876,266	-0,59
876,694	-0,58
877,122	-0,57
877,549	-0,63
877,977	-0,59
878,405	-0,61
878,833	-0,57
879,26	-0,54
879,688	-0,53
880,116	-0,51
880,543	-0,49
880,971	-0,48
881,399	-0,51
881,826	-0,51
882,254	-0,49
882,681	-0,53
883,109	-0,5
883,536	-0,51
883,963	-0,53
884,391	-0,52
884,818	-0,5
885,245	-0,54
885,673	-0,56
886,1	-0,53
886,527	-0,53
886,954	-0,5
887,381	-0,51
887,809	-0,54
888,236	-0,55
888,663	-0,56
889,09	-0,6
889,517	-0,63
889,944	-0,62
890,371	-0,61
890,798	-0,62
891,225	-0,63
891,652	-0,66
892,078	-0,63
892,505	-0,65
892,932	-0,6
893,359	-0,6
893,786	-0,6
894,212	-0,56
894,639	-0,58
895,066	-0,6
895,492	-0,54
895,919	-0,54
896,346	-0,53
896,772	-0,54
897,199	-0,51
897,625	-0,54
898,052	-0,52
898,478	-0,5
898,904	-0,52
899,331	-0,51
899,757	-0,53
900,183	-0,54
900,61	-0,52
901,036	-0,53
901,462	-0,53
901,888	-0,52
902,315	-0,51
902,741	-0,56
903,167	-0,54
903,593	-0,58
904,019	-0,57
904,445	-0,54
904,871	-0,57
905,297	-0,59
905,723	-0,59
906,149	-0,57
906,575	-0,58
907,001	-0,58
907,427	-0,55
907,852	-0,55
908,278	-0,55
908,704	-0,54
909,13	-0,53
909,555	-0,53
909,981	-0,52
910,407	-0,53
910,832	-0,53
911,258	-0,53
911,684	-0,52
912,109	-0,52
912,535	-0,55
912,96	-0,49
913,386	-0,54
913,811	-0,52
914,236	-0,54
914,662	-0,52
915,087	-0,54
915,512	-0,55
915,938	-0,57
916,363	-0,56
916,788	-0,57
917,213	-0,54
917,639	-0,59
918,064	-0,57
918,489	-0,58
918,914	-0,57
919,339	-0,58
919,764	-0,55
920,189	-0,55
920,614	-0,56
921,039	-0,57
921,464	-0,53
921,889	-0,56
922,314	-0,56
922,738	-0,59
923,163	-0,61
923,588	-0,62
924,013	-0,61
924,437	-0,62
924,862	-0,63
925,287	-0,59
925,711	-0,6
926,136	-0,61
926,561	-0,59
926,985	-0,59
927,41	-0,56
927,834	-0,53
928,259	-0,49
928,683	-0,48
929,108	-0,45
929,532	-0,46
929,956	-0,45
930,381	-0,44
930,805	-0,44
931,229	-0,44
931,653	-0,42
932,078	-0,42
932,502	-0,43
932,926	-0,44
933,35	-0,44
933,774	-0,44
934,198	-0,42
934,622	-0,41
935,046	-0,42
935,47	-0,42
935,894	-0,42
936,318	-0,41
936,742	-0,41
937,166	-0,42
937,59	-0,42
938,014	-0,44
938,437	-0,44
938,861	-0,46
939,285	-0,46
939,709	-0,47
940,132	-0,46
940,556	-0,46
940,98	-0,47
941,403	-0,46
941,827	-0,45
942,25	-0,46
942,674	-0,45
943,097	-0,45
943,521	-0,45
943,944	-0,47
944,368	-0,46
944,791	-0,45
945,214	-0,47
945,638	-0,48
946,061	-0,51
946,484	-0,52
946,907	-0,5
947,331	-0,5
947,754	-0,54
948,177	-0,51
948,6	-0,51
949,023	-0,51
949,446	-0,51
949,869	-0,49
950,292	-0,49
950,715	-0,45
951,138	-0,44
951,561	-0,43
951,984	-0,43
952,407	-0,41
952,83	-0,4
953,252	-0,35
953,675	-0,34
954,098	-0,34
954,521	-0,33
954,943	-0,33
955,366	-0,33
955,789	-0,32
956,211	-0,34
956,634	-0,34
957,056	-0,32
957,479	-0,33
957,902	-0,36
958,324	-0,37
958,746	-0,35
959,169	-0,36
959,591	-0,36
960,014	-0,37
960,436	-0,36
960,858	-0,36
961,281	-0,35
961,703	-0,37
962,125	-0,36
962,547	-0,33
962,969	-0,33
963,391	-0,34
963,814	-0,35
964,236	-0,34
964,658	-0,32
965,08	-0,33
965,502	-0,32
965,924	-0,3
966,346	-0,3
966,768	-0,29
967,189	-0,31
967,611	-0,31
968,033	-0,3
968,455	-0,28
968,877	-0,29
969,298	-0,29
969,72	-0,3
970,142	-0,29
970,563	-0,29
970,985	-0,27
971,407	-0,27
971,828	-0,25
972,25	-0,25
972,671	-0,22
973,093	-0,22
973,514	-0,21
973,936	-0,19
974,357	-0,18
974,778	-0,17
975,2	-0,17
975,621	-0,16
976,042	-0,15
976,464	-0,14
976,885	-0,13
977,306	-0,12
977,727	-0,12
978,148	-0,11
978,57	-0,1
978,991	-0,08
979,412	-0,07
979,833	-0,06
980,254	-0,04
980,675	-0,04
981,096	-0,03
981,517	-0,01
981,937	-0,01
982,358	0
982,779	0,02
983,2	0,02
983,621	0,03
984,042	0,04
984,462	0,06
984,883	0,07
985,304	0,09
985,724	0,1
986,145	0,12
986,565	0,14
986,986	0,15
987,407	0,16
987,827	0,17
988,248	0,19
988,668	0,2
989,088	0,22
989,509	0,23
989,929	0,24
990,35	0,25
990,77	0,26
991,19	0,27
991,61	0,29
992,031	0,3
992,451	0,31
992,871	0,33
993,291	0,34
993,711	0,34
994,131	0,35
994,551	0,36
994,971	0,38
995,391	0,38
995,811	0,39
996,231	0,4
996,651	0,41
997,071	0,42
997,491	0,43
997,911	0,43
998,331	0,44
998,75	0,45
999,17	0,46
999,59	0,46
1000,009	0,47
1000,429	0,48
1000,849	0,48
1001,268	0,49
1001,688	0,49
1002,107	0,5
1002,527	0,5
1002,946	0,5
1003,366	0,51
1003,785	0,51
1004,205	0,52
1004,624	0,52
1005,044	0,52
1005,463	0,53
1005,882	0,53
1006,301	0,53
1006,721	0,54
1007,14	0,54
1007,559	0,54
1007,978	0,54
1008,397	0,54
1008,816	0,54
1009,235	0,54
1009,655	0,54
1010,074	0,54
1010,492	0,54
1010,911	0,54
1011,33	0,54
1011,749	0,54
1012,168	0,54
1012,587	0,54
1013,006	0,54
1013,425	0,54
1013,843	0,54
1014,262	0,54
1014,681	0,54
1015,099	0,54
1015,518	0,53
1015,937	0,53
1016,355	0,53
1016,774	0,53
1017,192	0,53
1017,611	0,53
1018,029	0,53
1018,448	0,53
1018,866	0,53
1019,285	0,53
1019,703	0,53
1020,121	0,53
1020,54	0,53
1020,958	0,53
1021,376	0,53
1021,794	0,53
1022,213	0,53
1022,631	0,53
1023,049	0,53
1023,467	0,53
1023,885	0,53
1024,303	0,53
1024,721	0,53
1025,139	0,52
1025,557	0,52
1025,975	0,52
1026,393	0,52
1026,811	0,52
1027,229	0,52
1027,647	0,52
1028,065	0,52
1028,482	0,52
1028,9	0,52
1029,318	0,51
1029,735	0,51
1030,153	0,51
1030,571	0,51
1030,988	0,51
1031,406	0,52
1031,823	0,51
1032,241	0,52
1032,659	0,52
1033,076	0,52
1033,493	0,52
1033,911	0,52
1034,328	0,52
1034,746	0,52
1035,163	0,52
1035,58	0,52
1035,997	0,52
1036,415	0,52
1036,832	0,52
1037,249	0,52
1037,666	0,52
1038,083	0,51
1038,501	0,51
1038,918	0,51
1039,335	0,51
1039,752	0,51
1040,169	0,51
1040,586	0,51
1041,003	0,51
1041,419	0,51
1041,836	0,51
1042,253	0,51
1042,67	0,51
1043,087	0,51
1043,504	0,51
1043,92	0,51
1044,337	0,51
1044,754	0,51
1045,17	0,51
1045,587	0,51
1046,004	0,51
1046,42	0,51
1046,837	0,51
1047,253	0,51
1047,67	0,51
1048,086	0,51
1048,503	0,51
1048,919	0,51
1049,335	0,51
1049,752	0,51
1050,168	0,51
1050,584	0,51
1051,001	0,51
1051,417	0,51
1051,833	0,51
1052,249	0,52
1052,665	0,52
1053,081	0,52
1053,497	0,52
1053,914	0,52
1054,33	0,52
1054,746	0,52
1055,162	0,53
1055,578	0,53
1055,993	0,53
1056,409	0,53
1056,825	0,53
1057,241	0,53
1057,657	0,53
1058,073	0,53
1058,488	0,53
1058,904	0,53
1059,32	0,53
1059,736	0,53
1060,151	0,53
1060,567	0,53
1060,982	0,53
1061,398	0,53
1061,813	0,53
1062,229	0,53
1062,644	0,53
1063,06	0,53
1063,475	0,53
1063,891	0,53
1064,306	0,53
1064,721	0,53
1065,137	0,53
1065,552	0,52
1065,967	0,52
1066,382	0,52
1066,798	0,52
1067,213	0,52
1067,628	0,52
1068,043	0,52
1068,458	0,52
1068,873	0,52
1069,288	0,52
1069,703	0,52
1070,118	0,52
1070,533	0,52
1070,948	0,52
1071,363	0,52
1071,778	0,52
1072,193	0,52
1072,607	0,52
1073,022	0,52
1073,437	0,52
1073,852	0,52
1074,266	0,52
1074,681	0,52
1075,096	0,52
1075,51	0,52
1075,925	0,52
1076,339	0,52
1076,754	0,52
1077,168	0,52
1077,583	0,52
1077,997	0,52
1078,412	0,51
1078,826	0,51
1079,24	0,51
1079,655	0,51
1080,069	0,51
1080,483	0,51
1080,897	0,51
1081,312	0,51
1081,726	0,51
1082,14	0,51
1082,554	0,5
1082,968	0,5
1083,382	0,5
1083,796	0,5
1084,21	0,5
1084,624	0,5
1085,038	0,5
1085,452	0,49
1085,866	0,49
1086,28	0,49
1086,694	0,49
1087,108	0,49
1087,521	0,48
1087,935	0,48
1088,349	0,48
1088,763	0,48
1089,176	0,47
1089,59	0,47
1090,004	0,47
1090,417	0,46
1090,831	0,46
1091,244	0,46
1091,658	0,46
1092,071	0,46
1092,485	0,45
1092,898	0,45
1093,312	0,45
1093,725	0,45
1094,138	0,44
1094,552	0,44
1094,965	0,44
1095,378	0,44
1095,791	0,43
1096,205	0,43
1096,618	0,43
1097,031	0,42
1097,444	0,42
1097,857	0,42
1098,27	0,41
1098,683	0,41
1099,096	0,41
1099,509	0,4
1099,922	0,39
1100,335	0,39
1100,748	0,38
1101,161	0,38
1101,574	0,37
1101,986	0,37
1102,399	0,36
1102,812	0,36
1103,225	0,35
1103,637	0,35
1104,05	0,34
1104,463	0,34
1104,875	0,34
1105,288	0,34
1105,7	0,33
1106,113	0,33
1106,525	0,32
1106,938	0,31
1107,35	0,31
1107,763	0,31
1108,175	0,3
1108,588	0,29
1109	0,29
1109,412	0,28
1109,824	0,28
1110,237	0,28
1110,649	0,28
1111,061	0,28
