Data from 18C-808nm-8A-cont_Absorbance__249__01678.txt Node

Date: Mon Jul 17 17:26:58 CEST 2023
User: Laser008
Spectrometer: MAYP115816
Trigger mode: 0
Integration Time (sec): 2,500000E-1
Scans to average: 10
Electric dark correction enabled: true
Nonlinearity correction enabled: true
Boxcar width: 5
XAxis mode: Wavelengths
Number of Pixels in Spectrum: 2068
>>>>>Begin Spectral Data<<<<<
198,914	-0,68
199,384	-0,48
199,855	-0,35
200,325	-0,28
200,796	-0,25
201,266	-0,19
201,737	-0,18
202,207	-0,16
202,677	-0,15
203,147	-0,14
203,618	-0,11
204,088	-0,09
204,558	-0,07
205,028	-0,07
205,498	-0,08
205,968	-0,08
206,439	-0,09
206,909	-0,09
207,379	-0,1
207,849	-0,11
208,319	-0,12
208,789	-0,13
209,258	-0,11
209,728	-0,13
210,198	-0,12
210,668	-0,12
211,138	-0,11
211,608	-0,11
212,077	-0,11
212,547	-0,11
213,017	-0,1
213,486	-0,1
213,956	-0,1
214,426	-0,12
214,895	-0,11
215,365	-0,13
215,834	-0,13
216,304	-0,14
216,773	-0,14
217,243	-0,16
217,712	-0,16
218,181	-0,16
218,651	-0,16
219,12	-0,16
219,589	-0,16
220,058	-0,16
220,528	-0,16
220,997	-0,16
221,466	-0,17
221,935	-0,17
222,404	-0,17
222,873	-0,16
223,342	-0,16
223,812	-0,16
224,281	-0,16
224,749	-0,17
225,218	-0,18
225,687	-0,18
226,156	-0,17
226,625	-0,15
227,094	-0,16
227,563	-0,16
228,031	-0,18
228,5	-0,18
228,969	-0,19
229,438	-0,18
229,906	-0,17
230,375	-0,16
230,844	-0,16
231,312	-0,16
231,781	-0,17
232,249	-0,15
232,718	-0,15
233,186	-0,12
233,655	-0,13
234,123	-0,12
234,591	-0,13
235,06	-0,14
235,528	-0,14
235,996	-0,15
236,465	-0,15
236,933	-0,14
237,401	-0,15
237,869	-0,14
238,337	-0,15
238,805	-0,14
239,274	-0,14
239,742	-0,13
240,21	-0,13
240,678	-0,12
241,146	-0,12
241,614	-0,12
242,081	-0,11
242,549	-0,11
243,017	-0,11
243,485	-0,11
243,953	-0,11
244,421	-0,1
244,888	-0,1
245,356	-0,09
245,824	-0,08
246,291	-0,09
246,759	-0,09
247,227	-0,09
247,694	-0,08
248,162	-0,07
248,629	-0,07
249,097	-0,08
249,564	-0,08
250,032	-0,09
250,499	-0,09
250,967	-0,11
251,434	-0,1
251,901	-0,1
252,369	-0,1
252,836	-0,12
253,303	-0,13
253,77	-0,14
254,237	-0,13
254,705	-0,13
255,172	-0,13
255,639	-0,13
256,106	-0,14
256,573	-0,15
257,04	-0,16
257,507	-0,17
257,974	-0,18
258,441	-0,16
258,908	-0,16
259,375	-0,18
259,841	-0,18
260,308	-0,18
260,775	-0,17
261,242	-0,16
261,709	-0,16
262,175	-0,16
262,642	-0,15
263,109	-0,14
263,575	-0,16
264,042	-0,15
264,508	-0,14
264,975	-0,16
265,441	-0,18
265,908	-0,18
266,374	-0,18
266,841	-0,18
267,307	-0,18
267,773	-0,17
268,24	-0,18
268,706	-0,18
269,172	-0,19
269,639	-0,2
270,105	-0,17
270,571	-0,18
271,037	-0,18
271,503	-0,2
271,969	-0,19
272,435	-0,18
272,902	-0,2
273,368	-0,21
273,834	-0,2
274,3	-0,21
274,765	-0,21
275,231	-0,22
275,697	-0,21
276,163	-0,2
276,629	-0,19
277,095	-0,21
277,56	-0,2
278,026	-0,21
278,492	-0,19
278,958	-0,19
279,423	-0,19
279,889	-0,18
280,354	-0,19
280,82	-0,19
281,286	-0,2
281,751	-0,21
282,217	-0,2
282,682	-0,2
283,147	-0,21
283,613	-0,21
284,078	-0,22
284,544	-0,23
285,009	-0,24
285,474	-0,23
285,939	-0,24
286,405	-0,22
286,87	-0,22
287,335	-0,22
287,8	-0,21
288,265	-0,19
288,73	-0,21
289,195	-0,22
289,66	-0,21
290,125	-0,2
290,59	-0,2
291,055	-0,19
291,52	-0,19
291,985	-0,2
292,45	-0,22
292,915	-0,22
293,38	-0,22
293,844	-0,2
294,309	-0,19
294,774	-0,18
295,239	-0,19
295,703	-0,2
296,168	-0,19
296,632	-0,19
297,097	-0,17
297,562	-0,16
298,026	-0,16
298,491	-0,16
298,955	-0,16
299,419	-0,15
299,884	-0,15
300,348	-0,14
300,813	-0,13
301,277	-0,14
301,741	-0,14
302,205	-0,14
302,67	-0,13
303,134	-0,14
303,598	-0,14
304,062	-0,13
304,526	-0,13
304,99	-0,14
305,454	-0,13
305,919	-0,13
306,383	-0,13
306,847	-0,13
307,31	-0,14
307,774	-0,15
308,238	-0,15
308,702	-0,14
309,166	-0,16
309,63	-0,16
310,094	-0,14
310,557	-0,13
311,021	-0,13
311,485	-0,13
311,948	-0,12
312,412	-0,11
312,876	-0,1
313,339	-0,11
313,803	-0,12
314,266	-0,11
314,73	-0,11
315,193	-0,11
315,657	-0,1
316,12	-0,1
316,584	-0,09
317,047	-0,09
317,51	-0,08
317,973	-0,07
318,437	-0,05
318,9	-0,04
319,363	-0,03
319,826	-0,03
320,29	-0,04
320,753	-0,05
321,216	-0,04
321,679	-0,04
322,142	-0,04
322,605	-0,05
323,068	-0,05
323,531	-0,05
323,994	-0,05
324,457	-0,05
324,92	-0,04
325,382	-0,04
325,845	-0,04
326,308	-0,03
326,771	-0,03
327,233	-0,02
327,696	-0,01
328,159	-0,01
328,622	0
329,084	0
329,547	0,01
330,009	0,01
330,472	0,02
330,934	0,03
331,397	0,04
331,859	0,04
332,322	0,05
332,784	0,06
333,246	0,07
333,709	0,06
334,171	0,07
334,633	0,07
335,096	0,08
335,558	0,08
336,02	0,08
336,482	0,08
336,944	0,09
337,406	0,09
337,868	0,1
338,331	0,09
338,793	0,11
339,255	0,11
339,717	0,12
340,178	0,12
340,64	0,13
341,102	0,14
341,564	0,15
342,026	0,16
342,488	0,17
342,949	0,18
343,411	0,22
343,873	0,25
344,335	0,27
344,796	0,31
345,258	0,35
345,719	0,39
346,181	0,43
346,643	0,47
347,104	0,5
347,566	0,53
348,027	0,55
348,488	0,57
348,95	0,59
349,411	0,62
349,873	0,64
350,334	0,66
350,795	0,67
351,256	0,68
351,718	0,69
352,179	0,7
352,64	0,7
353,101	0,7
353,562	0,71
354,023	0,71
354,484	0,71
354,945	0,71
355,406	0,72
355,867	0,72
356,328	0,72
356,789	0,72
357,25	0,72
357,711	0,73
358,172	0,73
358,633	0,73
359,093	0,73
359,554	0,73
360,015	0,73
360,476	0,73
360,936	0,74
361,397	0,74
361,858	0,74
362,318	0,74
362,779	0,74
363,239	0,74
363,7	0,74
364,16	0,74
364,621	0,74
365,081	0,74
365,541	0,74
366,002	0,74
366,462	0,74
366,922	0,74
367,383	0,74
367,843	0,74
368,303	0,74
368,763	0,74
369,223	0,74
369,684	0,74
370,144	0,74
370,604	0,74
371,064	0,74
371,524	0,74
371,984	0,74
372,444	0,74
372,904	0,74
373,363	0,74
373,823	0,74
374,283	0,74
374,743	0,74
375,203	0,74
375,663	0,74
376,122	0,74
376,582	0,74
377,042	0,74
377,501	0,74
377,961	0,74
378,42	0,74
378,88	0,74
379,34	0,74
379,799	0,74
380,259	0,74
380,718	0,74
381,177	0,73
381,637	0,73
382,096	0,73
382,555	0,73
383,015	0,73
383,474	0,73
383,933	0,73
384,393	0,73
384,852	0,73
385,311	0,73
385,77	0,73
386,229	0,73
386,688	0,73
387,147	0,73
387,606	0,73
388,065	0,73
388,524	0,73
388,983	0,73
389,442	0,73
389,901	0,73
390,36	0,73
390,819	0,73
391,277	0,73
391,736	0,73
392,195	0,73
392,654	0,73
393,112	0,73
393,571	0,72
394,03	0,72
394,488	0,72
394,947	0,72
395,405	0,72
395,864	0,72
396,322	0,72
396,781	0,72
397,239	0,72
397,698	0,72
398,156	0,72
398,614	0,72
399,073	0,72
399,531	0,72
399,989	0,72
400,447	0,72
400,905	0,72
401,364	0,72
401,822	0,72
402,28	0,72
402,738	0,72
403,196	0,72
403,654	0,72
404,112	0,72
404,57	0,72
405,028	0,72
405,486	0,72
405,944	0,72
406,402	0,72
406,859	0,72
407,317	0,72
407,775	0,72
408,233	0,72
408,691	0,72
409,148	0,72
409,606	0,72
410,064	0,72
410,521	0,72
410,979	0,72
411,436	0,72
411,894	0,72
412,351	0,72
412,809	0,72
413,266	0,71
413,724	0,71
414,181	0,71
414,638	0,71
415,096	0,71
415,553	0,71
416,01	0,71
416,467	0,71
416,925	0,71
417,382	0,71
417,839	0,71
418,296	0,71
418,753	0,71
419,21	0,71
419,667	0,71
420,124	0,71
420,581	0,71
421,038	0,71
421,495	0,71
421,952	0,71
422,409	0,71
422,866	0,71
423,322	0,71
423,779	0,71
424,236	0,71
424,693	0,71
425,149	0,71
425,606	0,71
426,063	0,71
426,519	0,71
426,976	0,71
427,433	0,71
427,889	0,71
428,346	0,71
428,802	0,71
429,258	0,71
429,715	0,71
430,171	0,71
430,628	0,71
431,084	0,71
431,54	0,71
431,997	0,71
432,453	0,71
432,909	0,71
433,365	0,71
433,821	0,71
434,277	0,71
434,734	0,71
435,19	0,71
435,646	0,71
436,102	0,71
436,558	0,71
437,014	0,71
437,47	0,71
437,925	0,71
438,381	0,71
438,837	0,71
439,293	0,71
439,749	0,71
440,205	0,71
440,66	0,71
441,116	0,71
441,572	0,71
442,027	0,71
442,483	0,71
442,939	0,71
443,394	0,71
443,85	0,71
444,305	0,71
444,761	0,71
445,216	0,71
445,672	0,71
446,127	0,71
446,582	0,71
447,038	0,71
447,493	0,71
447,948	0,71
448,403	0,71
448,859	0,71
449,314	0,71
449,769	0,71
450,224	0,71
450,679	0,71
451,134	0,72
451,589	0,72
452,044	0,72
452,499	0,72
452,954	0,72
453,409	0,72
453,864	0,72
454,319	0,72
454,774	0,72
455,229	0,72
455,684	0,72
456,138	0,72
456,593	0,72
457,048	0,72
457,503	0,72
457,957	0,72
458,412	0,72
458,866	0,72
459,321	0,72
459,776	0,72
460,23	0,72
460,685	0,72
461,139	0,72
461,593	0,72
462,048	0,72
462,502	0,72
462,957	0,72
463,411	0,73
463,865	0,73
464,319	0,73
464,774	0,73
465,228	0,73
465,682	0,73
466,136	0,73
466,59	0,73
467,044	0,73
467,499	0,73
467,953	0,73
468,407	0,73
468,861	0,73
469,315	0,73
469,768	0,74
470,222	0,74
470,676	0,74
471,13	0,74
471,584	0,74
472,038	0,74
472,491	0,74
472,945	0,74
473,399	0,74
473,852	0,74
474,306	0,74
474,76	0,75
475,213	0,75
475,667	0,75
476,12	0,75
476,574	0,75
477,027	0,75
477,481	0,75
477,934	0,75
478,388	0,76
478,841	0,76
479,294	0,76
479,748	0,76
480,201	0,76
480,654	0,76
481,107	0,76
481,561	0,77
482,014	0,77
482,467	0,77
482,92	0,77
483,373	0,77
483,826	0,77
484,279	0,78
484,732	0,78
485,185	0,78
485,638	0,78
486,091	0,78
486,544	0,78
486,997	0,79
487,449	0,79
487,902	0,79
488,355	0,79
488,808	0,8
489,26	0,8
489,713	0,8
490,166	0,8
490,618	0,81
491,071	0,81
491,523	0,81
491,976	0,81
492,429	0,82
492,881	0,82
493,333	0,82
493,786	0,82
494,238	0,83
494,691	0,83
495,143	0,83
495,595	0,84
496,048	0,84
496,5	0,84
496,952	0,85
497,404	0,85
497,856	0,85
498,309	0,85
498,761	0,86
499,213	0,86
499,665	0,87
500,117	0,87
500,569	0,87
501,021	0,88
501,473	0,88
501,925	0,88
502,377	0,89
502,828	0,89
503,28	0,9
503,732	0,9
504,184	0,9
504,636	0,91
505,087	0,91
505,539	0,91
505,991	0,92
506,442	0,92
506,894	0,92
507,345	0,93
507,797	0,93
508,249	0,93
508,7	0,94
509,151	0,94
509,603	0,95
510,054	0,95
510,506	0,95
510,957	0,96
511,408	0,96
511,86	0,96
512,311	0,97
512,762	0,97
513,213	0,97
513,665	0,97
514,116	0,98
514,567	0,98
515,018	0,98
515,469	0,99
515,92	0,99
516,371	0,99
516,822	1
517,273	1
517,724	1
518,175	1
518,626	1,01
519,076	1,01
519,527	1,01
519,978	1,01
520,429	1,01
520,88	1,02
521,33	1,02
521,781	1,02
522,232	1,02
522,682	1,02
523,133	1,03
523,583	1,03
524,034	1,03
524,484	1,03
524,935	1,03
525,385	1,03
525,836	1,03
526,286	1,03
526,736	1,03
527,187	1,03
527,637	1,03
528,087	1,03
528,538	1,03
528,988	1,03
529,438	1,03
529,888	1,03
530,338	1,03
530,788	1,02
531,238	1,02
531,688	1,02
532,139	1,02
532,589	1,02
533,038	1,02
533,488	1,02
533,938	1,02
534,388	1,01
534,838	1,01
535,288	1,01
535,738	1,01
536,187	1
536,637	1
537,087	1
537,537	0,99
537,986	0,99
538,436	0,99
538,885	0,98
539,335	0,98
539,785	0,97
540,234	0,97
540,684	0,96
541,133	0,96
541,582	0,95
542,032	0,95
542,481	0,95
542,931	0,94
543,38	0,94
543,829	0,93
544,278	0,93
544,728	0,92
545,177	0,92
545,626	0,92
546,075	0,91
546,524	0,91
546,973	0,91
547,422	0,9
547,871	0,9
548,32	0,9
548,769	0,89
549,218	0,89
549,667	0,89
550,116	0,88
550,565	0,88
551,014	0,88
551,463	0,87
551,911	0,87
552,36	0,86
552,809	0,86
553,258	0,86
553,706	0,85
554,155	0,85
554,603	0,85
555,052	0,84
555,501	0,84
555,949	0,83
556,398	0,83
556,846	0,83
557,294	0,82
557,743	0,82
558,191	0,81
558,64	0,81
559,088	0,8
559,536	0,8
559,985	0,79
560,433	0,79
560,881	0,79
561,329	0,78
561,777	0,78
562,225	0,78
562,674	0,77
563,122	0,77
563,57	0,77
564,018	0,76
564,466	0,76
564,914	0,75
565,362	0,75
565,809	0,75
566,257	0,74
566,705	0,74
567,153	0,74
567,601	0,73
568,048	0,73
568,496	0,73
568,944	0,72
569,392	0,72
569,839	0,72
570,287	0,71
570,734	0,71
571,182	0,71
571,63	0,7
572,077	0,7
572,525	0,7
572,972	0,69
573,419	0,69
573,867	0,69
574,314	0,68
574,761	0,68
575,209	0,68
575,656	0,67
576,103	0,67
576,551	0,67
576,998	0,67
577,445	0,66
577,892	0,66
578,339	0,66
578,786	0,66
579,233	0,65
579,68	0,65
580,127	0,65
580,574	0,64
581,021	0,64
581,468	0,64
581,915	0,64
582,362	0,63
582,809	0,63
583,255	0,63
583,702	0,63
584,149	0,63
584,596	0,63
585,042	0,62
585,489	0,62
585,936	0,62
586,382	0,62
586,829	0,61
587,275	0,61
587,722	0,61
588,168	0,61
588,615	0,61
589,061	0,6
589,508	0,6
589,954	0,6
590,4	0,6
590,847	0,6
591,293	0,6
591,739	0,59
592,185	0,59
592,632	0,59
593,078	0,59
593,524	0,59
593,97	0,59
594,416	0,59
594,862	0,59
595,308	0,58
595,754	0,58
596,2	0,58
596,646	0,58
597,092	0,58
597,538	0,58
597,984	0,58
598,43	0,57
598,876	0,57
599,321	0,57
599,767	0,57
600,213	0,57
600,659	0,57
601,104	0,57
601,55	0,57
601,995	0,56
602,441	0,56
602,887	0,56
603,332	0,56
603,778	0,56
604,223	0,56
604,668	0,56
605,114	0,56
605,559	0,56
606,005	0,56
606,45	0,55
606,895	0,55
607,341	0,55
607,786	0,55
608,231	0,55
608,676	0,54
609,121	0,54
609,566	0,53
610,012	0,53
610,457	0,53
610,902	0,52
611,347	0,52
611,792	0,52
612,237	0,52
612,682	0,51
613,127	0,51
613,571	0,52
614,016	0,52
614,461	0,52
614,906	0,52
615,351	0,52
615,795	0,53
616,24	0,53
616,685	0,53
617,129	0,53
617,574	0,53
618,019	0,53
618,463	0,53
618,908	0,53
619,352	0,53
619,797	0,53
620,241	0,52
620,686	0,52
621,13	0,52
621,574	0,52
622,019	0,52
622,463	0,52
622,907	0,52
623,352	0,52
623,796	0,52
624,24	0,52
624,684	0,51
625,128	0,51
625,572	0,51
626,016	0,51
626,461	0,51
626,905	0,51
627,349	0,51
627,793	0,51
628,236	0,51
628,68	0,51
629,124	0,51
629,568	0,51
630,012	0,51
630,456	0,51
630,9	0,51
631,343	0,51
631,787	0,51
632,231	0,51
632,674	0,51
633,118	0,51
633,562	0,51
634,005	0,51
634,449	0,51
634,892	0,51
635,336	0,51
635,779	0,51
636,223	0,51
636,666	0,51
637,109	0,51
637,553	0,51
637,996	0,51
638,439	0,51
638,883	0,51
639,326	0,51
639,769	0,51
640,212	0,5
640,655	0,5
641,099	0,5
641,542	0,5
641,985	0,5
642,428	0,5
642,871	0,5
643,314	0,5
643,757	0,5
644,2	0,5
644,643	0,5
645,085	0,5
645,528	0,5
645,971	0,5
646,414	0,5
646,857	0,5
647,299	0,49
647,742	0,49
648,185	0,49
648,627	0,49
649,07	0,49
649,513	0,49
649,955	0,49
650,398	0,49
650,84	0,49
651,283	0,49
651,725	0,5
652,168	0,5
652,61	0,5
653,052	0,5
653,495	0,5
653,937	0,41
654,379	0,35
654,821	0,36
655,264	0,36
655,706	0,36
656,148	0,36
656,59	0,36
657,032	0,36
657,474	0,36
657,916	0,36
658,358	0,35
658,8	0,41
659,242	0,49
659,684	0,49
660,126	0,49
660,568	0,49
661,01	0,49
661,452	0,49
661,894	0,49
662,335	0,49
662,777	0,49
663,219	0,49
663,661	0,49
664,102	0,49
664,544	0,49
664,985	0,49
665,427	0,49
665,869	0,49
666,31	0,49
666,752	0,49
667,193	0,49
667,634	0,49
668,076	0,49
668,517	0,49
668,959	0,49
669,4	0,49
669,841	0,49
670,282	0,49
670,724	0,49
671,165	0,49
671,606	0,49
672,047	0,49
672,488	0,49
672,929	0,49
673,37	0,49
673,811	0,48
674,252	0,48
674,693	0,48
675,134	0,48
675,575	0,48
676,016	0,48
676,457	0,48
676,898	0,48
677,339	0,48
677,78	0,48
678,22	0,48
678,661	0,47
679,102	0,48
679,542	0,48
679,983	0,48
680,424	0,48
680,864	0,48
681,305	0,48
681,745	0,48
682,186	0,48
682,626	0,48
683,067	0,48
683,507	0,48
683,948	0,48
684,388	0,48
684,828	0,48
685,269	0,48
685,709	0,48
686,149	0,48
686,589	0,47
687,029	0,47
687,47	0,47
687,91	0,47
688,35	0,47
688,79	0,47
689,23	0,47
689,67	0,47
690,11	0,47
690,55	0,47
690,99	0,47
691,43	0,47
691,87	0,47
692,31	0,47
692,749	0,47
693,189	0,46
693,629	0,46
694,069	0,46
694,508	0,46
694,948	0,46
695,388	0,46
695,827	0,46
696,267	0,46
696,706	0,46
697,146	0,46
697,586	0,46
698,025	0,47
698,464	0,47
698,904	0,47
699,343	0,47
699,783	0,47
700,222	0,47
700,661	0,47
701,101	0,47
701,54	0,47
701,979	0,47
702,418	0,47
702,857	0,47
703,297	0,47
703,736	0,47
704,175	0,47
704,614	0,47
705,053	0,47
705,492	0,47
705,931	0,47
706,37	0,47
706,809	0,46
707,248	0,46
707,687	0,46
708,125	0,46
708,564	0,46
709,003	0,46
709,442	0,46
709,88	0,46
710,319	0,46
710,758	0,46
711,196	0,46
711,635	0,46
712,074	0,46
712,512	0,46
712,951	0,46
713,389	0,45
713,828	0,45
714,266	0,45
714,705	0,45
715,143	0,45
715,581	0,45
716,02	0,45
716,458	0,45
716,896	0,45
717,334	0,45
717,773	0,45
718,211	0,45
718,649	0,45
719,087	0,46
719,525	0,46
719,963	0,46
720,401	0,46
720,839	0,46
721,277	0,46
721,715	0,46
722,153	0,46
722,591	0,46
723,029	0,46
723,467	0,46
723,905	0,46
724,342	0,46
724,78	0,46
725,218	0,46
725,656	0,46
726,093	0,46
726,531	0,46
726,969	0,46
727,406	0,46
727,844	0,46
728,281	0,46
728,719	0,46
729,156	0,45
729,594	0,45
730,031	0,45
730,469	0,45
730,906	0,45
731,343	0,45
731,781	0,45
732,218	0,45
732,655	0,45
733,092	0,45
733,53	0,45
733,967	0,44
734,404	0,44
734,841	0,44
735,278	0,44
735,715	0,44
736,152	0,44
736,589	0,44
737,026	0,44
737,463	0,44
737,9	0,44
738,337	0,44
738,774	0,44
739,211	0,44
739,647	0,44
740,084	0,44
740,521	0,44
740,958	0,44
741,394	0,44
741,831	0,44
742,268	0,44
742,704	0,44
743,141	0,44
743,577	0,44
744,014	0,44
744,45	0,44
744,887	0,44
745,323	0,43
745,76	0,43
746,196	0,43
746,632	0,43
747,069	0,43
747,505	0,43
747,941	0,43
748,378	0,43
748,814	0,43
749,25	0,43
749,686	0,43
750,122	0,43
750,558	0,43
750,994	0,43
751,43	0,44
751,866	0,44
752,302	0,44
752,738	0,44
753,174	0,44
753,61	0,44
754,046	0,44
754,482	0,44
754,918	0,44
755,354	0,44
755,789	0,44
756,225	0,44
756,661	0,43
757,096	0,43
757,532	0,43
757,968	0,43
758,403	0,43
758,839	0,42
759,274	0,42
759,71	0,42
760,145	0,41
760,581	0,41
761,016	0,4
761,452	0,4
761,887	0,39
762,322	0,39
762,758	0,38
763,193	0,38
763,628	0,37
764,063	0,36
764,499	0,36
764,934	0,35
765,369	0,34
765,804	0,34
766,239	0,33
766,674	0,32
767,109	0,31
767,544	0,31
767,979	0,3
768,414	0,29
768,849	0,28
769,284	0,27
769,719	0,26
770,154	0,25
770,588	0,24
771,023	0,23
771,458	0,22
771,893	0,21
772,327	0,2
772,762	0,19
773,197	0,18
773,631	0,17
774,066	0,16
774,5	0,15
774,935	0,14
775,369	0,13
775,804	0,12
776,238	0,11
776,673	0,1
777,107	0,1
777,541	0,09
777,976	0,08
778,41	0,07
778,844	0,06
779,279	0,05
779,713	0,04
780,147	0,04
780,581	0,03
781,015	0,01
781,449	0
781,883	-0
782,317	-0,02
782,751	-0,02
783,185	-0,03
783,619	-0,04
784,053	-0,05
784,487	-0,06
784,921	-0,06
785,355	-0,07
785,789	-0,08
786,223	-0,09
786,656	-0,1
787,09	-0,11
787,524	-0,12
787,957	-0,14
788,391	-0,15
788,825	-0,17
789,258	-0,18
789,692	-0,2
790,125	-0,21
790,559	-0,23
790,992	-0,25
791,426	-0,28
791,859	-0,29
792,293	-0,33
792,726	-0,34
793,159	-0,37
793,593	-0,39
794,026	-0,41
794,459	-0,44
794,892	-0,47
795,326	-0,49
795,759	-0,53
796,192	-0,57
796,625	-0,61
797,058	-0,64
797,491	-0,68
797,924	-0,72
798,357	-0,77
798,79	-0,81
799,223	-0,85
799,656	-0,9
800,089	-0,95
800,522	-0,99
800,955	-1,04
801,387	-1,1
801,82	-1,15
802,253	-1,21
802,686	-1,29
803,118	-1,35
803,551	-1,4
803,984	-1,45
804,416	-1,48
804,849	-1,52
805,281	-1,63
805,714	-1,97
806,146	-2,43
806,579	-2,7
807,011	-2,86
807,444	-2,96
807,876	-3,05
808,308	-3,09
808,741	-3,12
809,173	-3,17
809,605	-3,19
810,037	-3,27
810,47	-3,19
810,902	-2,99
811,334	-2,85
811,766	-2,7
812,198	-2,47
812,63	-2,04
813,062	-1,81
813,494	-1,71
813,926	-1,62
814,358	-1,57
814,79	-1,49
815,222	-1,43
815,654	-1,38
816,086	-1,31
816,518	-1,26
816,949	-1,2
817,381	-1,16
817,813	-1,14
818,245	-1,1
818,676	-1,06
819,108	-1,03
819,54	-1,01
819,971	-0,99
820,403	-0,94
820,834	-0,92
821,266	-0,88
821,697	-0,86
822,129	-0,84
822,56	-0,82
822,991	-0,8
823,423	-0,77
823,854	-0,77
824,286	-0,74
824,717	-0,73
825,148	-0,71
825,579	-0,7
826,01	-0,69
826,442	-0,67
826,873	-0,65
827,304	-0,62
827,735	-0,61
828,166	-0,62
828,597	-0,61
829,028	-0,6
829,459	-0,61
829,89	-0,61
830,321	-0,56
830,752	-0,57
831,183	-0,55
831,613	-0,55
832,044	-0,54
832,475	-0,53
832,906	-0,54
833,336	-0,55
833,767	-0,55
834,198	-0,54
834,628	-0,52
835,059	-0,55
835,49	-0,56
835,92	-0,53
836,351	-0,52
836,781	-0,52
837,212	-0,54
837,642	-0,53
838,072	-0,52
838,503	-0,52
838,933	-0,5
839,364	-0,52
839,794	-0,5
840,224	-0,48
840,654	-0,53
841,085	-0,54
841,515	-0,52
841,945	-0,52
842,375	-0,48
842,805	-0,47
843,235	-0,46
843,665	-0,47
844,095	-0,46
844,525	-0,48
844,955	-0,48
845,385	-0,45
845,815	-0,44
846,245	-0,46
846,675	-0,47
847,105	-0,5
847,534	-0,5
847,964	-0,48
848,394	-0,47
848,824	-0,5
849,253	-0,5
849,683	-0,5
850,112	-0,51
850,542	-0,54
850,972	-0,54
851,401	-0,52
851,831	-0,5
852,26	-0,5
852,69	-0,54
853,119	-0,54
853,548	-0,53
853,978	-0,54
854,407	-0,52
854,836	-0,53
855,266	-0,51
855,695	-0,53
856,124	-0,54
856,553	-0,54
856,983	-0,56
857,412	-0,55
857,841	-0,56
858,27	-0,57
858,699	-0,57
859,128	-0,6
859,557	-0,6
859,986	-0,62
860,415	-0,6
860,844	-0,57
861,273	-0,57
861,702	-0,58
862,13	-0,56
862,559	-0,58
862,988	-0,55
863,417	-0,54
863,845	-0,54
864,274	-0,55
864,703	-0,54
865,131	-0,54
865,56	-0,57
865,989	-0,59
866,417	-0,56
866,846	-0,56
867,274	-0,55
867,703	-0,58
868,131	-0,59
868,559	-0,59
868,988	-0,61
869,416	-0,6
869,844	-0,61
870,273	-0,63
870,701	-0,63
871,129	-0,66
871,557	-0,68
871,986	-0,69
872,414	-0,69
872,842	-0,66
873,27	-0,64
873,698	-0,6
874,126	-0,65
874,554	-0,64
874,982	-0,63
875,41	-0,65
875,838	-0,6
876,266	-0,57
876,694	-0,58
877,122	-0,57
877,549	-0,62
877,977	-0,59
878,405	-0,62
878,833	-0,58
879,26	-0,56
879,688	-0,56
880,116	-0,55
880,543	-0,54
880,971	-0,53
881,399	-0,55
881,826	-0,56
882,254	-0,54
882,681	-0,57
883,109	-0,54
883,536	-0,55
883,963	-0,57
884,391	-0,55
884,818	-0,54
885,245	-0,58
885,673	-0,59
886,1	-0,57
886,527	-0,56
886,954	-0,53
887,381	-0,55
887,809	-0,55
888,236	-0,57
888,663	-0,58
889,09	-0,62
889,517	-0,63
889,944	-0,62
890,371	-0,61
890,798	-0,61
891,225	-0,61
891,652	-0,65
892,078	-0,62
892,505	-0,65
892,932	-0,6
893,359	-0,6
893,786	-0,6
894,212	-0,58
894,639	-0,59
895,066	-0,62
895,492	-0,56
895,919	-0,57
896,346	-0,56
896,772	-0,57
897,199	-0,54
897,625	-0,58
898,052	-0,54
898,478	-0,53
898,904	-0,54
899,331	-0,53
899,757	-0,54
900,183	-0,56
900,61	-0,54
901,036	-0,54
901,462	-0,54
901,888	-0,53
902,315	-0,52
902,741	-0,57
903,167	-0,55
903,593	-0,59
904,019	-0,57
904,445	-0,54
904,871	-0,57
905,297	-0,59
905,723	-0,59
906,149	-0,58
906,575	-0,59
907,001	-0,59
907,427	-0,56
907,852	-0,56
908,278	-0,56
908,704	-0,54
909,13	-0,53
909,555	-0,53
909,981	-0,52
910,407	-0,52
910,832	-0,52
911,258	-0,53
911,684	-0,53
912,109	-0,53
912,535	-0,55
912,96	-0,5
913,386	-0,54
913,811	-0,54
914,236	-0,56
914,662	-0,54
915,087	-0,57
915,512	-0,57
915,938	-0,58
916,363	-0,57
916,788	-0,59
917,213	-0,58
917,639	-0,64
918,064	-0,61
918,489	-0,62
918,914	-0,61
919,339	-0,63
919,764	-0,59
920,189	-0,59
920,614	-0,62
921,039	-0,62
921,464	-0,58
921,889	-0,6
922,314	-0,6
922,738	-0,63
923,163	-0,64
923,588	-0,64
924,013	-0,64
924,437	-0,64
924,862	-0,65
925,287	-0,6
925,711	-0,61
926,136	-0,62
926,561	-0,6
926,985	-0,59
927,41	-0,55
927,834	-0,54
928,259	-0,5
928,683	-0,49
929,108	-0,46
929,532	-0,47
929,956	-0,46
930,381	-0,45
930,805	-0,45
931,229	-0,44
931,653	-0,43
932,078	-0,43
932,502	-0,44
932,926	-0,45
933,35	-0,45
933,774	-0,44
934,198	-0,43
934,622	-0,42
935,046	-0,43
935,47	-0,43
935,894	-0,42
936,318	-0,43
936,742	-0,42
937,166	-0,43
937,59	-0,43
938,014	-0,46
938,437	-0,47
938,861	-0,49
939,285	-0,5
939,709	-0,5
940,132	-0,5
940,556	-0,51
940,98	-0,5
941,403	-0,49
941,827	-0,49
942,25	-0,51
942,674	-0,49
943,097	-0,48
943,521	-0,48
943,944	-0,48
944,368	-0,47
944,791	-0,46
945,214	-0,47
945,638	-0,48
946,061	-0,51
946,484	-0,52
946,907	-0,5
947,331	-0,51
947,754	-0,55
948,177	-0,52
948,6	-0,52
949,023	-0,52
949,446	-0,53
949,869	-0,5
950,292	-0,51
950,715	-0,47
951,138	-0,45
951,561	-0,43
951,984	-0,43
952,407	-0,41
952,83	-0,4
953,252	-0,35
953,675	-0,35
954,098	-0,36
954,521	-0,35
954,943	-0,34
955,366	-0,35
955,789	-0,34
956,211	-0,35
956,634	-0,35
957,056	-0,33
957,479	-0,34
957,902	-0,37
958,324	-0,37
958,746	-0,35
959,169	-0,37
959,591	-0,37
960,014	-0,38
960,436	-0,37
960,858	-0,37
961,281	-0,37
961,703	-0,39
962,125	-0,39
962,547	-0,37
962,969	-0,37
963,391	-0,38
963,814	-0,39
964,236	-0,37
964,658	-0,34
965,08	-0,35
965,502	-0,35
965,924	-0,32
966,346	-0,31
966,768	-0,3
967,189	-0,33
967,611	-0,32
968,033	-0,32
968,455	-0,29
968,877	-0,31
969,298	-0,32
969,72	-0,33
970,142	-0,32
970,563	-0,33
970,985	-0,31
971,407	-0,3
971,828	-0,28
972,25	-0,28
972,671	-0,26
973,093	-0,27
973,514	-0,25
973,936	-0,23
974,357	-0,22
974,778	-0,22
975,2	-0,22
975,621	-0,21
976,042	-0,19
976,464	-0,18
976,885	-0,17
977,306	-0,16
977,727	-0,15
978,148	-0,14
978,57	-0,12
978,991	-0,11
979,412	-0,09
979,833	-0,08
980,254	-0,08
980,675	-0,09
981,096	-0,08
981,517	-0,06
981,937	-0,05
982,358	-0,03
982,779	-0,02
983,2	-0,02
983,621	-0,02
984,042	-0
984,462	0,01
984,883	0,03
985,304	0,05
985,724	0,06
986,145	0,07
986,565	0,08
986,986	0,09
987,407	0,1
987,827	0,11
988,248	0,13
988,668	0,13
989,088	0,15
989,509	0,16
989,929	0,17
990,35	0,18
990,77	0,19
991,19	0,21
991,61	0,22
992,031	0,23
992,451	0,24
992,871	0,25
993,291	0,26
993,711	0,27
994,131	0,27
994,551	0,28
994,971	0,29
995,391	0,3
995,811	0,31
996,231	0,31
996,651	0,32
997,071	0,33
997,491	0,33
997,911	0,34
998,331	0,35
998,75	0,35
999,17	0,36
999,59	0,36
1000,009	0,37
1000,429	0,37
1000,849	0,38
1001,268	0,38
1001,688	0,39
1002,107	0,39
1002,527	0,4
1002,946	0,4
1003,366	0,4
1003,785	0,41
1004,205	0,41
1004,624	0,41
1005,044	0,41
1005,463	0,42
1005,882	0,42
1006,301	0,42
1006,721	0,42
1007,14	0,42
1007,559	0,42
1007,978	0,42
1008,397	0,42
1008,816	0,42
1009,235	0,43
1009,655	0,43
1010,074	0,43
1010,492	0,43
1010,911	0,42
1011,33	0,42
1011,749	0,42
1012,168	0,42
1012,587	0,42
1013,006	0,42
1013,425	0,42
1013,843	0,42
1014,262	0,42
1014,681	0,42
1015,099	0,42
1015,518	0,42
1015,937	0,42
1016,355	0,41
1016,774	0,41
1017,192	0,41
1017,611	0,41
1018,029	0,41
1018,448	0,41
1018,866	0,41
1019,285	0,41
1019,703	0,41
1020,121	0,41
1020,54	0,41
1020,958	0,41
1021,376	0,41
1021,794	0,41
1022,213	0,41
1022,631	0,41
1023,049	0,41
1023,467	0,41
1023,885	0,4
1024,303	0,4
1024,721	0,4
1025,139	0,4
1025,557	0,4
1025,975	0,4
1026,393	0,4
1026,811	0,4
1027,229	0,4
1027,647	0,4
1028,065	0,4
1028,482	0,4
1028,9	0,4
1029,318	0,4
1029,735	0,4
1030,153	0,4
1030,571	0,4
1030,988	0,4
1031,406	0,4
1031,823	0,4
1032,241	0,4
1032,659	0,4
1033,076	0,4
1033,493	0,4
1033,911	0,4
1034,328	0,4
1034,746	0,4
1035,163	0,4
1035,58	0,4
1035,997	0,4
1036,415	0,4
1036,832	0,4
1037,249	0,4
1037,666	0,4
1038,083	0,4
1038,501	0,4
1038,918	0,4
1039,335	0,4
1039,752	0,4
1040,169	0,4
1040,586	0,4
1041,003	0,4
1041,419	0,4
1041,836	0,4
1042,253	0,4
1042,67	0,4
1043,087	0,4
1043,504	0,4
1043,92	0,4
1044,337	0,4
1044,754	0,4
1045,17	0,4
1045,587	0,4
1046,004	0,4
1046,42	0,4
1046,837	0,4
1047,253	0,4
1047,67	0,4
1048,086	0,4
1048,503	0,4
1048,919	0,4
1049,335	0,4
1049,752	0,4
1050,168	0,4
1050,584	0,4
1051,001	0,4
1051,417	0,4
1051,833	0,4
1052,249	0,4
1052,665	0,4
1053,081	0,4
1053,497	0,4
1053,914	0,4
1054,33	0,41
1054,746	0,41
1055,162	0,41
1055,578	0,41
1055,993	0,41
1056,409	0,41
1056,825	0,41
1057,241	0,41
1057,657	0,41
1058,073	0,41
1058,488	0,41
1058,904	0,41
1059,32	0,41
1059,736	0,41
1060,151	0,41
1060,567	0,41
1060,982	0,41
1061,398	0,41
1061,813	0,41
1062,229	0,41
1062,644	0,41
1063,06	0,4
1063,475	0,4
1063,891	0,4
1064,306	0,4
1064,721	0,4
1065,137	0,4
1065,552	0,4
1065,967	0,4
1066,382	0,4
1066,798	0,4
1067,213	0,4
1067,628	0,4
1068,043	0,4
1068,458	0,4
1068,873	0,4
1069,288	0,4
1069,703	0,4
1070,118	0,4
1070,533	0,4
1070,948	0,4
1071,363	0,4
1071,778	0,4
1072,193	0,4
1072,607	0,4
1073,022	0,4
1073,437	0,4
1073,852	0,4
1074,266	0,4
1074,681	0,4
1075,096	0,4
1075,51	0,4
1075,925	0,4
1076,339	0,4
1076,754	0,4
1077,168	0,4
1077,583	0,4
1077,997	0,4
1078,412	0,4
1078,826	0,4
1079,24	0,4
1079,655	0,4
1080,069	0,4
1080,483	0,4
1080,897	0,4
1081,312	0,4
1081,726	0,4
1082,14	0,4
1082,554	0,39
1082,968	0,39
1083,382	0,39
1083,796	0,39
1084,21	0,39
1084,624	0,39
1085,038	0,39
1085,452	0,39
1085,866	0,39
1086,28	0,38
1086,694	0,38
1087,108	0,38
1087,521	0,38
1087,935	0,38
1088,349	0,38
1088,763	0,37
1089,176	0,37
1089,59	0,37
1090,004	0,37
1090,417	0,36
1090,831	0,36
1091,244	0,36
1091,658	0,35
1092,071	0,35
1092,485	0,35
1092,898	0,35
1093,312	0,35
1093,725	0,34
1094,138	0,34
1094,552	0,34
1094,965	0,34
1095,378	0,33
1095,791	0,33
1096,205	0,33
1096,618	0,33
1097,031	0,32
1097,444	0,32
1097,857	0,31
1098,27	0,31
1098,683	0,31
1099,096	0,31
1099,509	0,3
1099,922	0,3
1100,335	0,29
1100,748	0,29
1101,161	0,28
1101,574	0,28
1101,986	0,27
1102,399	0,27
1102,812	0,27
1103,225	0,26
1103,637	0,26
1104,05	0,25
1104,463	0,25
1104,875	0,25
1105,288	0,25
1105,7	0,24
1106,113	0,24
1106,525	0,24
1106,938	0,23
1107,35	0,22
1107,763	0,22
1108,175	0,22
1108,588	0,22
1109	0,21
1109,412	0,2
1109,824	0,2
1110,237	0,2
1110,649	0,19
1111,061	0,17
