Data from 18C-808nm-8A-cont_Absorbance__395__01824.txt Node

Date: Mon Jul 17 17:33:03 CEST 2023
User: Laser008
Spectrometer: MAYP115816
Trigger mode: 0
Integration Time (sec): 2,500000E-1
Scans to average: 10
Electric dark correction enabled: true
Nonlinearity correction enabled: true
Boxcar width: 5
XAxis mode: Wavelengths
Number of Pixels in Spectrum: 2068
>>>>>Begin Spectral Data<<<<<
198,914	-0,78
199,384	-0,51
199,855	-0,38
200,325	-0,3
200,796	-0,26
201,266	-0,21
201,737	-0,19
202,207	-0,17
202,677	-0,16
203,147	-0,14
203,618	-0,11
204,088	-0,08
204,558	-0,07
205,028	-0,06
205,498	-0,07
205,968	-0,07
206,439	-0,09
206,909	-0,09
207,379	-0,1
207,849	-0,1
208,319	-0,11
208,789	-0,12
209,258	-0,12
209,728	-0,14
210,198	-0,13
210,668	-0,13
211,138	-0,13
211,608	-0,13
212,077	-0,13
212,547	-0,12
213,017	-0,13
213,486	-0,12
213,956	-0,13
214,426	-0,14
214,895	-0,13
215,365	-0,14
215,834	-0,15
216,304	-0,15
216,773	-0,15
217,243	-0,17
217,712	-0,17
218,181	-0,17
218,651	-0,18
219,12	-0,17
219,589	-0,17
220,058	-0,16
220,528	-0,16
220,997	-0,17
221,466	-0,18
221,935	-0,18
222,404	-0,18
222,873	-0,16
223,342	-0,16
223,812	-0,16
224,281	-0,16
224,749	-0,16
225,218	-0,18
225,687	-0,18
226,156	-0,17
226,625	-0,15
227,094	-0,15
227,563	-0,16
228,031	-0,18
228,5	-0,18
228,969	-0,18
229,438	-0,18
229,906	-0,16
230,375	-0,15
230,844	-0,15
231,312	-0,15
231,781	-0,16
232,249	-0,16
232,718	-0,15
233,186	-0,13
233,655	-0,14
234,123	-0,14
234,591	-0,14
235,06	-0,15
235,528	-0,16
235,996	-0,15
236,465	-0,15
236,933	-0,14
237,401	-0,14
237,869	-0,13
238,337	-0,14
238,805	-0,13
239,274	-0,13
239,742	-0,12
240,21	-0,11
240,678	-0,1
241,146	-0,09
241,614	-0,09
242,081	-0,09
242,549	-0,08
243,017	-0,09
243,485	-0,09
243,953	-0,08
244,421	-0,08
244,888	-0,09
245,356	-0,09
245,824	-0,09
246,291	-0,1
246,759	-0,11
247,227	-0,11
247,694	-0,11
248,162	-0,1
248,629	-0,09
249,097	-0,1
249,564	-0,11
250,032	-0,11
250,499	-0,11
250,967	-0,11
251,434	-0,11
251,901	-0,12
252,369	-0,12
252,836	-0,12
253,303	-0,14
253,77	-0,15
254,237	-0,14
254,705	-0,14
255,172	-0,13
255,639	-0,14
256,106	-0,15
256,573	-0,15
257,04	-0,16
257,507	-0,16
257,974	-0,16
258,441	-0,14
258,908	-0,15
259,375	-0,17
259,841	-0,17
260,308	-0,17
260,775	-0,17
261,242	-0,17
261,709	-0,17
262,175	-0,18
262,642	-0,18
263,109	-0,18
263,575	-0,2
264,042	-0,18
264,508	-0,18
264,975	-0,19
265,441	-0,2
265,908	-0,21
266,374	-0,19
266,841	-0,2
267,307	-0,19
267,773	-0,19
268,24	-0,19
268,706	-0,19
269,172	-0,2
269,639	-0,21
270,105	-0,2
270,571	-0,2
271,037	-0,21
271,503	-0,21
271,969	-0,2
272,435	-0,21
272,902	-0,22
273,368	-0,23
273,834	-0,23
274,3	-0,22
274,765	-0,23
275,231	-0,23
275,697	-0,22
276,163	-0,22
276,629	-0,23
277,095	-0,25
277,56	-0,23
278,026	-0,24
278,492	-0,22
278,958	-0,22
279,423	-0,22
279,889	-0,21
280,354	-0,22
280,82	-0,21
281,286	-0,22
281,751	-0,22
282,217	-0,2
282,682	-0,21
283,147	-0,21
283,613	-0,21
284,078	-0,21
284,544	-0,22
285,009	-0,23
285,474	-0,22
285,939	-0,24
286,405	-0,22
286,87	-0,21
287,335	-0,21
287,8	-0,21
288,265	-0,2
288,73	-0,21
289,195	-0,24
289,66	-0,24
290,125	-0,22
290,59	-0,23
291,055	-0,22
291,52	-0,23
291,985	-0,24
292,45	-0,24
292,915	-0,23
293,38	-0,23
293,844	-0,22
294,309	-0,21
294,774	-0,19
295,239	-0,2
295,703	-0,2
296,168	-0,19
296,632	-0,18
297,097	-0,16
297,562	-0,15
298,026	-0,16
298,491	-0,17
298,955	-0,16
299,419	-0,15
299,884	-0,15
300,348	-0,14
300,813	-0,13
301,277	-0,13
301,741	-0,13
302,205	-0,14
302,67	-0,13
303,134	-0,13
303,598	-0,13
304,062	-0,12
304,526	-0,12
304,99	-0,14
305,454	-0,14
305,919	-0,14
306,383	-0,14
306,847	-0,14
307,31	-0,14
307,774	-0,15
308,238	-0,15
308,702	-0,14
309,166	-0,15
309,63	-0,14
310,094	-0,12
310,557	-0,11
311,021	-0,11
311,485	-0,11
311,948	-0,1
312,412	-0,09
312,876	-0,08
313,339	-0,09
313,803	-0,1
314,266	-0,09
314,73	-0,1
315,193	-0,1
315,657	-0,09
316,12	-0,09
316,584	-0,08
317,047	-0,09
317,51	-0,08
317,973	-0,08
318,437	-0,06
318,9	-0,06
319,363	-0,05
319,826	-0,04
320,29	-0,05
320,753	-0,05
321,216	-0,05
321,679	-0,05
322,142	-0,04
322,605	-0,05
323,068	-0,06
323,531	-0,06
323,994	-0,05
324,457	-0,05
324,92	-0,05
325,382	-0,04
325,845	-0,05
326,308	-0,04
326,771	-0,03
327,233	-0,03
327,696	-0,02
328,159	-0,01
328,622	0
329,084	0
329,547	0,01
330,009	0,02
330,472	0,03
330,934	0,04
331,397	0,05
331,859	0,06
332,322	0,06
332,784	0,07
333,246	0,08
333,709	0,08
334,171	0,09
334,633	0,08
335,096	0,08
335,558	0,08
336,02	0,09
336,482	0,09
336,944	0,08
337,406	0,1
337,868	0,1
338,331	0,1
338,793	0,1
339,255	0,11
339,717	0,12
340,178	0,12
340,64	0,13
341,102	0,12
341,564	0,14
342,026	0,15
342,488	0,15
342,949	0,17
343,411	0,2
343,873	0,23
344,335	0,26
344,796	0,3
345,258	0,35
345,719	0,4
346,181	0,45
346,643	0,49
347,104	0,53
347,566	0,57
348,027	0,59
348,488	0,62
348,95	0,64
349,411	0,66
349,873	0,69
350,334	0,71
350,795	0,73
351,256	0,74
351,718	0,75
352,179	0,76
352,64	0,76
353,101	0,76
353,562	0,77
354,023	0,77
354,484	0,77
354,945	0,78
355,406	0,78
355,867	0,78
356,328	0,79
356,789	0,8
357,25	0,8
357,711	0,8
358,172	0,8
358,633	0,8
359,093	0,8
359,554	0,8
360,015	0,81
360,476	0,81
360,936	0,81
361,397	0,81
361,858	0,81
362,318	0,81
362,779	0,81
363,239	0,81
363,7	0,81
364,16	0,81
364,621	0,81
365,081	0,81
365,541	0,81
366,002	0,81
366,462	0,81
366,922	0,81
367,383	0,81
367,843	0,81
368,303	0,81
368,763	0,81
369,223	0,81
369,684	0,81
370,144	0,81
370,604	0,81
371,064	0,81
371,524	0,81
371,984	0,81
372,444	0,81
372,904	0,81
373,363	0,81
373,823	0,81
374,283	0,81
374,743	0,8
375,203	0,8
375,663	0,8
376,122	0,8
376,582	0,8
377,042	0,8
377,501	0,8
377,961	0,8
378,42	0,8
378,88	0,8
379,34	0,8
379,799	0,8
380,259	0,8
380,718	0,8
381,177	0,8
381,637	0,8
382,096	0,8
382,555	0,8
383,015	0,8
383,474	0,8
383,933	0,8
384,393	0,8
384,852	0,8
385,311	0,8
385,77	0,8
386,229	0,8
386,688	0,8
387,147	0,8
387,606	0,8
388,065	0,8
388,524	0,8
388,983	0,8
389,442	0,79
389,901	0,79
390,36	0,79
390,819	0,79
391,277	0,79
391,736	0,79
392,195	0,79
392,654	0,79
393,112	0,79
393,571	0,79
394,03	0,79
394,488	0,79
394,947	0,79
395,405	0,79
395,864	0,79
396,322	0,79
396,781	0,79
397,239	0,79
397,698	0,79
398,156	0,79
398,614	0,79
399,073	0,79
399,531	0,79
399,989	0,79
400,447	0,79
400,905	0,79
401,364	0,79
401,822	0,79
402,28	0,78
402,738	0,78
403,196	0,78
403,654	0,78
404,112	0,78
404,57	0,78
405,028	0,78
405,486	0,78
405,944	0,78
406,402	0,78
406,859	0,78
407,317	0,78
407,775	0,78
408,233	0,78
408,691	0,78
409,148	0,78
409,606	0,78
410,064	0,78
410,521	0,78
410,979	0,78
411,436	0,78
411,894	0,78
412,351	0,78
412,809	0,78
413,266	0,78
413,724	0,78
414,181	0,78
414,638	0,78
415,096	0,78
415,553	0,78
416,01	0,78
416,467	0,78
416,925	0,78
417,382	0,78
417,839	0,78
418,296	0,78
418,753	0,78
419,21	0,78
419,667	0,78
420,124	0,78
420,581	0,78
421,038	0,78
421,495	0,78
421,952	0,78
422,409	0,78
422,866	0,78
423,322	0,78
423,779	0,78
424,236	0,78
424,693	0,78
425,149	0,78
425,606	0,78
426,063	0,78
426,519	0,78
426,976	0,78
427,433	0,78
427,889	0,77
428,346	0,77
428,802	0,77
429,258	0,77
429,715	0,77
430,171	0,77
430,628	0,77
431,084	0,77
431,54	0,77
431,997	0,77
432,453	0,77
432,909	0,77
433,365	0,77
433,821	0,77
434,277	0,77
434,734	0,77
435,19	0,77
435,646	0,77
436,102	0,77
436,558	0,77
437,014	0,77
437,47	0,77
437,925	0,77
438,381	0,77
438,837	0,77
439,293	0,77
439,749	0,77
440,205	0,77
440,66	0,77
441,116	0,77
441,572	0,77
442,027	0,77
442,483	0,77
442,939	0,77
443,394	0,77
443,85	0,78
444,305	0,78
444,761	0,78
445,216	0,78
445,672	0,78
446,127	0,78
446,582	0,78
447,038	0,78
447,493	0,78
447,948	0,78
448,403	0,78
448,859	0,78
449,314	0,78
449,769	0,78
450,224	0,78
450,679	0,78
451,134	0,78
451,589	0,78
452,044	0,78
452,499	0,78
452,954	0,78
453,409	0,78
453,864	0,78
454,319	0,78
454,774	0,78
455,229	0,78
455,684	0,78
456,138	0,78
456,593	0,78
457,048	0,78
457,503	0,78
457,957	0,78
458,412	0,78
458,866	0,78
459,321	0,78
459,776	0,78
460,23	0,79
460,685	0,79
461,139	0,79
461,593	0,79
462,048	0,79
462,502	0,79
462,957	0,79
463,411	0,79
463,865	0,79
464,319	0,79
464,774	0,79
465,228	0,79
465,682	0,8
466,136	0,8
466,59	0,8
467,044	0,8
467,499	0,8
467,953	0,8
468,407	0,8
468,861	0,8
469,315	0,8
469,768	0,8
470,222	0,8
470,676	0,8
471,13	0,8
471,584	0,81
472,038	0,81
472,491	0,81
472,945	0,81
473,399	0,81
473,852	0,81
474,306	0,81
474,76	0,81
475,213	0,82
475,667	0,82
476,12	0,82
476,574	0,82
477,027	0,82
477,481	0,82
477,934	0,82
478,388	0,83
478,841	0,83
479,294	0,83
479,748	0,83
480,201	0,83
480,654	0,84
481,107	0,84
481,561	0,84
482,014	0,84
482,467	0,84
482,92	0,84
483,373	0,85
483,826	0,85
484,279	0,85
484,732	0,85
485,185	0,85
485,638	0,86
486,091	0,86
486,544	0,86
486,997	0,86
487,449	0,86
487,902	0,87
488,355	0,87
488,808	0,87
489,26	0,88
489,713	0,88
490,166	0,88
490,618	0,88
491,071	0,89
491,523	0,89
491,976	0,89
492,429	0,9
492,881	0,9
493,333	0,9
493,786	0,91
494,238	0,91
494,691	0,91
495,143	0,92
495,595	0,92
496,048	0,92
496,5	0,93
496,952	0,93
497,404	0,93
497,856	0,94
498,309	0,94
498,761	0,95
499,213	0,95
499,665	0,95
500,117	0,96
500,569	0,96
501,021	0,97
501,473	0,97
501,925	0,97
502,377	0,98
502,828	0,98
503,28	0,99
503,732	0,99
504,184	0,99
504,636	1
505,087	1
505,539	1,01
505,991	1,01
506,442	1,02
506,894	1,02
507,345	1,02
507,797	1,03
508,249	1,03
508,7	1,04
509,151	1,04
509,603	1,04
510,054	1,05
510,506	1,05
510,957	1,06
511,408	1,06
511,86	1,06
512,311	1,07
512,762	1,07
513,213	1,07
513,665	1,08
514,116	1,08
514,567	1,08
515,018	1,09
515,469	1,09
515,92	1,09
516,371	1,1
516,822	1,1
517,273	1,1
517,724	1,11
518,175	1,11
518,626	1,11
519,076	1,11
519,527	1,12
519,978	1,12
520,429	1,12
520,88	1,12
521,33	1,13
521,781	1,13
522,232	1,13
522,682	1,13
523,133	1,13
523,583	1,14
524,034	1,14
524,484	1,14
524,935	1,14
525,385	1,14
525,836	1,14
526,286	1,14
526,736	1,14
527,187	1,14
527,637	1,14
528,087	1,14
528,538	1,14
528,988	1,14
529,438	1,13
529,888	1,13
530,338	1,13
530,788	1,13
531,238	1,13
531,688	1,13
532,139	1,13
532,589	1,13
533,038	1,12
533,488	1,12
533,938	1,12
534,388	1,12
534,838	1,12
535,288	1,11
535,738	1,11
536,187	1,11
536,637	1,1
537,087	1,1
537,537	1,09
537,986	1,09
538,436	1,08
538,885	1,08
539,335	1,07
539,785	1,07
540,234	1,06
540,684	1,06
541,133	1,05
541,582	1,05
542,032	1,04
542,481	1,04
542,931	1,03
543,38	1,03
543,829	1,02
544,278	1,02
544,728	1,01
545,177	1,01
545,626	1,01
546,075	1
546,524	1
546,973	0,99
547,422	0,99
547,871	0,98
548,32	0,98
548,769	0,98
549,218	0,97
549,667	0,97
550,116	0,97
550,565	0,96
551,014	0,96
551,463	0,95
551,911	0,95
552,36	0,94
552,809	0,94
553,258	0,93
553,706	0,93
554,155	0,92
554,603	0,92
555,052	0,91
555,501	0,91
555,949	0,9
556,398	0,9
556,846	0,89
557,294	0,89
557,743	0,88
558,191	0,88
558,64	0,87
559,088	0,87
559,536	0,86
559,985	0,86
560,433	0,85
560,881	0,85
561,329	0,84
561,777	0,84
562,225	0,83
562,674	0,83
563,122	0,82
563,57	0,82
564,018	0,82
564,466	0,81
564,914	0,81
565,362	0,8
565,809	0,8
566,257	0,79
566,705	0,79
567,153	0,79
567,601	0,78
568,048	0,78
568,496	0,77
568,944	0,77
569,392	0,77
569,839	0,76
570,287	0,76
570,734	0,75
571,182	0,75
571,63	0,75
572,077	0,74
572,525	0,74
572,972	0,73
573,419	0,73
573,867	0,73
574,314	0,72
574,761	0,72
575,209	0,72
575,656	0,71
576,103	0,71
576,551	0,71
576,998	0,7
577,445	0,7
577,892	0,7
578,339	0,69
578,786	0,69
579,233	0,69
579,68	0,68
580,127	0,68
580,574	0,68
581,021	0,67
581,468	0,67
581,915	0,67
582,362	0,67
582,809	0,66
583,255	0,66
583,702	0,66
584,149	0,66
584,596	0,66
585,042	0,65
585,489	0,65
585,936	0,65
586,382	0,64
586,829	0,64
587,275	0,64
587,722	0,64
588,168	0,63
588,615	0,63
589,061	0,63
589,508	0,63
589,954	0,63
590,4	0,62
590,847	0,62
591,293	0,62
591,739	0,62
592,185	0,61
592,632	0,61
593,078	0,61
593,524	0,61
593,97	0,61
594,416	0,61
594,862	0,61
595,308	0,6
595,754	0,6
596,2	0,6
596,646	0,6
597,092	0,6
597,538	0,59
597,984	0,59
598,43	0,59
598,876	0,59
599,321	0,59
599,767	0,59
600,213	0,59
600,659	0,59
601,104	0,58
601,55	0,58
601,995	0,58
602,441	0,58
602,887	0,58
603,332	0,58
603,778	0,57
604,223	0,57
604,668	0,57
605,114	0,57
605,559	0,57
606,005	0,57
606,45	0,57
606,895	0,57
607,341	0,57
607,786	0,56
608,231	0,56
608,676	0,56
609,121	0,55
609,566	0,55
610,012	0,54
610,457	0,54
610,902	0,53
611,347	0,53
611,792	0,53
612,237	0,53
612,682	0,53
613,127	0,53
613,571	0,53
614,016	0,53
614,461	0,53
614,906	0,53
615,351	0,54
615,795	0,54
616,24	0,54
616,685	0,54
617,129	0,54
617,574	0,54
618,019	0,54
618,463	0,54
618,908	0,54
619,352	0,53
619,797	0,53
620,241	0,53
620,686	0,53
621,13	0,53
621,574	0,53
622,019	0,53
622,463	0,53
622,907	0,53
623,352	0,52
623,796	0,52
624,24	0,52
624,684	0,52
625,128	0,52
625,572	0,52
626,016	0,52
626,461	0,52
626,905	0,52
627,349	0,52
627,793	0,52
628,236	0,52
628,68	0,52
629,124	0,52
629,568	0,52
630,012	0,52
630,456	0,52
630,9	0,52
631,343	0,52
631,787	0,52
632,231	0,52
632,674	0,52
633,118	0,52
633,562	0,52
634,005	0,52
634,449	0,52
634,892	0,52
635,336	0,52
635,779	0,51
636,223	0,51
636,666	0,51
637,109	0,51
637,553	0,51
637,996	0,51
638,439	0,51
638,883	0,51
639,326	0,51
639,769	0,51
640,212	0,51
640,655	0,51
641,099	0,51
641,542	0,51
641,985	0,51
642,428	0,5
642,871	0,5
643,314	0,5
643,757	0,5
644,2	0,5
644,643	0,5
645,085	0,5
645,528	0,5
645,971	0,5
646,414	0,5
646,857	0,5
647,299	0,5
647,742	0,5
648,185	0,5
648,627	0,5
649,07	0,5
649,513	0,5
649,955	0,5
650,398	0,5
650,84	0,5
651,283	0,5
651,725	0,5
652,168	0,5
652,61	0,5
653,052	0,5
653,495	0,5
653,937	0,41
654,379	0,35
654,821	0,36
655,264	0,36
655,706	0,36
656,148	0,36
656,59	0,36
657,032	0,36
657,474	0,36
657,916	0,36
658,358	0,35
658,8	0,41
659,242	0,5
659,684	0,5
660,126	0,49
660,568	0,49
661,01	0,49
661,452	0,49
661,894	0,49
662,335	0,49
662,777	0,49
663,219	0,49
663,661	0,49
664,102	0,49
664,544	0,49
664,985	0,49
665,427	0,49
665,869	0,49
666,31	0,49
666,752	0,49
667,193	0,49
667,634	0,49
668,076	0,49
668,517	0,49
668,959	0,49
669,4	0,49
669,841	0,49
670,282	0,49
670,724	0,49
671,165	0,49
671,606	0,49
672,047	0,49
672,488	0,49
672,929	0,49
673,37	0,49
673,811	0,49
674,252	0,48
674,693	0,48
675,134	0,48
675,575	0,48
676,016	0,48
676,457	0,48
676,898	0,48
677,339	0,48
677,78	0,48
678,22	0,47
678,661	0,47
679,102	0,47
679,542	0,48
679,983	0,48
680,424	0,48
680,864	0,48
681,305	0,48
681,745	0,48
682,186	0,48
682,626	0,48
683,067	0,48
683,507	0,48
683,948	0,48
684,388	0,48
684,828	0,48
685,269	0,48
685,709	0,48
686,149	0,48
686,589	0,48
687,029	0,47
687,47	0,47
687,91	0,47
688,35	0,47
688,79	0,47
689,23	0,47
689,67	0,47
690,11	0,47
690,55	0,47
690,99	0,47
691,43	0,47
691,87	0,47
692,31	0,47
692,749	0,46
693,189	0,46
693,629	0,46
694,069	0,46
694,508	0,46
694,948	0,46
695,388	0,46
695,827	0,46
696,267	0,46
696,706	0,46
697,146	0,46
697,586	0,46
698,025	0,46
698,464	0,47
698,904	0,47
699,343	0,47
699,783	0,47
700,222	0,47
700,661	0,47
701,101	0,47
701,54	0,47
701,979	0,47
702,418	0,47
702,857	0,47
703,297	0,47
703,736	0,47
704,175	0,47
704,614	0,47
705,053	0,47
705,492	0,47
705,931	0,47
706,37	0,46
706,809	0,46
707,248	0,46
707,687	0,46
708,125	0,46
708,564	0,46
709,003	0,46
709,442	0,46
709,88	0,46
710,319	0,46
710,758	0,46
711,196	0,46
711,635	0,46
712,074	0,46
712,512	0,46
712,951	0,45
713,389	0,45
713,828	0,45
714,266	0,45
714,705	0,45
715,143	0,45
715,581	0,45
716,02	0,45
716,458	0,45
716,896	0,45
717,334	0,45
717,773	0,45
718,211	0,45
718,649	0,46
719,087	0,46
719,525	0,46
719,963	0,46
720,401	0,46
720,839	0,46
721,277	0,46
721,715	0,46
722,153	0,46
722,591	0,46
723,029	0,46
723,467	0,46
723,905	0,46
724,342	0,46
724,78	0,46
725,218	0,46
725,656	0,46
726,093	0,46
726,531	0,46
726,969	0,46
727,406	0,46
727,844	0,46
728,281	0,46
728,719	0,46
729,156	0,46
729,594	0,46
730,031	0,45
730,469	0,45
730,906	0,45
731,343	0,45
731,781	0,45
732,218	0,45
732,655	0,45
733,092	0,45
733,53	0,45
733,967	0,44
734,404	0,44
734,841	0,44
735,278	0,44
735,715	0,44
736,152	0,44
736,589	0,44
737,026	0,44
737,463	0,44
737,9	0,44
738,337	0,44
738,774	0,44
739,211	0,44
739,647	0,44
740,084	0,44
740,521	0,44
740,958	0,44
741,394	0,44
741,831	0,44
742,268	0,44
742,704	0,44
743,141	0,44
743,577	0,44
744,014	0,44
744,45	0,44
744,887	0,44
745,323	0,44
745,76	0,44
746,196	0,43
746,632	0,43
747,069	0,43
747,505	0,43
747,941	0,43
748,378	0,43
748,814	0,43
749,25	0,43
749,686	0,43
750,122	0,43
750,558	0,43
750,994	0,44
751,43	0,44
751,866	0,44
752,302	0,44
752,738	0,44
753,174	0,44
753,61	0,44
754,046	0,44
754,482	0,44
754,918	0,44
755,354	0,44
755,789	0,44
756,225	0,44
756,661	0,44
757,096	0,44
757,532	0,44
757,968	0,43
758,403	0,43
758,839	0,43
759,274	0,43
759,71	0,42
760,145	0,42
760,581	0,41
761,016	0,4
761,452	0,4
761,887	0,4
762,322	0,39
762,758	0,39
763,193	0,38
763,628	0,37
764,063	0,37
764,499	0,36
764,934	0,35
765,369	0,35
765,804	0,34
766,239	0,33
766,674	0,32
767,109	0,31
767,544	0,31
767,979	0,3
768,414	0,29
768,849	0,28
769,284	0,27
769,719	0,26
770,154	0,25
770,588	0,24
771,023	0,23
771,458	0,22
771,893	0,21
772,327	0,2
772,762	0,19
773,197	0,18
773,631	0,16
774,066	0,16
774,5	0,14
774,935	0,13
775,369	0,12
775,804	0,11
776,238	0,1
776,673	0,09
777,107	0,08
777,541	0,07
777,976	0,06
778,41	0,06
778,844	0,05
779,279	0,05
779,713	0,03
780,147	0,02
780,581	0,02
781,015	0,01
781,449	-0
781,883	-0,01
782,317	-0,02
782,751	-0,03
783,185	-0,04
783,619	-0,05
784,053	-0,06
784,487	-0,07
784,921	-0,07
785,355	-0,07
785,789	-0,09
786,223	-0,1
786,656	-0,11
787,09	-0,12
787,524	-0,13
787,957	-0,14
788,391	-0,16
788,825	-0,17
789,258	-0,19
789,692	-0,2
790,125	-0,22
790,559	-0,23
790,992	-0,25
791,426	-0,28
791,859	-0,29
792,293	-0,32
792,726	-0,33
793,159	-0,35
793,593	-0,37
794,026	-0,39
794,459	-0,42
794,892	-0,45
795,326	-0,48
795,759	-0,52
796,192	-0,56
796,625	-0,61
797,058	-0,63
797,491	-0,67
797,924	-0,71
798,357	-0,76
798,79	-0,8
799,223	-0,85
799,656	-0,9
800,089	-0,95
800,522	-0,99
800,955	-1,03
801,387	-1,09
801,82	-1,14
802,253	-1,21
802,686	-1,29
803,118	-1,34
803,551	-1,39
803,984	-1,44
804,416	-1,47
804,849	-1,51
805,281	-1,63
805,714	-2
806,146	-2,45
806,579	-2,71
807,011	-2,87
807,444	-2,97
807,876	-3,05
808,308	-3,08
808,741	-3,11
809,173	-3,16
809,605	-3,19
810,037	-3,26
810,47	-3,18
810,902	-2,98
811,334	-2,83
811,766	-2,67
812,198	-2,42
812,63	-2
813,062	-1,78
813,494	-1,68
813,926	-1,59
814,358	-1,54
814,79	-1,46
815,222	-1,4
815,654	-1,36
816,086	-1,29
816,518	-1,24
816,949	-1,18
817,381	-1,14
817,813	-1,12
818,245	-1,08
818,676	-1,04
819,108	-1,01
819,54	-1
819,971	-0,97
820,403	-0,92
820,834	-0,91
821,266	-0,87
821,697	-0,85
822,129	-0,83
822,56	-0,81
822,991	-0,79
823,423	-0,76
823,854	-0,75
824,286	-0,72
824,717	-0,71
825,148	-0,7
825,579	-0,68
826,01	-0,67
826,442	-0,66
826,873	-0,64
827,304	-0,6
827,735	-0,59
828,166	-0,59
828,597	-0,59
829,028	-0,59
829,459	-0,59
829,89	-0,59
830,321	-0,54
830,752	-0,55
831,183	-0,54
831,613	-0,54
832,044	-0,54
832,475	-0,53
832,906	-0,54
833,336	-0,55
833,767	-0,56
834,198	-0,55
834,628	-0,53
835,059	-0,56
835,49	-0,57
835,92	-0,55
836,351	-0,55
836,781	-0,55
837,212	-0,57
837,642	-0,57
838,072	-0,55
838,503	-0,55
838,933	-0,54
839,364	-0,55
839,794	-0,52
840,224	-0,51
840,654	-0,55
841,085	-0,55
841,515	-0,53
841,945	-0,53
842,375	-0,49
842,805	-0,48
843,235	-0,47
843,665	-0,48
844,095	-0,46
844,525	-0,49
844,955	-0,49
845,385	-0,47
845,815	-0,46
846,245	-0,47
846,675	-0,48
847,105	-0,5
847,534	-0,5
847,964	-0,49
848,394	-0,47
848,824	-0,51
849,253	-0,5
849,683	-0,5
850,112	-0,52
850,542	-0,55
850,972	-0,55
851,401	-0,53
851,831	-0,51
852,26	-0,51
852,69	-0,55
853,119	-0,54
853,548	-0,54
853,978	-0,54
854,407	-0,53
854,836	-0,53
855,266	-0,51
855,695	-0,52
856,124	-0,53
856,553	-0,54
856,983	-0,56
857,412	-0,55
857,841	-0,56
858,27	-0,56
858,699	-0,57
859,128	-0,6
859,557	-0,61
859,986	-0,63
860,415	-0,62
860,844	-0,6
861,273	-0,59
861,702	-0,6
862,13	-0,58
862,559	-0,59
862,988	-0,57
863,417	-0,56
863,845	-0,55
864,274	-0,55
864,703	-0,55
865,131	-0,55
865,56	-0,56
865,989	-0,59
866,417	-0,56
866,846	-0,56
867,274	-0,56
867,703	-0,58
868,131	-0,59
868,559	-0,59
868,988	-0,61
869,416	-0,6
869,844	-0,62
870,273	-0,65
870,701	-0,63
871,129	-0,66
871,557	-0,69
871,986	-0,69
872,414	-0,7
872,842	-0,67
873,27	-0,66
873,698	-0,63
874,126	-0,66
874,554	-0,64
874,982	-0,64
875,41	-0,66
875,838	-0,61
876,266	-0,59
876,694	-0,6
877,122	-0,59
877,549	-0,64
877,977	-0,61
878,405	-0,64
878,833	-0,6
879,26	-0,58
879,688	-0,58
880,116	-0,56
880,543	-0,55
880,971	-0,53
881,399	-0,56
881,826	-0,57
882,254	-0,56
882,681	-0,6
883,109	-0,56
883,536	-0,58
883,963	-0,6
884,391	-0,58
884,818	-0,56
885,245	-0,6
885,673	-0,62
886,1	-0,59
886,527	-0,58
886,954	-0,55
887,381	-0,57
887,809	-0,58
888,236	-0,59
888,663	-0,6
889,09	-0,64
889,517	-0,65
889,944	-0,64
890,371	-0,63
890,798	-0,64
891,225	-0,63
891,652	-0,66
892,078	-0,62
892,505	-0,65
892,932	-0,6
893,359	-0,61
893,786	-0,61
894,212	-0,58
894,639	-0,6
895,066	-0,62
895,492	-0,56
895,919	-0,56
896,346	-0,57
896,772	-0,57
897,199	-0,54
897,625	-0,56
898,052	-0,54
898,478	-0,52
898,904	-0,53
899,331	-0,53
899,757	-0,54
900,183	-0,57
900,61	-0,55
901,036	-0,56
901,462	-0,55
901,888	-0,55
902,315	-0,54
902,741	-0,59
903,167	-0,58
903,593	-0,61
904,019	-0,59
904,445	-0,56
904,871	-0,59
905,297	-0,62
905,723	-0,61
906,149	-0,59
906,575	-0,59
907,001	-0,59
907,427	-0,56
907,852	-0,54
908,278	-0,55
908,704	-0,54
909,13	-0,53
909,555	-0,52
909,981	-0,51
910,407	-0,51
910,832	-0,51
911,258	-0,53
911,684	-0,53
912,109	-0,53
912,535	-0,55
912,96	-0,51
913,386	-0,55
913,811	-0,54
914,236	-0,56
914,662	-0,55
915,087	-0,58
915,512	-0,59
915,938	-0,6
916,363	-0,59
916,788	-0,62
917,213	-0,6
917,639	-0,65
918,064	-0,62
918,489	-0,62
918,914	-0,63
919,339	-0,63
919,764	-0,6
920,189	-0,6
920,614	-0,61
921,039	-0,62
921,464	-0,57
921,889	-0,59
922,314	-0,61
922,738	-0,64
923,163	-0,66
923,588	-0,66
924,013	-0,65
924,437	-0,65
924,862	-0,66
925,287	-0,62
925,711	-0,62
926,136	-0,64
926,561	-0,62
926,985	-0,61
927,41	-0,57
927,834	-0,55
928,259	-0,52
928,683	-0,51
929,108	-0,49
929,532	-0,5
929,956	-0,5
930,381	-0,49
930,805	-0,48
931,229	-0,47
931,653	-0,45
932,078	-0,45
932,502	-0,47
932,926	-0,48
933,35	-0,47
933,774	-0,47
934,198	-0,45
934,622	-0,44
935,046	-0,44
935,47	-0,44
935,894	-0,44
936,318	-0,44
936,742	-0,44
937,166	-0,45
937,59	-0,44
938,014	-0,45
938,437	-0,46
938,861	-0,48
939,285	-0,5
939,709	-0,5
940,132	-0,5
940,556	-0,51
940,98	-0,5
941,403	-0,48
941,827	-0,49
942,25	-0,5
942,674	-0,49
943,097	-0,48
943,521	-0,48
943,944	-0,49
944,368	-0,48
944,791	-0,48
945,214	-0,5
945,638	-0,5
946,061	-0,54
946,484	-0,54
946,907	-0,53
947,331	-0,53
947,754	-0,58
948,177	-0,54
948,6	-0,54
949,023	-0,53
949,446	-0,54
949,869	-0,51
950,292	-0,51
950,715	-0,48
951,138	-0,47
951,561	-0,44
951,984	-0,45
952,407	-0,43
952,83	-0,41
953,252	-0,38
953,675	-0,38
954,098	-0,38
954,521	-0,37
954,943	-0,36
955,366	-0,36
955,789	-0,34
956,211	-0,36
956,634	-0,36
957,056	-0,33
957,479	-0,34
957,902	-0,36
958,324	-0,36
958,746	-0,35
959,169	-0,36
959,591	-0,37
960,014	-0,38
960,436	-0,38
960,858	-0,38
961,281	-0,38
961,703	-0,39
962,125	-0,4
962,547	-0,38
962,969	-0,39
963,391	-0,39
963,814	-0,4
964,236	-0,39
964,658	-0,36
965,08	-0,36
965,502	-0,35
965,924	-0,33
966,346	-0,33
966,768	-0,32
967,189	-0,33
967,611	-0,33
968,033	-0,32
968,455	-0,3
968,877	-0,3
969,298	-0,32
969,72	-0,33
970,142	-0,33
970,563	-0,33
970,985	-0,32
971,407	-0,32
971,828	-0,29
972,25	-0,28
972,671	-0,26
973,093	-0,27
973,514	-0,26
973,936	-0,24
974,357	-0,23
974,778	-0,22
975,2	-0,21
975,621	-0,21
976,042	-0,19
976,464	-0,19
976,885	-0,17
977,306	-0,17
977,727	-0,16
978,148	-0,14
978,57	-0,13
978,991	-0,11
979,412	-0,1
979,833	-0,1
980,254	-0,08
980,675	-0,09
981,096	-0,07
981,517	-0,05
981,937	-0,05
982,358	-0,04
982,779	-0,03
983,2	-0,03
983,621	-0,03
984,042	-0,01
984,462	0
984,883	0,01
985,304	0,03
985,724	0,03
986,145	0,04
986,565	0,06
986,986	0,07
987,407	0,08
987,827	0,1
988,248	0,12
988,668	0,13
989,088	0,14
989,509	0,16
989,929	0,17
990,35	0,18
990,77	0,2
991,19	0,21
991,61	0,22
992,031	0,24
992,451	0,24
992,871	0,25
993,291	0,26
993,711	0,27
994,131	0,28
994,551	0,29
994,971	0,29
995,391	0,3
995,811	0,3
996,231	0,31
996,651	0,31
997,071	0,32
997,491	0,33
997,911	0,34
998,331	0,35
998,75	0,35
999,17	0,36
999,59	0,36
1000,009	0,37
1000,429	0,38
1000,849	0,38
1001,268	0,39
1001,688	0,39
1002,107	0,4
1002,527	0,4
1002,946	0,41
1003,366	0,41
1003,785	0,41
1004,205	0,42
1004,624	0,42
1005,044	0,42
1005,463	0,42
1005,882	0,42
1006,301	0,43
1006,721	0,43
1007,14	0,43
1007,559	0,43
1007,978	0,43
1008,397	0,43
1008,816	0,43
1009,235	0,43
1009,655	0,44
1010,074	0,44
1010,492	0,44
1010,911	0,44
1011,33	0,43
1011,749	0,43
1012,168	0,43
1012,587	0,43
1013,006	0,43
1013,425	0,43
1013,843	0,43
1014,262	0,43
1014,681	0,43
1015,099	0,43
1015,518	0,43
1015,937	0,43
1016,355	0,43
1016,774	0,43
1017,192	0,43
1017,611	0,43
1018,029	0,43
1018,448	0,43
1018,866	0,42
1019,285	0,42
1019,703	0,42
1020,121	0,42
1020,54	0,42
1020,958	0,42
1021,376	0,42
1021,794	0,42
1022,213	0,42
1022,631	0,42
1023,049	0,42
1023,467	0,42
1023,885	0,42
1024,303	0,41
1024,721	0,41
1025,139	0,41
1025,557	0,41
1025,975	0,41
1026,393	0,41
1026,811	0,41
1027,229	0,41
1027,647	0,41
1028,065	0,41
1028,482	0,41
1028,9	0,41
1029,318	0,41
1029,735	0,41
1030,153	0,41
1030,571	0,41
1030,988	0,41
1031,406	0,41
1031,823	0,41
1032,241	0,41
1032,659	0,41
1033,076	0,41
1033,493	0,41
1033,911	0,41
1034,328	0,41
1034,746	0,41
1035,163	0,41
1035,58	0,42
1035,997	0,42
1036,415	0,42
1036,832	0,42
1037,249	0,42
1037,666	0,42
1038,083	0,42
1038,501	0,42
1038,918	0,42
1039,335	0,42
1039,752	0,41
1040,169	0,42
1040,586	0,41
1041,003	0,41
1041,419	0,42
1041,836	0,41
1042,253	0,41
1042,67	0,41
1043,087	0,41
1043,504	0,41
1043,92	0,41
1044,337	0,41
1044,754	0,41
1045,17	0,41
1045,587	0,41
1046,004	0,41
1046,42	0,41
1046,837	0,41
1047,253	0,41
1047,67	0,41
1048,086	0,41
1048,503	0,41
1048,919	0,41
1049,335	0,41
1049,752	0,41
1050,168	0,41
1050,584	0,41
1051,001	0,41
1051,417	0,41
1051,833	0,41
1052,249	0,41
1052,665	0,41
1053,081	0,42
1053,497	0,42
1053,914	0,42
1054,33	0,42
1054,746	0,42
1055,162	0,42
1055,578	0,42
1055,993	0,42
1056,409	0,42
1056,825	0,42
1057,241	0,42
1057,657	0,42
1058,073	0,42
1058,488	0,42
1058,904	0,42
1059,32	0,42
1059,736	0,42
1060,151	0,42
1060,567	0,42
1060,982	0,42
1061,398	0,42
1061,813	0,42
1062,229	0,42
1062,644	0,42
1063,06	0,42
1063,475	0,42
1063,891	0,42
1064,306	0,41
1064,721	0,41
1065,137	0,41
1065,552	0,41
1065,967	0,41
1066,382	0,41
1066,798	0,41
1067,213	0,41
1067,628	0,41
1068,043	0,41
1068,458	0,41
1068,873	0,41
1069,288	0,41
1069,703	0,41
1070,118	0,41
1070,533	0,41
1070,948	0,41
1071,363	0,41
1071,778	0,41
1072,193	0,41
1072,607	0,41
1073,022	0,41
1073,437	0,41
1073,852	0,41
1074,266	0,41
1074,681	0,41
1075,096	0,41
1075,51	0,41
1075,925	0,41
1076,339	0,41
1076,754	0,41
1077,168	0,41
1077,583	0,41
1077,997	0,41
1078,412	0,41
1078,826	0,41
1079,24	0,41
1079,655	0,41
1080,069	0,41
1080,483	0,41
1080,897	0,41
1081,312	0,41
1081,726	0,41
1082,14	0,41
1082,554	0,41
1082,968	0,41
1083,382	0,41
1083,796	0,4
1084,21	0,4
1084,624	0,4
1085,038	0,4
1085,452	0,4
1085,866	0,4
1086,28	0,39
1086,694	0,39
1087,108	0,39
1087,521	0,39
1087,935	0,39
1088,349	0,39
1088,763	0,38
1089,176	0,38
1089,59	0,38
1090,004	0,38
1090,417	0,37
1090,831	0,37
1091,244	0,36
1091,658	0,36
1092,071	0,36
1092,485	0,35
1092,898	0,35
1093,312	0,35
1093,725	0,35
1094,138	0,34
1094,552	0,34
1094,965	0,34
1095,378	0,34
1095,791	0,33
1096,205	0,33
1096,618	0,33
1097,031	0,33
1097,444	0,33
1097,857	0,32
1098,27	0,32
1098,683	0,32
1099,096	0,31
1099,509	0,31
1099,922	0,31
1100,335	0,3
1100,748	0,29
1101,161	0,29
1101,574	0,28
1101,986	0,28
1102,399	0,28
1102,812	0,27
1103,225	0,27
1103,637	0,27
1104,05	0,26
1104,463	0,26
1104,875	0,26
1105,288	0,26
1105,7	0,25
1106,113	0,25
1106,525	0,25
1106,938	0,24
1107,35	0,23
1107,763	0,23
1108,175	0,23
1108,588	0,23
1109	0,22
1109,412	0,21
1109,824	0,22
1110,237	0,21
1110,649	0,21
1111,061	0,2
