Data from 18C-808nm-8A-cont_Absorbance__501__01930.txt Node

Date: Mon Jul 17 17:37:28 CEST 2023
User: Laser008
Spectrometer: MAYP115816
Trigger mode: 0
Integration Time (sec): 2,500000E-1
Scans to average: 10
Electric dark correction enabled: true
Nonlinearity correction enabled: true
Boxcar width: 5
XAxis mode: Wavelengths
Number of Pixels in Spectrum: 2068
>>>>>Begin Spectral Data<<<<<
198,914	-0,8
199,384	-0,55
199,855	-0,42
200,325	-0,33
200,796	-0,3
201,266	-0,25
201,737	-0,23
202,207	-0,22
202,677	-0,2
203,147	-0,18
203,618	-0,14
204,088	-0,11
204,558	-0,1
205,028	-0,09
205,498	-0,1
205,968	-0,09
206,439	-0,1
206,909	-0,08
207,379	-0,08
207,849	-0,09
208,319	-0,1
208,789	-0,11
209,258	-0,12
209,728	-0,13
210,198	-0,13
210,668	-0,12
211,138	-0,12
211,608	-0,13
212,077	-0,14
212,547	-0,13
213,017	-0,14
213,486	-0,14
213,956	-0,14
214,426	-0,15
214,895	-0,14
215,365	-0,15
215,834	-0,16
216,304	-0,18
216,773	-0,18
217,243	-0,19
217,712	-0,21
218,181	-0,2
218,651	-0,2
219,12	-0,19
219,589	-0,19
220,058	-0,18
220,528	-0,19
220,997	-0,19
221,466	-0,2
221,935	-0,2
222,404	-0,2
222,873	-0,19
223,342	-0,19
223,812	-0,19
224,281	-0,19
224,749	-0,2
225,218	-0,22
225,687	-0,22
226,156	-0,2
226,625	-0,19
227,094	-0,18
227,563	-0,18
228,031	-0,2
228,5	-0,21
228,969	-0,22
229,438	-0,21
229,906	-0,2
230,375	-0,19
230,844	-0,18
231,312	-0,18
231,781	-0,18
232,249	-0,17
232,718	-0,18
233,186	-0,16
233,655	-0,15
234,123	-0,15
234,591	-0,15
235,06	-0,15
235,528	-0,16
235,996	-0,16
236,465	-0,16
236,933	-0,16
237,401	-0,16
237,869	-0,14
238,337	-0,15
238,805	-0,14
239,274	-0,14
239,742	-0,13
240,21	-0,13
240,678	-0,12
241,146	-0,12
241,614	-0,12
242,081	-0,12
242,549	-0,12
243,017	-0,13
243,485	-0,13
243,953	-0,13
244,421	-0,13
244,888	-0,12
245,356	-0,13
245,824	-0,12
246,291	-0,12
246,759	-0,13
247,227	-0,13
247,694	-0,12
248,162	-0,12
248,629	-0,1
249,097	-0,11
249,564	-0,12
250,032	-0,13
250,499	-0,12
250,967	-0,12
251,434	-0,13
251,901	-0,13
252,369	-0,12
252,836	-0,13
253,303	-0,15
253,77	-0,16
254,237	-0,16
254,705	-0,15
255,172	-0,15
255,639	-0,16
256,106	-0,17
256,573	-0,17
257,04	-0,17
257,507	-0,18
257,974	-0,18
258,441	-0,16
258,908	-0,17
259,375	-0,18
259,841	-0,19
260,308	-0,19
260,775	-0,19
261,242	-0,18
261,709	-0,19
262,175	-0,2
262,642	-0,18
263,109	-0,18
263,575	-0,2
264,042	-0,19
264,508	-0,19
264,975	-0,2
265,441	-0,21
265,908	-0,21
266,374	-0,21
266,841	-0,2
267,307	-0,2
267,773	-0,19
268,24	-0,18
268,706	-0,19
269,172	-0,2
269,639	-0,2
270,105	-0,19
270,571	-0,2
271,037	-0,2
271,503	-0,21
271,969	-0,21
272,435	-0,22
272,902	-0,24
273,368	-0,25
273,834	-0,24
274,3	-0,24
274,765	-0,25
275,231	-0,24
275,697	-0,23
276,163	-0,23
276,629	-0,22
277,095	-0,23
277,56	-0,23
278,026	-0,23
278,492	-0,22
278,958	-0,22
279,423	-0,22
279,889	-0,21
280,354	-0,22
280,82	-0,22
281,286	-0,23
281,751	-0,23
282,217	-0,22
282,682	-0,22
283,147	-0,22
283,613	-0,23
284,078	-0,23
284,544	-0,25
285,009	-0,26
285,474	-0,25
285,939	-0,26
286,405	-0,24
286,87	-0,24
287,335	-0,24
287,8	-0,23
288,265	-0,21
288,73	-0,22
289,195	-0,24
289,66	-0,23
290,125	-0,21
290,59	-0,23
291,055	-0,22
291,52	-0,22
291,985	-0,23
292,45	-0,24
292,915	-0,23
293,38	-0,24
293,844	-0,22
294,309	-0,21
294,774	-0,2
295,239	-0,21
295,703	-0,21
296,168	-0,21
296,632	-0,21
297,097	-0,19
297,562	-0,18
298,026	-0,19
298,491	-0,2
298,955	-0,19
299,419	-0,18
299,884	-0,18
300,348	-0,17
300,813	-0,16
301,277	-0,17
301,741	-0,17
302,205	-0,17
302,67	-0,16
303,134	-0,15
303,598	-0,15
304,062	-0,14
304,526	-0,14
304,99	-0,15
305,454	-0,15
305,919	-0,15
306,383	-0,14
306,847	-0,14
307,31	-0,16
307,774	-0,17
308,238	-0,17
308,702	-0,16
309,166	-0,19
309,63	-0,19
310,094	-0,16
310,557	-0,15
311,021	-0,15
311,485	-0,15
311,948	-0,14
312,412	-0,12
312,876	-0,11
313,339	-0,11
313,803	-0,12
314,266	-0,11
314,73	-0,11
315,193	-0,12
315,657	-0,11
316,12	-0,11
316,584	-0,1
317,047	-0,11
317,51	-0,1
317,973	-0,09
318,437	-0,08
318,9	-0,07
319,363	-0,06
319,826	-0,05
320,29	-0,06
320,753	-0,06
321,216	-0,07
321,679	-0,07
322,142	-0,07
322,605	-0,08
323,068	-0,08
323,531	-0,08
323,994	-0,08
324,457	-0,08
324,92	-0,07
325,382	-0,06
325,845	-0,06
326,308	-0,05
326,771	-0,05
327,233	-0,04
327,696	-0,03
328,159	-0,03
328,622	-0,01
329,084	-0,02
329,547	-0,01
330,009	0
330,472	0,01
330,934	0,01
331,397	0,02
331,859	0,03
332,322	0,03
332,784	0,03
333,246	0,04
333,709	0,04
334,171	0,05
334,633	0,05
335,096	0,04
335,558	0,04
336,02	0,05
336,482	0,05
336,944	0,06
337,406	0,07
337,868	0,08
338,331	0,08
338,793	0,09
339,255	0,11
339,717	0,11
340,178	0,12
340,64	0,13
341,102	0,15
341,564	0,16
342,026	0,18
342,488	0,19
342,949	0,2
343,411	0,23
343,873	0,26
344,335	0,29
344,796	0,33
345,258	0,38
345,719	0,43
346,181	0,47
346,643	0,51
347,104	0,55
347,566	0,59
348,027	0,62
348,488	0,65
348,95	0,67
349,411	0,7
349,873	0,73
350,334	0,75
350,795	0,77
351,256	0,79
351,718	0,8
352,179	0,8
352,64	0,81
353,101	0,81
353,562	0,82
354,023	0,82
354,484	0,83
354,945	0,83
355,406	0,83
355,867	0,84
356,328	0,84
356,789	0,84
357,25	0,85
357,711	0,85
358,172	0,85
358,633	0,85
359,093	0,85
359,554	0,85
360,015	0,86
360,476	0,86
360,936	0,86
361,397	0,86
361,858	0,86
362,318	0,86
362,779	0,87
363,239	0,87
363,7	0,87
364,16	0,87
364,621	0,87
365,081	0,87
365,541	0,87
366,002	0,87
366,462	0,87
366,922	0,87
367,383	0,87
367,843	0,87
368,303	0,87
368,763	0,87
369,223	0,87
369,684	0,87
370,144	0,87
370,604	0,87
371,064	0,87
371,524	0,87
371,984	0,87
372,444	0,87
372,904	0,87
373,363	0,87
373,823	0,87
374,283	0,86
374,743	0,86
375,203	0,86
375,663	0,86
376,122	0,86
376,582	0,86
377,042	0,86
377,501	0,86
377,961	0,86
378,42	0,86
378,88	0,86
379,34	0,86
379,799	0,86
380,259	0,86
380,718	0,86
381,177	0,86
381,637	0,86
382,096	0,86
382,555	0,86
383,015	0,86
383,474	0,86
383,933	0,86
384,393	0,86
384,852	0,86
385,311	0,86
385,77	0,86
386,229	0,86
386,688	0,86
387,147	0,86
387,606	0,86
388,065	0,86
388,524	0,86
388,983	0,85
389,442	0,85
389,901	0,85
390,36	0,85
390,819	0,85
391,277	0,85
391,736	0,85
392,195	0,85
392,654	0,85
393,112	0,85
393,571	0,85
394,03	0,85
394,488	0,85
394,947	0,85
395,405	0,85
395,864	0,85
396,322	0,85
396,781	0,85
397,239	0,85
397,698	0,85
398,156	0,85
398,614	0,85
399,073	0,85
399,531	0,85
399,989	0,85
400,447	0,85
400,905	0,85
401,364	0,85
401,822	0,85
402,28	0,84
402,738	0,84
403,196	0,84
403,654	0,84
404,112	0,84
404,57	0,84
405,028	0,84
405,486	0,84
405,944	0,84
406,402	0,84
406,859	0,84
407,317	0,84
407,775	0,84
408,233	0,84
408,691	0,84
409,148	0,84
409,606	0,84
410,064	0,84
410,521	0,84
410,979	0,84
411,436	0,84
411,894	0,84
412,351	0,84
412,809	0,84
413,266	0,84
413,724	0,84
414,181	0,84
414,638	0,84
415,096	0,84
415,553	0,84
416,01	0,84
416,467	0,84
416,925	0,84
417,382	0,84
417,839	0,84
418,296	0,84
418,753	0,84
419,21	0,84
419,667	0,84
420,124	0,84
420,581	0,84
421,038	0,84
421,495	0,83
421,952	0,84
422,409	0,83
422,866	0,83
423,322	0,84
423,779	0,84
424,236	0,84
424,693	0,84
425,149	0,84
425,606	0,84
426,063	0,84
426,519	0,84
426,976	0,84
427,433	0,84
427,889	0,84
428,346	0,84
428,802	0,84
429,258	0,83
429,715	0,83
430,171	0,83
430,628	0,83
431,084	0,83
431,54	0,83
431,997	0,83
432,453	0,83
432,909	0,83
433,365	0,83
433,821	0,83
434,277	0,83
434,734	0,83
435,19	0,83
435,646	0,83
436,102	0,83
436,558	0,83
437,014	0,83
437,47	0,83
437,925	0,83
438,381	0,83
438,837	0,83
439,293	0,83
439,749	0,83
440,205	0,83
440,66	0,83
441,116	0,83
441,572	0,83
442,027	0,83
442,483	0,83
442,939	0,83
443,394	0,83
443,85	0,83
444,305	0,84
444,761	0,84
445,216	0,84
445,672	0,84
446,127	0,84
446,582	0,84
447,038	0,84
447,493	0,84
447,948	0,84
448,403	0,84
448,859	0,84
449,314	0,84
449,769	0,84
450,224	0,84
450,679	0,84
451,134	0,84
451,589	0,84
452,044	0,84
452,499	0,84
452,954	0,84
453,409	0,84
453,864	0,84
454,319	0,84
454,774	0,84
455,229	0,84
455,684	0,84
456,138	0,84
456,593	0,84
457,048	0,84
457,503	0,84
457,957	0,84
458,412	0,84
458,866	0,84
459,321	0,85
459,776	0,85
460,23	0,85
460,685	0,85
461,139	0,85
461,593	0,85
462,048	0,85
462,502	0,85
462,957	0,85
463,411	0,85
463,865	0,85
464,319	0,86
464,774	0,86
465,228	0,86
465,682	0,86
466,136	0,86
466,59	0,86
467,044	0,86
467,499	0,86
467,953	0,86
468,407	0,86
468,861	0,86
469,315	0,86
469,768	0,87
470,222	0,87
470,676	0,87
471,13	0,87
471,584	0,87
472,038	0,87
472,491	0,87
472,945	0,87
473,399	0,87
473,852	0,87
474,306	0,88
474,76	0,88
475,213	0,88
475,667	0,88
476,12	0,88
476,574	0,88
477,027	0,89
477,481	0,89
477,934	0,89
478,388	0,89
478,841	0,89
479,294	0,89
479,748	0,9
480,201	0,9
480,654	0,9
481,107	0,9
481,561	0,9
482,014	0,91
482,467	0,91
482,92	0,91
483,373	0,91
483,826	0,91
484,279	0,92
484,732	0,92
485,185	0,92
485,638	0,92
486,091	0,92
486,544	0,93
486,997	0,93
487,449	0,93
487,902	0,93
488,355	0,94
488,808	0,94
489,26	0,94
489,713	0,94
490,166	0,95
490,618	0,95
491,071	0,95
491,523	0,96
491,976	0,96
492,429	0,96
492,881	0,97
493,333	0,97
493,786	0,97
494,238	0,98
494,691	0,98
495,143	0,98
495,595	0,99
496,048	0,99
496,5	1
496,952	1
497,404	1
497,856	1,01
498,309	1,01
498,761	1,02
499,213	1,02
499,665	1,02
500,117	1,03
500,569	1,03
501,021	1,04
501,473	1,04
501,925	1,05
502,377	1,05
502,828	1,06
503,28	1,06
503,732	1,06
504,184	1,07
504,636	1,07
505,087	1,08
505,539	1,08
505,991	1,08
506,442	1,09
506,894	1,09
507,345	1,1
507,797	1,1
508,249	1,11
508,7	1,11
509,151	1,11
509,603	1,12
510,054	1,12
510,506	1,13
510,957	1,13
511,408	1,13
511,86	1,14
512,311	1,14
512,762	1,15
513,213	1,15
513,665	1,15
514,116	1,16
514,567	1,16
515,018	1,16
515,469	1,17
515,92	1,17
516,371	1,18
516,822	1,18
517,273	1,18
517,724	1,19
518,175	1,19
518,626	1,19
519,076	1,19
519,527	1,2
519,978	1,2
520,429	1,2
520,88	1,2
521,33	1,2
521,781	1,21
522,232	1,21
522,682	1,21
523,133	1,21
523,583	1,21
524,034	1,21
524,484	1,22
524,935	1,22
525,385	1,22
525,836	1,22
526,286	1,22
526,736	1,22
527,187	1,22
527,637	1,21
528,087	1,21
528,538	1,21
528,988	1,21
529,438	1,21
529,888	1,21
530,338	1,21
530,788	1,21
531,238	1,21
531,688	1,21
532,139	1,2
532,589	1,2
533,038	1,2
533,488	1,2
533,938	1,2
534,388	1,19
534,838	1,19
535,288	1,19
535,738	1,18
536,187	1,18
536,637	1,17
537,087	1,17
537,537	1,17
537,986	1,16
538,436	1,16
538,885	1,15
539,335	1,15
539,785	1,14
540,234	1,14
540,684	1,13
541,133	1,13
541,582	1,12
542,032	1,12
542,481	1,11
542,931	1,1
543,38	1,1
543,829	1,09
544,278	1,09
544,728	1,08
545,177	1,08
545,626	1,07
546,075	1,07
546,524	1,06
546,973	1,06
547,422	1,05
547,871	1,05
548,32	1,04
548,769	1,04
549,218	1,04
549,667	1,04
550,116	1,03
550,565	1,03
551,014	1,02
551,463	1,02
551,911	1,01
552,36	1,01
552,809	1
553,258	1
553,706	0,99
554,155	0,99
554,603	0,98
555,052	0,98
555,501	0,97
555,949	0,97
556,398	0,96
556,846	0,96
557,294	0,95
557,743	0,95
558,191	0,94
558,64	0,93
559,088	0,93
559,536	0,92
559,985	0,92
560,433	0,91
560,881	0,91
561,329	0,9
561,777	0,9
562,225	0,89
562,674	0,89
563,122	0,88
563,57	0,88
564,018	0,88
564,466	0,87
564,914	0,87
565,362	0,86
565,809	0,86
566,257	0,85
566,705	0,85
567,153	0,84
567,601	0,84
568,048	0,83
568,496	0,83
568,944	0,82
569,392	0,82
569,839	0,82
570,287	0,81
570,734	0,81
571,182	0,8
571,63	0,8
572,077	0,8
572,525	0,79
572,972	0,79
573,419	0,78
573,867	0,78
574,314	0,78
574,761	0,77
575,209	0,77
575,656	0,76
576,103	0,76
576,551	0,76
576,998	0,75
577,445	0,75
577,892	0,75
578,339	0,74
578,786	0,74
579,233	0,74
579,68	0,73
580,127	0,73
580,574	0,73
581,021	0,72
581,468	0,72
581,915	0,72
582,362	0,71
582,809	0,71
583,255	0,71
583,702	0,71
584,149	0,7
584,596	0,7
585,042	0,7
585,489	0,69
585,936	0,69
586,382	0,69
586,829	0,69
587,275	0,69
587,722	0,68
588,168	0,68
588,615	0,68
589,061	0,67
589,508	0,67
589,954	0,67
590,4	0,67
590,847	0,66
591,293	0,66
591,739	0,66
592,185	0,66
592,632	0,66
593,078	0,66
593,524	0,65
593,97	0,65
594,416	0,65
594,862	0,65
595,308	0,65
595,754	0,65
596,2	0,64
596,646	0,64
597,092	0,64
597,538	0,64
597,984	0,64
598,43	0,63
598,876	0,63
599,321	0,63
599,767	0,63
600,213	0,63
600,659	0,63
601,104	0,63
601,55	0,62
601,995	0,62
602,441	0,62
602,887	0,62
603,332	0,62
603,778	0,62
604,223	0,62
604,668	0,61
605,114	0,61
605,559	0,61
606,005	0,61
606,45	0,61
606,895	0,61
607,341	0,61
607,786	0,61
608,231	0,6
608,676	0,6
609,121	0,59
609,566	0,58
610,012	0,58
610,457	0,57
610,902	0,57
611,347	0,57
611,792	0,57
612,237	0,56
612,682	0,56
613,127	0,56
613,571	0,56
614,016	0,57
614,461	0,57
614,906	0,57
615,351	0,57
615,795	0,57
616,24	0,57
616,685	0,57
617,129	0,58
617,574	0,58
618,019	0,58
618,463	0,58
618,908	0,57
619,352	0,57
619,797	0,57
620,241	0,57
620,686	0,57
621,13	0,57
621,574	0,57
622,019	0,57
622,463	0,57
622,907	0,56
623,352	0,56
623,796	0,56
624,24	0,56
624,684	0,56
625,128	0,56
625,572	0,56
626,016	0,56
626,461	0,56
626,905	0,56
627,349	0,56
627,793	0,56
628,236	0,56
628,68	0,56
629,124	0,56
629,568	0,56
630,012	0,56
630,456	0,56
630,9	0,56
631,343	0,56
631,787	0,56
632,231	0,56
632,674	0,55
633,118	0,55
633,562	0,55
634,005	0,55
634,449	0,55
634,892	0,55
635,336	0,55
635,779	0,55
636,223	0,55
636,666	0,55
637,109	0,55
637,553	0,55
637,996	0,55
638,439	0,55
638,883	0,55
639,326	0,55
639,769	0,55
640,212	0,55
640,655	0,55
641,099	0,54
641,542	0,54
641,985	0,54
642,428	0,54
642,871	0,54
643,314	0,54
643,757	0,54
644,2	0,54
644,643	0,54
645,085	0,54
645,528	0,54
645,971	0,54
646,414	0,54
646,857	0,54
647,299	0,53
647,742	0,53
648,185	0,53
648,627	0,53
649,07	0,53
649,513	0,53
649,955	0,53
650,398	0,53
650,84	0,53
651,283	0,53
651,725	0,53
652,168	0,54
652,61	0,54
653,052	0,54
653,495	0,53
653,937	0,44
654,379	0,39
654,821	0,39
655,264	0,4
655,706	0,4
656,148	0,4
656,59	0,4
657,032	0,4
657,474	0,4
657,916	0,39
658,358	0,39
658,8	0,45
659,242	0,53
659,684	0,53
660,126	0,53
660,568	0,53
661,01	0,53
661,452	0,53
661,894	0,53
662,335	0,53
662,777	0,53
663,219	0,53
663,661	0,53
664,102	0,53
664,544	0,53
664,985	0,53
665,427	0,53
665,869	0,53
666,31	0,53
666,752	0,53
667,193	0,53
667,634	0,53
668,076	0,53
668,517	0,53
668,959	0,53
669,4	0,53
669,841	0,53
670,282	0,53
670,724	0,53
671,165	0,53
671,606	0,53
672,047	0,52
672,488	0,52
672,929	0,52
673,37	0,52
673,811	0,52
674,252	0,52
674,693	0,52
675,134	0,52
675,575	0,52
676,016	0,52
676,457	0,52
676,898	0,51
677,339	0,51
677,78	0,51
678,22	0,51
678,661	0,51
679,102	0,51
679,542	0,51
679,983	0,52
680,424	0,52
680,864	0,52
681,305	0,52
681,745	0,52
682,186	0,52
682,626	0,52
683,067	0,52
683,507	0,52
683,948	0,52
684,388	0,52
684,828	0,52
685,269	0,52
685,709	0,52
686,149	0,51
686,589	0,51
687,029	0,51
687,47	0,51
687,91	0,51
688,35	0,51
688,79	0,51
689,23	0,51
689,67	0,51
690,11	0,51
690,55	0,51
690,99	0,51
691,43	0,51
691,87	0,51
692,31	0,5
692,749	0,5
693,189	0,5
693,629	0,5
694,069	0,5
694,508	0,5
694,948	0,5
695,388	0,5
695,827	0,5
696,267	0,5
696,706	0,5
697,146	0,5
697,586	0,5
698,025	0,5
698,464	0,51
698,904	0,51
699,343	0,51
699,783	0,51
700,222	0,51
700,661	0,51
701,101	0,51
701,54	0,51
701,979	0,51
702,418	0,51
702,857	0,51
703,297	0,51
703,736	0,51
704,175	0,51
704,614	0,51
705,053	0,5
705,492	0,5
705,931	0,5
706,37	0,5
706,809	0,5
707,248	0,5
707,687	0,5
708,125	0,5
708,564	0,5
709,003	0,5
709,442	0,5
709,88	0,5
710,319	0,5
710,758	0,5
711,196	0,5
711,635	0,5
712,074	0,5
712,512	0,5
712,951	0,49
713,389	0,49
713,828	0,49
714,266	0,49
714,705	0,49
715,143	0,49
715,581	0,49
716,02	0,49
716,458	0,49
716,896	0,49
717,334	0,49
717,773	0,49
718,211	0,49
718,649	0,49
719,087	0,5
719,525	0,5
719,963	0,5
720,401	0,5
720,839	0,5
721,277	0,5
721,715	0,5
722,153	0,5
722,591	0,5
723,029	0,5
723,467	0,5
723,905	0,49
724,342	0,49
724,78	0,49
725,218	0,49
725,656	0,49
726,093	0,49
726,531	0,49
726,969	0,49
727,406	0,49
727,844	0,49
728,281	0,49
728,719	0,49
729,156	0,49
729,594	0,49
730,031	0,49
730,469	0,49
730,906	0,49
731,343	0,49
731,781	0,49
732,218	0,49
732,655	0,48
733,092	0,48
733,53	0,48
733,967	0,48
734,404	0,48
734,841	0,48
735,278	0,48
735,715	0,48
736,152	0,48
736,589	0,48
737,026	0,48
737,463	0,48
737,9	0,48
738,337	0,48
738,774	0,48
739,211	0,48
739,647	0,48
740,084	0,48
740,521	0,48
740,958	0,48
741,394	0,48
741,831	0,48
742,268	0,48
742,704	0,48
743,141	0,48
743,577	0,48
744,014	0,48
744,45	0,48
744,887	0,48
745,323	0,48
745,76	0,48
746,196	0,47
746,632	0,47
747,069	0,47
747,505	0,47
747,941	0,47
748,378	0,47
748,814	0,47
749,25	0,47
749,686	0,47
750,122	0,48
750,558	0,48
750,994	0,48
751,43	0,48
751,866	0,48
752,302	0,48
752,738	0,48
753,174	0,48
753,61	0,48
754,046	0,48
754,482	0,48
754,918	0,48
755,354	0,48
755,789	0,48
756,225	0,47
756,661	0,47
757,096	0,47
757,532	0,47
757,968	0,47
758,403	0,46
758,839	0,46
759,274	0,46
759,71	0,45
760,145	0,45
760,581	0,44
761,016	0,44
761,452	0,43
761,887	0,43
762,322	0,42
762,758	0,41
763,193	0,41
763,628	0,4
764,063	0,39
764,499	0,39
764,934	0,38
765,369	0,37
765,804	0,36
766,239	0,36
766,674	0,35
767,109	0,34
767,544	0,33
767,979	0,32
768,414	0,3
768,849	0,29
769,284	0,29
769,719	0,27
770,154	0,26
770,588	0,26
771,023	0,25
771,458	0,23
771,893	0,21
772,327	0,2
772,762	0,19
773,197	0,18
773,631	0,17
774,066	0,16
774,5	0,15
774,935	0,14
775,369	0,13
775,804	0,12
776,238	0,11
776,673	0,11
777,107	0,09
777,541	0,08
777,976	0,07
778,41	0,07
778,844	0,05
779,279	0,05
779,713	0,04
780,147	0,03
780,581	0,02
781,015	0
781,449	-0,01
781,883	-0,02
782,317	-0,03
782,751	-0,04
783,185	-0,05
783,619	-0,05
784,053	-0,07
784,487	-0,07
784,921	-0,08
785,355	-0,08
785,789	-0,09
786,223	-0,1
786,656	-0,1
787,09	-0,12
787,524	-0,12
787,957	-0,13
788,391	-0,15
788,825	-0,16
789,258	-0,18
789,692	-0,19
790,125	-0,21
790,559	-0,23
790,992	-0,25
791,426	-0,27
791,859	-0,28
792,293	-0,32
792,726	-0,34
793,159	-0,36
793,593	-0,38
794,026	-0,4
794,459	-0,44
794,892	-0,46
795,326	-0,49
795,759	-0,52
796,192	-0,56
796,625	-0,61
797,058	-0,63
797,491	-0,68
797,924	-0,71
798,357	-0,77
798,79	-0,8
799,223	-0,85
799,656	-0,9
800,089	-0,94
800,522	-0,99
800,955	-1,03
801,387	-1,09
801,82	-1,14
802,253	-1,2
802,686	-1,28
803,118	-1,33
803,551	-1,39
803,984	-1,43
804,416	-1,46
804,849	-1,49
805,281	-1,59
805,714	-1,92
806,146	-2,41
806,579	-2,69
807,011	-2,85
807,444	-2,95
807,876	-3,04
808,308	-3,07
808,741	-3,1
809,173	-3,15
809,605	-3,17
810,037	-3,25
810,47	-3,18
810,902	-2,98
811,334	-2,83
811,766	-2,67
812,198	-2,42
812,63	-1,99
813,062	-1,78
813,494	-1,68
813,926	-1,6
814,358	-1,55
814,79	-1,47
815,222	-1,41
815,654	-1,36
816,086	-1,3
816,518	-1,24
816,949	-1,19
817,381	-1,15
817,813	-1,13
818,245	-1,09
818,676	-1,05
819,108	-1,02
819,54	-1
819,971	-0,98
820,403	-0,94
820,834	-0,92
821,266	-0,88
821,697	-0,86
822,129	-0,84
822,56	-0,82
822,991	-0,8
823,423	-0,77
823,854	-0,77
824,286	-0,74
824,717	-0,72
825,148	-0,71
825,579	-0,7
826,01	-0,69
826,442	-0,68
826,873	-0,66
827,304	-0,63
827,735	-0,62
828,166	-0,62
828,597	-0,62
829,028	-0,62
829,459	-0,63
829,89	-0,62
830,321	-0,57
830,752	-0,59
831,183	-0,58
831,613	-0,57
832,044	-0,58
832,475	-0,57
832,906	-0,59
833,336	-0,59
833,767	-0,6
834,198	-0,59
834,628	-0,57
835,059	-0,6
835,49	-0,61
835,92	-0,58
836,351	-0,58
836,781	-0,58
837,212	-0,59
837,642	-0,58
838,072	-0,56
838,503	-0,57
838,933	-0,55
839,364	-0,56
839,794	-0,54
840,224	-0,53
840,654	-0,57
841,085	-0,58
841,515	-0,55
841,945	-0,55
842,375	-0,51
842,805	-0,49
843,235	-0,48
843,665	-0,49
844,095	-0,48
844,525	-0,5
844,955	-0,5
845,385	-0,48
845,815	-0,46
846,245	-0,48
846,675	-0,49
847,105	-0,51
847,534	-0,51
847,964	-0,5
848,394	-0,49
848,824	-0,52
849,253	-0,51
849,683	-0,51
850,112	-0,53
850,542	-0,56
850,972	-0,56
851,401	-0,54
851,831	-0,51
852,26	-0,53
852,69	-0,57
853,119	-0,56
853,548	-0,57
853,978	-0,57
854,407	-0,55
854,836	-0,56
855,266	-0,55
855,695	-0,57
856,124	-0,58
856,553	-0,59
856,983	-0,61
857,412	-0,59
857,841	-0,6
858,27	-0,6
858,699	-0,61
859,128	-0,64
859,557	-0,65
859,986	-0,66
860,415	-0,63
860,844	-0,61
861,273	-0,61
861,702	-0,62
862,13	-0,6
862,559	-0,62
862,988	-0,58
863,417	-0,58
863,845	-0,58
864,274	-0,58
864,703	-0,57
865,131	-0,58
865,56	-0,59
865,989	-0,62
866,417	-0,59
866,846	-0,6
867,274	-0,6
867,703	-0,62
868,131	-0,63
868,559	-0,63
868,988	-0,65
869,416	-0,65
869,844	-0,65
870,273	-0,68
870,701	-0,66
871,129	-0,69
871,557	-0,72
871,986	-0,72
872,414	-0,73
872,842	-0,69
873,27	-0,67
873,698	-0,63
874,126	-0,67
874,554	-0,65
874,982	-0,65
875,41	-0,68
875,838	-0,63
876,266	-0,6
876,694	-0,6
877,122	-0,58
877,549	-0,63
877,977	-0,61
878,405	-0,65
878,833	-0,61
879,26	-0,61
879,688	-0,6
880,116	-0,57
880,543	-0,56
880,971	-0,56
881,399	-0,58
881,826	-0,59
882,254	-0,57
882,681	-0,61
883,109	-0,56
883,536	-0,57
883,963	-0,59
884,391	-0,57
884,818	-0,56
885,245	-0,61
885,673	-0,62
886,1	-0,6
886,527	-0,6
886,954	-0,57
887,381	-0,58
887,809	-0,59
888,236	-0,61
888,663	-0,61
889,09	-0,65
889,517	-0,68
889,944	-0,67
890,371	-0,65
890,798	-0,65
891,225	-0,65
891,652	-0,68
892,078	-0,65
892,505	-0,68
892,932	-0,63
893,359	-0,64
893,786	-0,64
894,212	-0,6
894,639	-0,62
895,066	-0,64
895,492	-0,59
895,919	-0,6
896,346	-0,6
896,772	-0,61
897,199	-0,57
897,625	-0,6
898,052	-0,57
898,478	-0,56
898,904	-0,58
899,331	-0,57
899,757	-0,58
900,183	-0,59
900,61	-0,57
901,036	-0,57
901,462	-0,57
901,888	-0,57
902,315	-0,55
902,741	-0,6
903,167	-0,58
903,593	-0,6
904,019	-0,59
904,445	-0,57
904,871	-0,59
905,297	-0,61
905,723	-0,61
906,149	-0,61
906,575	-0,62
907,001	-0,62
907,427	-0,58
907,852	-0,58
908,278	-0,59
908,704	-0,58
909,13	-0,57
909,555	-0,57
909,981	-0,56
910,407	-0,56
910,832	-0,55
911,258	-0,55
911,684	-0,56
912,109	-0,56
912,535	-0,57
912,96	-0,53
913,386	-0,58
913,811	-0,57
914,236	-0,58
914,662	-0,56
915,087	-0,59
915,512	-0,6
915,938	-0,62
916,363	-0,61
916,788	-0,62
917,213	-0,61
917,639	-0,65
918,064	-0,62
918,489	-0,62
918,914	-0,63
919,339	-0,63
919,764	-0,61
920,189	-0,61
920,614	-0,63
921,039	-0,63
921,464	-0,59
921,889	-0,63
922,314	-0,64
922,738	-0,67
923,163	-0,68
923,588	-0,68
924,013	-0,68
924,437	-0,67
924,862	-0,68
925,287	-0,64
925,711	-0,65
926,136	-0,66
926,561	-0,64
926,985	-0,63
927,41	-0,6
927,834	-0,57
928,259	-0,53
928,683	-0,52
929,108	-0,48
929,532	-0,49
929,956	-0,49
930,381	-0,48
930,805	-0,48
931,229	-0,47
931,653	-0,46
932,078	-0,45
932,502	-0,47
932,926	-0,48
933,35	-0,48
933,774	-0,48
934,198	-0,47
934,622	-0,46
935,046	-0,46
935,47	-0,47
935,894	-0,47
936,318	-0,47
936,742	-0,47
937,166	-0,48
937,59	-0,47
938,014	-0,49
938,437	-0,49
938,861	-0,51
939,285	-0,53
939,709	-0,52
940,132	-0,52
940,556	-0,52
940,98	-0,52
941,403	-0,51
941,827	-0,5
942,25	-0,52
942,674	-0,51
943,097	-0,51
943,521	-0,5
943,944	-0,51
944,368	-0,5
944,791	-0,49
945,214	-0,51
945,638	-0,51
946,061	-0,54
946,484	-0,55
946,907	-0,53
947,331	-0,53
947,754	-0,57
948,177	-0,55
948,6	-0,54
949,023	-0,54
949,446	-0,54
949,869	-0,51
950,292	-0,51
950,715	-0,48
951,138	-0,47
951,561	-0,45
951,984	-0,45
952,407	-0,44
952,83	-0,42
953,252	-0,39
953,675	-0,38
954,098	-0,4
954,521	-0,38
954,943	-0,38
955,366	-0,39
955,789	-0,37
956,211	-0,39
956,634	-0,4
957,056	-0,38
957,479	-0,39
957,902	-0,41
958,324	-0,41
958,746	-0,4
959,169	-0,41
959,591	-0,41
960,014	-0,42
960,436	-0,41
960,858	-0,4
961,281	-0,4
961,703	-0,41
962,125	-0,41
962,547	-0,39
962,969	-0,4
963,391	-0,4
963,814	-0,41
964,236	-0,39
964,658	-0,36
965,08	-0,38
965,502	-0,37
965,924	-0,34
966,346	-0,34
966,768	-0,33
967,189	-0,36
967,611	-0,34
968,033	-0,34
968,455	-0,32
968,877	-0,34
969,298	-0,35
969,72	-0,36
970,142	-0,35
970,563	-0,35
970,985	-0,34
971,407	-0,33
971,828	-0,31
972,25	-0,31
972,671	-0,29
973,093	-0,29
973,514	-0,28
973,936	-0,25
974,357	-0,24
974,778	-0,23
975,2	-0,23
975,621	-0,23
976,042	-0,21
976,464	-0,19
976,885	-0,18
977,306	-0,18
977,727	-0,16
978,148	-0,15
978,57	-0,14
978,991	-0,12
979,412	-0,11
979,833	-0,09
980,254	-0,08
980,675	-0,08
981,096	-0,07
981,517	-0,06
981,937	-0,05
982,358	-0,04
982,779	-0,02
983,2	-0,02
983,621	-0,02
984,042	-0,01
984,462	-0
984,883	0,02
985,304	0,03
985,724	0,05
986,145	0,07
986,565	0,09
986,986	0,1
987,407	0,11
987,827	0,13
988,248	0,14
988,668	0,15
989,088	0,17
989,509	0,18
989,929	0,19
990,35	0,2
990,77	0,21
991,19	0,21
991,61	0,23
992,031	0,24
992,451	0,25
992,871	0,26
993,291	0,27
993,711	0,28
994,131	0,28
994,551	0,29
994,971	0,31
995,391	0,32
995,811	0,33
996,231	0,33
996,651	0,34
997,071	0,35
997,491	0,36
997,911	0,36
998,331	0,38
998,75	0,38
999,17	0,39
999,59	0,4
1000,009	0,4
1000,429	0,41
1000,849	0,42
1001,268	0,42
1001,688	0,43
1002,107	0,43
1002,527	0,44
1002,946	0,44
1003,366	0,45
1003,785	0,45
1004,205	0,45
1004,624	0,46
1005,044	0,46
1005,463	0,46
1005,882	0,46
1006,301	0,47
1006,721	0,47
1007,14	0,47
1007,559	0,47
1007,978	0,47
1008,397	0,48
1008,816	0,48
1009,235	0,48
1009,655	0,48
1010,074	0,48
1010,492	0,48
1010,911	0,47
1011,33	0,47
1011,749	0,47
1012,168	0,47
1012,587	0,47
1013,006	0,47
1013,425	0,47
1013,843	0,47
1014,262	0,47
1014,681	0,47
1015,099	0,47
1015,518	0,47
1015,937	0,47
1016,355	0,47
1016,774	0,47
1017,192	0,47
1017,611	0,47
1018,029	0,47
1018,448	0,47
1018,866	0,47
1019,285	0,46
1019,703	0,46
1020,121	0,46
1020,54	0,46
1020,958	0,46
1021,376	0,46
1021,794	0,46
1022,213	0,46
1022,631	0,46
1023,049	0,46
1023,467	0,46
1023,885	0,46
1024,303	0,46
1024,721	0,46
1025,139	0,46
1025,557	0,46
1025,975	0,45
1026,393	0,45
1026,811	0,45
1027,229	0,45
1027,647	0,45
1028,065	0,45
1028,482	0,45
1028,9	0,45
1029,318	0,45
1029,735	0,45
1030,153	0,45
1030,571	0,45
1030,988	0,45
1031,406	0,45
1031,823	0,45
1032,241	0,45
1032,659	0,45
1033,076	0,45
1033,493	0,45
1033,911	0,45
1034,328	0,45
1034,746	0,45
1035,163	0,45
1035,58	0,45
1035,997	0,45
1036,415	0,45
1036,832	0,45
1037,249	0,45
1037,666	0,45
1038,083	0,45
1038,501	0,45
1038,918	0,45
1039,335	0,45
1039,752	0,45
1040,169	0,45
1040,586	0,45
1041,003	0,45
1041,419	0,45
1041,836	0,45
1042,253	0,45
1042,67	0,45
1043,087	0,45
1043,504	0,45
1043,92	0,45
1044,337	0,45
1044,754	0,45
1045,17	0,45
1045,587	0,45
1046,004	0,45
1046,42	0,45
1046,837	0,45
1047,253	0,44
1047,67	0,45
1048,086	0,44
1048,503	0,44
1048,919	0,44
1049,335	0,44
1049,752	0,45
1050,168	0,45
1050,584	0,45
1051,001	0,45
1051,417	0,45
1051,833	0,45
1052,249	0,45
1052,665	0,45
1053,081	0,45
1053,497	0,45
1053,914	0,45
1054,33	0,46
1054,746	0,46
1055,162	0,46
1055,578	0,46
1055,993	0,46
1056,409	0,46
1056,825	0,46
1057,241	0,46
1057,657	0,46
1058,073	0,46
1058,488	0,46
1058,904	0,46
1059,32	0,46
1059,736	0,46
1060,151	0,46
1060,567	0,46
1060,982	0,46
1061,398	0,46
1061,813	0,46
1062,229	0,46
1062,644	0,46
1063,06	0,46
1063,475	0,46
1063,891	0,46
1064,306	0,46
1064,721	0,46
1065,137	0,46
1065,552	0,45
1065,967	0,45
1066,382	0,45
1066,798	0,45
1067,213	0,45
1067,628	0,45
1068,043	0,45
1068,458	0,46
1068,873	0,46
1069,288	0,46
1069,703	0,46
1070,118	0,46
1070,533	0,46
1070,948	0,46
1071,363	0,46
1071,778	0,46
1072,193	0,46
1072,607	0,46
1073,022	0,46
1073,437	0,46
1073,852	0,46
1074,266	0,46
1074,681	0,46
1075,096	0,46
1075,51	0,46
1075,925	0,46
1076,339	0,46
1076,754	0,45
1077,168	0,45
1077,583	0,45
1077,997	0,45
1078,412	0,45
1078,826	0,45
1079,24	0,45
1079,655	0,45
1080,069	0,45
1080,483	0,45
1080,897	0,44
1081,312	0,45
1081,726	0,44
1082,14	0,44
1082,554	0,44
1082,968	0,44
1083,382	0,44
1083,796	0,44
1084,21	0,44
1084,624	0,44
1085,038	0,43
1085,452	0,43
1085,866	0,43
1086,28	0,43
1086,694	0,43
1087,108	0,43
1087,521	0,42
1087,935	0,42
1088,349	0,42
1088,763	0,41
1089,176	0,41
1089,59	0,41
1090,004	0,41
1090,417	0,4
1090,831	0,4
1091,244	0,4
1091,658	0,4
1092,071	0,39
1092,485	0,39
1092,898	0,39
1093,312	0,39
1093,725	0,38
1094,138	0,38
1094,552	0,38
1094,965	0,37
1095,378	0,37
1095,791	0,37
1096,205	0,37
1096,618	0,36
1097,031	0,36
1097,444	0,35
1097,857	0,35
1098,27	0,35
1098,683	0,34
1099,096	0,34
1099,509	0,34
1099,922	0,33
1100,335	0,33
1100,748	0,32
1101,161	0,31
1101,574	0,31
1101,986	0,3
1102,399	0,3
1102,812	0,3
1103,225	0,29
1103,637	0,29
1104,05	0,29
1104,463	0,29
1104,875	0,28
1105,288	0,28
1105,7	0,27
1106,113	0,27
1106,525	0,27
1106,938	0,27
1107,35	0,25
1107,763	0,25
1108,175	0,25
1108,588	0,24
1109	0,23
1109,412	0,22
1109,824	0,23
1110,237	0,23
1110,649	0,22
1111,061	0,19
