Data from 18C-808nm-8A-cont_Absorbance__378__01807.txt Node

Date: Mon Jul 17 17:32:20 CEST 2023
User: Laser008
Spectrometer: MAYP115816
Trigger mode: 0
Integration Time (sec): 2,500000E-1
Scans to average: 10
Electric dark correction enabled: true
Nonlinearity correction enabled: true
Boxcar width: 5
XAxis mode: Wavelengths
Number of Pixels in Spectrum: 2068
>>>>>Begin Spectral Data<<<<<
198,914	-0,74
199,384	-0,52
199,855	-0,4
200,325	-0,31
200,796	-0,27
201,266	-0,22
201,737	-0,19
202,207	-0,16
202,677	-0,15
203,147	-0,14
203,618	-0,1
204,088	-0,09
204,558	-0,08
205,028	-0,08
205,498	-0,08
205,968	-0,08
206,439	-0,09
206,909	-0,09
207,379	-0,11
207,849	-0,11
208,319	-0,12
208,789	-0,12
209,258	-0,12
209,728	-0,12
210,198	-0,12
210,668	-0,12
211,138	-0,11
211,608	-0,12
212,077	-0,12
212,547	-0,11
213,017	-0,11
213,486	-0,11
213,956	-0,11
214,426	-0,12
214,895	-0,11
215,365	-0,12
215,834	-0,12
216,304	-0,13
216,773	-0,13
217,243	-0,14
217,712	-0,15
218,181	-0,15
218,651	-0,15
219,12	-0,15
219,589	-0,14
220,058	-0,14
220,528	-0,14
220,997	-0,15
221,466	-0,16
221,935	-0,16
222,404	-0,16
222,873	-0,15
223,342	-0,16
223,812	-0,17
224,281	-0,16
224,749	-0,18
225,218	-0,19
225,687	-0,19
226,156	-0,19
226,625	-0,17
227,094	-0,17
227,563	-0,17
228,031	-0,19
228,5	-0,19
228,969	-0,19
229,438	-0,18
229,906	-0,17
230,375	-0,16
230,844	-0,17
231,312	-0,16
231,781	-0,17
232,249	-0,17
232,718	-0,17
233,186	-0,14
233,655	-0,15
234,123	-0,14
234,591	-0,14
235,06	-0,15
235,528	-0,15
235,996	-0,15
236,465	-0,14
236,933	-0,13
237,401	-0,13
237,869	-0,12
238,337	-0,13
238,805	-0,11
239,274	-0,11
239,742	-0,11
240,21	-0,1
240,678	-0,09
241,146	-0,08
241,614	-0,08
242,081	-0,09
242,549	-0,09
243,017	-0,09
243,485	-0,1
243,953	-0,1
244,421	-0,09
244,888	-0,09
245,356	-0,1
245,824	-0,09
246,291	-0,09
246,759	-0,09
247,227	-0,1
247,694	-0,09
248,162	-0,08
248,629	-0,07
249,097	-0,08
249,564	-0,09
250,032	-0,1
250,499	-0,1
250,967	-0,1
251,434	-0,11
251,901	-0,11
252,369	-0,1
252,836	-0,12
253,303	-0,13
253,77	-0,13
254,237	-0,12
254,705	-0,12
255,172	-0,13
255,639	-0,13
256,106	-0,15
256,573	-0,15
257,04	-0,16
257,507	-0,16
257,974	-0,16
258,441	-0,15
258,908	-0,17
259,375	-0,19
259,841	-0,2
260,308	-0,19
260,775	-0,2
261,242	-0,18
261,709	-0,19
262,175	-0,2
262,642	-0,2
263,109	-0,19
263,575	-0,2
264,042	-0,18
264,508	-0,17
264,975	-0,19
265,441	-0,19
265,908	-0,2
266,374	-0,19
266,841	-0,2
267,307	-0,2
267,773	-0,19
268,24	-0,2
268,706	-0,19
269,172	-0,2
269,639	-0,21
270,105	-0,19
270,571	-0,2
271,037	-0,2
271,503	-0,21
271,969	-0,2
272,435	-0,2
272,902	-0,22
273,368	-0,24
273,834	-0,23
274,3	-0,23
274,765	-0,23
275,231	-0,24
275,697	-0,22
276,163	-0,22
276,629	-0,22
277,095	-0,23
277,56	-0,23
278,026	-0,24
278,492	-0,22
278,958	-0,22
279,423	-0,22
279,889	-0,21
280,354	-0,22
280,82	-0,22
281,286	-0,23
281,751	-0,23
282,217	-0,22
282,682	-0,21
283,147	-0,21
283,613	-0,21
284,078	-0,21
284,544	-0,22
285,009	-0,23
285,474	-0,22
285,939	-0,24
286,405	-0,22
286,87	-0,22
287,335	-0,22
287,8	-0,21
288,265	-0,19
288,73	-0,2
289,195	-0,22
289,66	-0,21
290,125	-0,2
290,59	-0,2
291,055	-0,18
291,52	-0,18
291,985	-0,18
292,45	-0,2
292,915	-0,2
293,38	-0,21
293,844	-0,19
294,309	-0,18
294,774	-0,17
295,239	-0,18
295,703	-0,19
296,168	-0,18
296,632	-0,18
297,097	-0,18
297,562	-0,16
298,026	-0,17
298,491	-0,16
298,955	-0,16
299,419	-0,15
299,884	-0,16
300,348	-0,15
300,813	-0,14
301,277	-0,15
301,741	-0,15
302,205	-0,14
302,67	-0,13
303,134	-0,13
303,598	-0,13
304,062	-0,13
304,526	-0,12
304,99	-0,14
305,454	-0,14
305,919	-0,14
306,383	-0,14
306,847	-0,14
307,31	-0,14
307,774	-0,15
308,238	-0,15
308,702	-0,15
309,166	-0,17
309,63	-0,16
310,094	-0,13
310,557	-0,13
311,021	-0,13
311,485	-0,13
311,948	-0,12
312,412	-0,12
312,876	-0,12
313,339	-0,12
313,803	-0,13
314,266	-0,12
314,73	-0,13
315,193	-0,13
315,657	-0,12
316,12	-0,12
316,584	-0,1
317,047	-0,09
317,51	-0,08
317,973	-0,07
318,437	-0,05
318,9	-0,04
319,363	-0,03
319,826	-0,01
320,29	-0,02
320,753	-0,02
321,216	-0,02
321,679	-0,03
322,142	-0,03
322,605	-0,05
323,068	-0,05
323,531	-0,05
323,994	-0,04
324,457	-0,04
324,92	-0,03
325,382	-0,03
325,845	-0,03
326,308	-0,02
326,771	-0,01
327,233	-0
327,696	0,01
328,159	0,01
328,622	0,02
329,084	0,01
329,547	0,02
330,009	0,02
330,472	0,03
330,934	0,03
331,397	0,03
331,859	0,04
332,322	0,04
332,784	0,04
333,246	0,05
333,709	0,04
334,171	0,05
334,633	0,06
335,096	0,06
335,558	0,06
336,02	0,06
336,482	0,07
336,944	0,08
337,406	0,09
337,868	0,1
338,331	0,1
338,793	0,11
339,255	0,12
339,717	0,12
340,178	0,13
340,64	0,13
341,102	0,15
341,564	0,15
342,026	0,16
342,488	0,17
342,949	0,18
343,411	0,21
343,873	0,24
344,335	0,27
344,796	0,31
345,258	0,36
345,719	0,41
346,181	0,46
346,643	0,5
347,104	0,54
347,566	0,57
348,027	0,6
348,488	0,62
348,95	0,64
349,411	0,66
349,873	0,69
350,334	0,71
350,795	0,72
351,256	0,73
351,718	0,74
352,179	0,75
352,64	0,75
353,101	0,76
353,562	0,76
354,023	0,76
354,484	0,77
354,945	0,77
355,406	0,77
355,867	0,78
356,328	0,78
356,789	0,79
357,25	0,79
357,711	0,79
358,172	0,79
358,633	0,79
359,093	0,79
359,554	0,79
360,015	0,8
360,476	0,8
360,936	0,8
361,397	0,8
361,858	0,8
362,318	0,8
362,779	0,8
363,239	0,8
363,7	0,8
364,16	0,8
364,621	0,8
365,081	0,8
365,541	0,8
366,002	0,8
366,462	0,8
366,922	0,8
367,383	0,8
367,843	0,8
368,303	0,8
368,763	0,8
369,223	0,8
369,684	0,8
370,144	0,8
370,604	0,8
371,064	0,8
371,524	0,8
371,984	0,8
372,444	0,8
372,904	0,8
373,363	0,8
373,823	0,8
374,283	0,8
374,743	0,8
375,203	0,8
375,663	0,8
376,122	0,8
376,582	0,8
377,042	0,8
377,501	0,8
377,961	0,8
378,42	0,8
378,88	0,8
379,34	0,79
379,799	0,79
380,259	0,79
380,718	0,79
381,177	0,79
381,637	0,79
382,096	0,79
382,555	0,79
383,015	0,79
383,474	0,79
383,933	0,79
384,393	0,79
384,852	0,79
385,311	0,79
385,77	0,79
386,229	0,79
386,688	0,79
387,147	0,79
387,606	0,79
388,065	0,79
388,524	0,79
388,983	0,79
389,442	0,79
389,901	0,78
390,36	0,78
390,819	0,78
391,277	0,78
391,736	0,78
392,195	0,78
392,654	0,78
393,112	0,78
393,571	0,78
394,03	0,78
394,488	0,78
394,947	0,78
395,405	0,78
395,864	0,78
396,322	0,78
396,781	0,78
397,239	0,78
397,698	0,78
398,156	0,78
398,614	0,78
399,073	0,78
399,531	0,78
399,989	0,78
400,447	0,78
400,905	0,78
401,364	0,78
401,822	0,78
402,28	0,78
402,738	0,77
403,196	0,77
403,654	0,77
404,112	0,77
404,57	0,77
405,028	0,77
405,486	0,77
405,944	0,77
406,402	0,77
406,859	0,77
407,317	0,77
407,775	0,77
408,233	0,77
408,691	0,77
409,148	0,77
409,606	0,77
410,064	0,77
410,521	0,77
410,979	0,77
411,436	0,77
411,894	0,77
412,351	0,77
412,809	0,77
413,266	0,77
413,724	0,77
414,181	0,77
414,638	0,77
415,096	0,77
415,553	0,77
416,01	0,77
416,467	0,77
416,925	0,77
417,382	0,77
417,839	0,77
418,296	0,77
418,753	0,77
419,21	0,77
419,667	0,77
420,124	0,77
420,581	0,77
421,038	0,77
421,495	0,77
421,952	0,77
422,409	0,77
422,866	0,77
423,322	0,77
423,779	0,77
424,236	0,77
424,693	0,77
425,149	0,77
425,606	0,77
426,063	0,77
426,519	0,77
426,976	0,77
427,433	0,77
427,889	0,77
428,346	0,77
428,802	0,77
429,258	0,76
429,715	0,76
430,171	0,76
430,628	0,76
431,084	0,76
431,54	0,76
431,997	0,76
432,453	0,76
432,909	0,76
433,365	0,76
433,821	0,76
434,277	0,76
434,734	0,76
435,19	0,76
435,646	0,76
436,102	0,76
436,558	0,76
437,014	0,76
437,47	0,76
437,925	0,76
438,381	0,76
438,837	0,76
439,293	0,76
439,749	0,76
440,205	0,76
440,66	0,76
441,116	0,76
441,572	0,76
442,027	0,76
442,483	0,76
442,939	0,76
443,394	0,77
443,85	0,77
444,305	0,77
444,761	0,77
445,216	0,77
445,672	0,77
446,127	0,77
446,582	0,77
447,038	0,77
447,493	0,77
447,948	0,77
448,403	0,77
448,859	0,77
449,314	0,77
449,769	0,77
450,224	0,77
450,679	0,77
451,134	0,77
451,589	0,77
452,044	0,77
452,499	0,77
452,954	0,77
453,409	0,77
453,864	0,77
454,319	0,77
454,774	0,77
455,229	0,77
455,684	0,77
456,138	0,77
456,593	0,77
457,048	0,77
457,503	0,77
457,957	0,77
458,412	0,77
458,866	0,77
459,321	0,77
459,776	0,77
460,23	0,78
460,685	0,78
461,139	0,78
461,593	0,78
462,048	0,78
462,502	0,78
462,957	0,78
463,411	0,78
463,865	0,78
464,319	0,78
464,774	0,78
465,228	0,78
465,682	0,79
466,136	0,79
466,59	0,79
467,044	0,79
467,499	0,79
467,953	0,79
468,407	0,79
468,861	0,79
469,315	0,79
469,768	0,79
470,222	0,79
470,676	0,79
471,13	0,79
471,584	0,8
472,038	0,8
472,491	0,8
472,945	0,8
473,399	0,8
473,852	0,8
474,306	0,8
474,76	0,8
475,213	0,8
475,667	0,81
476,12	0,81
476,574	0,81
477,027	0,81
477,481	0,81
477,934	0,81
478,388	0,82
478,841	0,82
479,294	0,82
479,748	0,82
480,201	0,82
480,654	0,83
481,107	0,83
481,561	0,83
482,014	0,83
482,467	0,83
482,92	0,83
483,373	0,84
483,826	0,84
484,279	0,84
484,732	0,84
485,185	0,84
485,638	0,84
486,091	0,85
486,544	0,85
486,997	0,85
487,449	0,85
487,902	0,86
488,355	0,86
488,808	0,86
489,26	0,86
489,713	0,87
490,166	0,87
490,618	0,87
491,071	0,88
491,523	0,88
491,976	0,88
492,429	0,89
492,881	0,89
493,333	0,89
493,786	0,89
494,238	0,9
494,691	0,9
495,143	0,91
495,595	0,91
496,048	0,91
496,5	0,92
496,952	0,92
497,404	0,92
497,856	0,93
498,309	0,93
498,761	0,93
499,213	0,94
499,665	0,94
500,117	0,95
500,569	0,95
501,021	0,95
501,473	0,96
501,925	0,96
502,377	0,97
502,828	0,97
503,28	0,97
503,732	0,98
504,184	0,98
504,636	0,99
505,087	0,99
505,539	0,99
505,991	1
506,442	1
506,894	1,01
507,345	1,01
507,797	1,01
508,249	1,02
508,7	1,02
509,151	1,03
509,603	1,03
510,054	1,04
510,506	1,04
510,957	1,04
511,408	1,05
511,86	1,05
512,311	1,05
512,762	1,06
513,213	1,06
513,665	1,06
514,116	1,07
514,567	1,07
515,018	1,08
515,469	1,08
515,92	1,08
516,371	1,08
516,822	1,09
517,273	1,09
517,724	1,09
518,175	1,1
518,626	1,1
519,076	1,1
519,527	1,1
519,978	1,11
520,429	1,11
520,88	1,11
521,33	1,11
521,781	1,12
522,232	1,12
522,682	1,12
523,133	1,12
523,583	1,12
524,034	1,13
524,484	1,13
524,935	1,13
525,385	1,13
525,836	1,13
526,286	1,13
526,736	1,13
527,187	1,13
527,637	1,12
528,087	1,12
528,538	1,12
528,988	1,12
529,438	1,12
529,888	1,12
530,338	1,12
530,788	1,12
531,238	1,12
531,688	1,12
532,139	1,11
532,589	1,11
533,038	1,11
533,488	1,11
533,938	1,11
534,388	1,1
534,838	1,1
535,288	1,1
535,738	1,1
536,187	1,09
536,637	1,09
537,087	1,08
537,537	1,08
537,986	1,08
538,436	1,07
538,885	1,07
539,335	1,06
539,785	1,06
540,234	1,05
540,684	1,05
541,133	1,04
541,582	1,04
542,032	1,03
542,481	1,03
542,931	1,02
543,38	1,02
543,829	1,01
544,278	1,01
544,728	1
545,177	1
545,626	1
546,075	0,99
546,524	0,99
546,973	0,98
547,422	0,98
547,871	0,97
548,32	0,97
548,769	0,97
549,218	0,96
549,667	0,96
550,116	0,96
550,565	0,95
551,014	0,95
551,463	0,94
551,911	0,94
552,36	0,93
552,809	0,93
553,258	0,92
553,706	0,92
554,155	0,91
554,603	0,91
555,052	0,9
555,501	0,9
555,949	0,89
556,398	0,89
556,846	0,88
557,294	0,88
557,743	0,87
558,191	0,87
558,64	0,86
559,088	0,86
559,536	0,85
559,985	0,85
560,433	0,84
560,881	0,84
561,329	0,83
561,777	0,83
562,225	0,82
562,674	0,82
563,122	0,82
563,57	0,81
564,018	0,81
564,466	0,8
564,914	0,8
565,362	0,79
565,809	0,79
566,257	0,78
566,705	0,78
567,153	0,78
567,601	0,77
568,048	0,77
568,496	0,76
568,944	0,76
569,392	0,76
569,839	0,75
570,287	0,75
570,734	0,75
571,182	0,74
571,63	0,74
572,077	0,73
572,525	0,73
572,972	0,73
573,419	0,72
573,867	0,72
574,314	0,72
574,761	0,71
575,209	0,71
575,656	0,7
576,103	0,7
576,551	0,7
576,998	0,69
577,445	0,69
577,892	0,69
578,339	0,68
578,786	0,68
579,233	0,68
579,68	0,67
580,127	0,67
580,574	0,67
581,021	0,67
581,468	0,66
581,915	0,66
582,362	0,66
582,809	0,66
583,255	0,65
583,702	0,65
584,149	0,65
584,596	0,65
585,042	0,64
585,489	0,64
585,936	0,64
586,382	0,64
586,829	0,63
587,275	0,63
587,722	0,63
588,168	0,63
588,615	0,62
589,061	0,62
589,508	0,62
589,954	0,62
590,4	0,62
590,847	0,61
591,293	0,61
591,739	0,61
592,185	0,61
592,632	0,61
593,078	0,6
593,524	0,6
593,97	0,6
594,416	0,6
594,862	0,6
595,308	0,6
595,754	0,6
596,2	0,59
596,646	0,59
597,092	0,59
597,538	0,59
597,984	0,59
598,43	0,59
598,876	0,58
599,321	0,58
599,767	0,58
600,213	0,58
600,659	0,58
601,104	0,58
601,55	0,58
601,995	0,57
602,441	0,57
602,887	0,57
603,332	0,57
603,778	0,57
604,223	0,57
604,668	0,57
605,114	0,56
605,559	0,56
606,005	0,56
606,45	0,56
606,895	0,56
607,341	0,56
607,786	0,56
608,231	0,56
608,676	0,55
609,121	0,55
609,566	0,54
610,012	0,53
610,457	0,53
610,902	0,53
611,347	0,53
611,792	0,52
612,237	0,52
612,682	0,52
613,127	0,52
613,571	0,52
614,016	0,52
614,461	0,53
614,906	0,53
615,351	0,53
615,795	0,53
616,24	0,53
616,685	0,53
617,129	0,53
617,574	0,53
618,019	0,53
618,463	0,53
618,908	0,53
619,352	0,53
619,797	0,53
620,241	0,53
620,686	0,53
621,13	0,52
621,574	0,52
622,019	0,52
622,463	0,52
622,907	0,52
623,352	0,52
623,796	0,52
624,24	0,52
624,684	0,52
625,128	0,52
625,572	0,52
626,016	0,52
626,461	0,52
626,905	0,52
627,349	0,52
627,793	0,51
628,236	0,51
628,68	0,51
629,124	0,51
629,568	0,51
630,012	0,51
630,456	0,51
630,9	0,51
631,343	0,51
631,787	0,51
632,231	0,51
632,674	0,51
633,118	0,51
633,562	0,51
634,005	0,51
634,449	0,51
634,892	0,51
635,336	0,51
635,779	0,51
636,223	0,51
636,666	0,51
637,109	0,51
637,553	0,51
637,996	0,51
638,439	0,51
638,883	0,51
639,326	0,51
639,769	0,51
640,212	0,5
640,655	0,5
641,099	0,5
641,542	0,5
641,985	0,5
642,428	0,5
642,871	0,5
643,314	0,5
643,757	0,5
644,2	0,5
644,643	0,5
645,085	0,5
645,528	0,5
645,971	0,5
646,414	0,49
646,857	0,49
647,299	0,49
647,742	0,49
648,185	0,49
648,627	0,49
649,07	0,49
649,513	0,49
649,955	0,49
650,398	0,49
650,84	0,49
651,283	0,49
651,725	0,49
652,168	0,49
652,61	0,49
653,052	0,49
653,495	0,49
653,937	0,41
654,379	0,35
654,821	0,36
655,264	0,36
655,706	0,36
656,148	0,36
656,59	0,36
657,032	0,36
657,474	0,36
657,916	0,35
658,358	0,35
658,8	0,41
659,242	0,49
659,684	0,49
660,126	0,49
660,568	0,49
661,01	0,49
661,452	0,49
661,894	0,49
662,335	0,48
662,777	0,48
663,219	0,48
663,661	0,48
664,102	0,48
664,544	0,48
664,985	0,48
665,427	0,48
665,869	0,48
666,31	0,48
666,752	0,48
667,193	0,48
667,634	0,48
668,076	0,48
668,517	0,48
668,959	0,48
669,4	0,48
669,841	0,48
670,282	0,48
670,724	0,48
671,165	0,48
671,606	0,48
672,047	0,48
672,488	0,48
672,929	0,48
673,37	0,48
673,811	0,48
674,252	0,48
674,693	0,48
675,134	0,47
675,575	0,47
676,016	0,47
676,457	0,47
676,898	0,47
677,339	0,47
677,78	0,47
678,22	0,47
678,661	0,47
679,102	0,47
679,542	0,47
679,983	0,47
680,424	0,47
680,864	0,47
681,305	0,47
681,745	0,47
682,186	0,47
682,626	0,47
683,067	0,47
683,507	0,47
683,948	0,47
684,388	0,47
684,828	0,47
685,269	0,47
685,709	0,47
686,149	0,47
686,589	0,47
687,029	0,47
687,47	0,47
687,91	0,47
688,35	0,47
688,79	0,47
689,23	0,47
689,67	0,47
690,11	0,47
690,55	0,47
690,99	0,46
691,43	0,46
691,87	0,46
692,31	0,46
692,749	0,46
693,189	0,46
693,629	0,46
694,069	0,46
694,508	0,45
694,948	0,45
695,388	0,45
695,827	0,45
696,267	0,46
696,706	0,46
697,146	0,46
697,586	0,46
698,025	0,46
698,464	0,46
698,904	0,46
699,343	0,46
699,783	0,46
700,222	0,46
700,661	0,46
701,101	0,46
701,54	0,46
701,979	0,46
702,418	0,46
702,857	0,46
703,297	0,46
703,736	0,46
704,175	0,46
704,614	0,46
705,053	0,46
705,492	0,46
705,931	0,46
706,37	0,46
706,809	0,46
707,248	0,46
707,687	0,46
708,125	0,46
708,564	0,46
709,003	0,46
709,442	0,46
709,88	0,46
710,319	0,45
710,758	0,45
711,196	0,45
711,635	0,45
712,074	0,45
712,512	0,45
712,951	0,45
713,389	0,45
713,828	0,45
714,266	0,45
714,705	0,45
715,143	0,45
715,581	0,45
716,02	0,45
716,458	0,45
716,896	0,45
717,334	0,45
717,773	0,45
718,211	0,45
718,649	0,45
719,087	0,45
719,525	0,45
719,963	0,45
720,401	0,45
720,839	0,45
721,277	0,45
721,715	0,45
722,153	0,45
722,591	0,45
723,029	0,45
723,467	0,45
723,905	0,45
724,342	0,45
724,78	0,45
725,218	0,45
725,656	0,45
726,093	0,45
726,531	0,45
726,969	0,45
727,406	0,45
727,844	0,45
728,281	0,45
728,719	0,45
729,156	0,45
729,594	0,45
730,031	0,45
730,469	0,45
730,906	0,45
731,343	0,45
731,781	0,45
732,218	0,44
732,655	0,44
733,092	0,44
733,53	0,44
733,967	0,44
734,404	0,44
734,841	0,44
735,278	0,44
735,715	0,44
736,152	0,43
736,589	0,43
737,026	0,43
737,463	0,43
737,9	0,43
738,337	0,43
738,774	0,43
739,211	0,43
739,647	0,43
740,084	0,43
740,521	0,43
740,958	0,43
741,394	0,43
741,831	0,43
742,268	0,43
742,704	0,43
743,141	0,43
743,577	0,43
744,014	0,43
744,45	0,43
744,887	0,43
745,323	0,43
745,76	0,43
746,196	0,43
746,632	0,43
747,069	0,43
747,505	0,43
747,941	0,42
748,378	0,42
748,814	0,42
749,25	0,43
749,686	0,43
750,122	0,43
750,558	0,43
750,994	0,43
751,43	0,43
751,866	0,43
752,302	0,44
752,738	0,44
753,174	0,44
753,61	0,44
754,046	0,44
754,482	0,44
754,918	0,44
755,354	0,44
755,789	0,44
756,225	0,43
756,661	0,43
757,096	0,43
757,532	0,43
757,968	0,43
758,403	0,42
758,839	0,42
759,274	0,42
759,71	0,42
760,145	0,41
760,581	0,4
761,016	0,4
761,452	0,39
761,887	0,39
762,322	0,38
762,758	0,38
763,193	0,37
763,628	0,37
764,063	0,36
764,499	0,35
764,934	0,35
765,369	0,34
765,804	0,33
766,239	0,32
766,674	0,32
767,109	0,31
767,544	0,3
767,979	0,29
768,414	0,28
768,849	0,27
769,284	0,27
769,719	0,26
770,154	0,25
770,588	0,25
771,023	0,23
771,458	0,22
771,893	0,21
772,327	0,2
772,762	0,19
773,197	0,17
773,631	0,16
774,066	0,16
774,5	0,15
774,935	0,14
775,369	0,13
775,804	0,12
776,238	0,11
776,673	0,1
777,107	0,09
777,541	0,08
777,976	0,07
778,41	0,06
778,844	0,05
779,279	0,04
779,713	0,03
780,147	0,02
780,581	0,02
781,015	0,01
781,449	-0
781,883	-0,01
782,317	-0,02
782,751	-0,03
783,185	-0,04
783,619	-0,05
784,053	-0,06
784,487	-0,07
784,921	-0,07
785,355	-0,08
785,789	-0,09
786,223	-0,1
786,656	-0,11
787,09	-0,12
787,524	-0,12
787,957	-0,13
788,391	-0,15
788,825	-0,16
789,258	-0,18
789,692	-0,2
790,125	-0,21
790,559	-0,23
790,992	-0,25
791,426	-0,27
791,859	-0,28
792,293	-0,32
792,726	-0,34
793,159	-0,36
793,593	-0,38
794,026	-0,4
794,459	-0,43
794,892	-0,45
795,326	-0,48
795,759	-0,52
796,192	-0,56
796,625	-0,61
797,058	-0,63
797,491	-0,67
797,924	-0,71
798,357	-0,76
798,79	-0,8
799,223	-0,85
799,656	-0,9
800,089	-0,95
800,522	-0,99
800,955	-1,04
801,387	-1,1
801,82	-1,15
802,253	-1,21
802,686	-1,29
803,118	-1,35
803,551	-1,4
803,984	-1,44
804,416	-1,48
804,849	-1,52
805,281	-1,66
805,714	-2,03
806,146	-2,47
806,579	-2,72
807,011	-2,88
807,444	-2,97
807,876	-3,05
808,308	-3,08
808,741	-3,11
809,173	-3,16
809,605	-3,18
810,037	-3,26
810,47	-3,17
810,902	-2,97
811,334	-2,82
811,766	-2,65
812,198	-2,4
812,63	-1,97
813,062	-1,77
813,494	-1,68
813,926	-1,59
814,358	-1,54
814,79	-1,46
815,222	-1,4
815,654	-1,35
816,086	-1,29
816,518	-1,23
816,949	-1,18
817,381	-1,14
817,813	-1,12
818,245	-1,08
818,676	-1,04
819,108	-1
819,54	-0,99
819,971	-0,97
820,403	-0,91
820,834	-0,9
821,266	-0,86
821,697	-0,84
822,129	-0,83
822,56	-0,8
822,991	-0,78
823,423	-0,75
823,854	-0,75
824,286	-0,72
824,717	-0,71
825,148	-0,7
825,579	-0,68
826,01	-0,67
826,442	-0,66
826,873	-0,65
827,304	-0,62
827,735	-0,61
828,166	-0,61
828,597	-0,61
829,028	-0,61
829,459	-0,61
829,89	-0,61
830,321	-0,57
830,752	-0,57
831,183	-0,56
831,613	-0,56
832,044	-0,56
832,475	-0,55
832,906	-0,57
833,336	-0,57
833,767	-0,57
834,198	-0,56
834,628	-0,54
835,059	-0,57
835,49	-0,58
835,92	-0,55
836,351	-0,55
836,781	-0,55
837,212	-0,57
837,642	-0,56
838,072	-0,54
838,503	-0,55
838,933	-0,53
839,364	-0,54
839,794	-0,53
840,224	-0,52
840,654	-0,56
841,085	-0,57
841,515	-0,54
841,945	-0,53
842,375	-0,49
842,805	-0,48
843,235	-0,47
843,665	-0,49
844,095	-0,47
844,525	-0,48
844,955	-0,48
845,385	-0,47
845,815	-0,45
846,245	-0,47
846,675	-0,49
847,105	-0,51
847,534	-0,51
847,964	-0,49
848,394	-0,48
848,824	-0,51
849,253	-0,51
849,683	-0,51
850,112	-0,51
850,542	-0,55
850,972	-0,55
851,401	-0,52
851,831	-0,51
852,26	-0,51
852,69	-0,55
853,119	-0,54
853,548	-0,55
853,978	-0,55
854,407	-0,53
854,836	-0,53
855,266	-0,52
855,695	-0,54
856,124	-0,55
856,553	-0,56
856,983	-0,57
857,412	-0,56
857,841	-0,57
858,27	-0,57
858,699	-0,58
859,128	-0,62
859,557	-0,62
859,986	-0,64
860,415	-0,61
860,844	-0,59
861,273	-0,58
861,702	-0,59
862,13	-0,57
862,559	-0,59
862,988	-0,57
863,417	-0,56
863,845	-0,56
864,274	-0,56
864,703	-0,55
865,131	-0,56
865,56	-0,57
865,989	-0,6
866,417	-0,57
866,846	-0,58
867,274	-0,57
867,703	-0,59
868,131	-0,6
868,559	-0,6
868,988	-0,62
869,416	-0,61
869,844	-0,63
870,273	-0,66
870,701	-0,63
871,129	-0,66
871,557	-0,69
871,986	-0,68
872,414	-0,69
872,842	-0,66
873,27	-0,63
873,698	-0,61
874,126	-0,65
874,554	-0,63
874,982	-0,63
875,41	-0,66
875,838	-0,61
876,266	-0,58
876,694	-0,59
877,122	-0,58
877,549	-0,63
877,977	-0,6
878,405	-0,62
878,833	-0,58
879,26	-0,57
879,688	-0,57
880,116	-0,54
880,543	-0,54
880,971	-0,53
881,399	-0,56
881,826	-0,56
882,254	-0,55
882,681	-0,58
883,109	-0,55
883,536	-0,56
883,963	-0,57
884,391	-0,55
884,818	-0,54
885,245	-0,57
885,673	-0,58
886,1	-0,56
886,527	-0,56
886,954	-0,52
887,381	-0,54
887,809	-0,55
888,236	-0,57
888,663	-0,58
889,09	-0,62
889,517	-0,64
889,944	-0,63
890,371	-0,62
890,798	-0,62
891,225	-0,62
891,652	-0,65
892,078	-0,63
892,505	-0,65
892,932	-0,6
893,359	-0,62
893,786	-0,62
894,212	-0,58
894,639	-0,61
895,066	-0,63
895,492	-0,58
895,919	-0,59
896,346	-0,58
896,772	-0,57
897,199	-0,55
897,625	-0,58
898,052	-0,53
898,478	-0,52
898,904	-0,54
899,331	-0,53
899,757	-0,54
900,183	-0,56
900,61	-0,53
901,036	-0,54
901,462	-0,54
901,888	-0,53
902,315	-0,52
902,741	-0,58
903,167	-0,57
903,593	-0,6
904,019	-0,58
904,445	-0,56
904,871	-0,59
905,297	-0,61
905,723	-0,6
906,149	-0,6
906,575	-0,61
907,001	-0,61
907,427	-0,58
907,852	-0,57
908,278	-0,58
908,704	-0,55
909,13	-0,55
909,555	-0,54
909,981	-0,53
910,407	-0,54
910,832	-0,54
911,258	-0,54
911,684	-0,54
912,109	-0,54
912,535	-0,57
912,96	-0,52
913,386	-0,56
913,811	-0,55
914,236	-0,57
914,662	-0,55
915,087	-0,58
915,512	-0,58
915,938	-0,59
916,363	-0,58
916,788	-0,6
917,213	-0,57
917,639	-0,62
918,064	-0,59
918,489	-0,6
918,914	-0,6
919,339	-0,61
919,764	-0,59
920,189	-0,59
920,614	-0,61
921,039	-0,61
921,464	-0,57
921,889	-0,61
922,314	-0,61
922,738	-0,65
923,163	-0,66
923,588	-0,66
924,013	-0,65
924,437	-0,64
924,862	-0,65
925,287	-0,61
925,711	-0,62
926,136	-0,63
926,561	-0,61
926,985	-0,6
927,41	-0,56
927,834	-0,55
928,259	-0,53
928,683	-0,51
929,108	-0,49
929,532	-0,5
929,956	-0,5
930,381	-0,49
930,805	-0,49
931,229	-0,48
931,653	-0,46
932,078	-0,46
932,502	-0,46
932,926	-0,47
933,35	-0,47
933,774	-0,46
934,198	-0,43
934,622	-0,42
935,046	-0,43
935,47	-0,43
935,894	-0,44
936,318	-0,44
936,742	-0,44
937,166	-0,44
937,59	-0,43
938,014	-0,45
938,437	-0,46
938,861	-0,48
939,285	-0,49
939,709	-0,48
940,132	-0,49
940,556	-0,49
940,98	-0,48
941,403	-0,47
941,827	-0,48
942,25	-0,49
942,674	-0,48
943,097	-0,47
943,521	-0,47
943,944	-0,49
944,368	-0,48
944,791	-0,46
945,214	-0,48
945,638	-0,49
946,061	-0,52
946,484	-0,53
946,907	-0,52
947,331	-0,52
947,754	-0,56
948,177	-0,52
948,6	-0,52
949,023	-0,51
949,446	-0,51
949,869	-0,48
950,292	-0,5
950,715	-0,47
951,138	-0,45
951,561	-0,43
951,984	-0,44
952,407	-0,43
952,83	-0,42
953,252	-0,37
953,675	-0,37
954,098	-0,39
954,521	-0,38
954,943	-0,36
955,366	-0,37
955,789	-0,36
956,211	-0,37
956,634	-0,37
957,056	-0,33
957,479	-0,35
957,902	-0,37
958,324	-0,37
958,746	-0,35
959,169	-0,37
959,591	-0,38
960,014	-0,39
960,436	-0,38
960,858	-0,37
961,281	-0,37
961,703	-0,38
962,125	-0,38
962,547	-0,36
962,969	-0,36
963,391	-0,37
963,814	-0,37
964,236	-0,36
964,658	-0,33
965,08	-0,34
965,502	-0,33
965,924	-0,3
966,346	-0,31
966,768	-0,3
967,189	-0,33
967,611	-0,32
968,033	-0,32
968,455	-0,3
968,877	-0,31
969,298	-0,33
969,72	-0,34
970,142	-0,33
970,563	-0,33
970,985	-0,32
971,407	-0,32
971,828	-0,29
972,25	-0,28
972,671	-0,27
973,093	-0,26
973,514	-0,25
973,936	-0,22
974,357	-0,2
974,778	-0,2
975,2	-0,2
975,621	-0,2
976,042	-0,18
976,464	-0,18
976,885	-0,17
977,306	-0,16
977,727	-0,15
978,148	-0,14
978,57	-0,12
978,991	-0,11
979,412	-0,09
979,833	-0,08
980,254	-0,08
980,675	-0,08
981,096	-0,07
981,517	-0,05
981,937	-0,05
982,358	-0,04
982,779	-0,02
983,2	-0,02
983,621	-0,02
984,042	0
984,462	0,01
984,883	0,03
985,304	0,05
985,724	0,06
986,145	0,07
986,565	0,09
986,986	0,09
987,407	0,1
987,827	0,11
988,248	0,13
988,668	0,14
989,088	0,15
989,509	0,16
989,929	0,17
990,35	0,18
990,77	0,19
991,19	0,2
991,61	0,22
992,031	0,23
992,451	0,24
992,871	0,26
993,291	0,27
993,711	0,27
994,131	0,28
994,551	0,29
994,971	0,3
995,391	0,3
995,811	0,31
996,231	0,31
996,651	0,32
997,071	0,33
997,491	0,33
997,911	0,34
998,331	0,35
998,75	0,35
999,17	0,36
999,59	0,37
1000,009	0,37
1000,429	0,38
1000,849	0,38
1001,268	0,39
1001,688	0,39
1002,107	0,39
1002,527	0,4
1002,946	0,4
1003,366	0,41
1003,785	0,41
1004,205	0,41
1004,624	0,42
1005,044	0,42
1005,463	0,42
1005,882	0,42
1006,301	0,42
1006,721	0,42
1007,14	0,43
1007,559	0,43
1007,978	0,43
1008,397	0,43
1008,816	0,43
1009,235	0,43
1009,655	0,43
1010,074	0,43
1010,492	0,43
1010,911	0,43
1011,33	0,43
1011,749	0,43
1012,168	0,43
1012,587	0,42
1013,006	0,42
1013,425	0,42
1013,843	0,42
1014,262	0,42
1014,681	0,42
1015,099	0,42
1015,518	0,42
1015,937	0,42
1016,355	0,42
1016,774	0,42
1017,192	0,42
1017,611	0,42
1018,029	0,42
1018,448	0,42
1018,866	0,42
1019,285	0,42
1019,703	0,42
1020,121	0,41
1020,54	0,41
1020,958	0,41
1021,376	0,41
1021,794	0,41
1022,213	0,41
1022,631	0,41
1023,049	0,41
1023,467	0,41
1023,885	0,41
1024,303	0,41
1024,721	0,41
1025,139	0,41
1025,557	0,41
1025,975	0,41
1026,393	0,41
1026,811	0,4
1027,229	0,4
1027,647	0,4
1028,065	0,4
1028,482	0,4
1028,9	0,4
1029,318	0,4
1029,735	0,4
1030,153	0,4
1030,571	0,4
1030,988	0,4
1031,406	0,4
1031,823	0,4
1032,241	0,4
1032,659	0,4
1033,076	0,4
1033,493	0,4
1033,911	0,4
1034,328	0,4
1034,746	0,4
1035,163	0,4
1035,58	0,4
1035,997	0,41
1036,415	0,41
1036,832	0,41
1037,249	0,41
1037,666	0,41
1038,083	0,41
1038,501	0,41
1038,918	0,41
1039,335	0,41
1039,752	0,41
1040,169	0,41
1040,586	0,41
1041,003	0,41
1041,419	0,41
1041,836	0,41
1042,253	0,41
1042,67	0,41
1043,087	0,41
1043,504	0,41
1043,92	0,41
1044,337	0,41
1044,754	0,41
1045,17	0,41
1045,587	0,41
1046,004	0,4
1046,42	0,4
1046,837	0,4
1047,253	0,41
1047,67	0,41
1048,086	0,41
1048,503	0,41
1048,919	0,41
1049,335	0,41
1049,752	0,41
1050,168	0,41
1050,584	0,41
1051,001	0,41
1051,417	0,41
1051,833	0,41
1052,249	0,41
1052,665	0,41
1053,081	0,41
1053,497	0,41
1053,914	0,41
1054,33	0,41
1054,746	0,41
1055,162	0,42
1055,578	0,42
1055,993	0,42
1056,409	0,42
1056,825	0,42
1057,241	0,42
1057,657	0,42
1058,073	0,42
1058,488	0,42
1058,904	0,42
1059,32	0,41
1059,736	0,41
1060,151	0,41
1060,567	0,41
1060,982	0,41
1061,398	0,41
1061,813	0,41
1062,229	0,41
1062,644	0,41
1063,06	0,41
1063,475	0,41
1063,891	0,41
1064,306	0,41
1064,721	0,41
1065,137	0,41
1065,552	0,41
1065,967	0,41
1066,382	0,41
1066,798	0,41
1067,213	0,41
1067,628	0,41
1068,043	0,41
1068,458	0,41
1068,873	0,41
1069,288	0,41
1069,703	0,41
1070,118	0,41
1070,533	0,41
1070,948	0,41
1071,363	0,41
1071,778	0,41
1072,193	0,41
1072,607	0,41
1073,022	0,41
1073,437	0,41
1073,852	0,41
1074,266	0,41
1074,681	0,41
1075,096	0,41
1075,51	0,41
1075,925	0,41
1076,339	0,41
1076,754	0,41
1077,168	0,41
1077,583	0,4
1077,997	0,41
1078,412	0,4
1078,826	0,4
1079,24	0,4
1079,655	0,4
1080,069	0,4
1080,483	0,4
1080,897	0,4
1081,312	0,4
1081,726	0,4
1082,14	0,4
1082,554	0,4
1082,968	0,4
1083,382	0,4
1083,796	0,4
1084,21	0,4
1084,624	0,4
1085,038	0,39
1085,452	0,39
1085,866	0,39
1086,28	0,39
1086,694	0,39
1087,108	0,39
1087,521	0,38
1087,935	0,38
1088,349	0,38
1088,763	0,38
1089,176	0,38
1089,59	0,37
1090,004	0,37
1090,417	0,37
1090,831	0,36
1091,244	0,36
1091,658	0,36
1092,071	0,35
1092,485	0,35
1092,898	0,35
1093,312	0,35
1093,725	0,34
1094,138	0,34
1094,552	0,34
1094,965	0,34
1095,378	0,34
1095,791	0,33
1096,205	0,33
1096,618	0,33
1097,031	0,33
1097,444	0,32
1097,857	0,32
1098,27	0,32
1098,683	0,32
1099,096	0,31
1099,509	0,31
1099,922	0,3
1100,335	0,3
1100,748	0,29
1101,161	0,29
1101,574	0,28
1101,986	0,28
1102,399	0,28
1102,812	0,27
1103,225	0,27
1103,637	0,27
1104,05	0,27
1104,463	0,27
1104,875	0,26
1105,288	0,26
1105,7	0,25
1106,113	0,25
1106,525	0,24
1106,938	0,24
1107,35	0,23
1107,763	0,23
1108,175	0,23
1108,588	0,22
1109	0,21
1109,412	0,21
1109,824	0,21
1110,237	0,21
1110,649	0,21
1111,061	0,23
