Data from 18C-808nm-8A-cont_Absorbance__651__02080.txt Node

Date: Mon Jul 17 17:43:43 CEST 2023
User: Laser008
Spectrometer: MAYP115816
Trigger mode: 0
Integration Time (sec): 2,500000E-1
Scans to average: 10
Electric dark correction enabled: true
Nonlinearity correction enabled: true
Boxcar width: 5
XAxis mode: Wavelengths
Number of Pixels in Spectrum: 2068
>>>>>Begin Spectral Data<<<<<
198,914	-0,63
199,384	-0,42
199,855	-0,32
200,325	-0,24
200,796	-0,23
201,266	-0,18
201,737	-0,18
202,207	-0,16
202,677	-0,15
203,147	-0,14
203,618	-0,11
204,088	-0,11
204,558	-0,1
205,028	-0,09
205,498	-0,09
205,968	-0,09
206,439	-0,1
206,909	-0,09
207,379	-0,1
207,849	-0,1
208,319	-0,1
208,789	-0,11
209,258	-0,1
209,728	-0,12
210,198	-0,11
210,668	-0,11
211,138	-0,11
211,608	-0,11
212,077	-0,11
212,547	-0,09
213,017	-0,11
213,486	-0,11
213,956	-0,11
214,426	-0,12
214,895	-0,11
215,365	-0,12
215,834	-0,13
216,304	-0,14
216,773	-0,14
217,243	-0,15
217,712	-0,16
218,181	-0,16
218,651	-0,16
219,12	-0,16
219,589	-0,16
220,058	-0,15
220,528	-0,16
220,997	-0,17
221,466	-0,17
221,935	-0,18
222,404	-0,17
222,873	-0,16
223,342	-0,16
223,812	-0,16
224,281	-0,16
224,749	-0,16
225,218	-0,17
225,687	-0,17
226,156	-0,15
226,625	-0,13
227,094	-0,14
227,563	-0,14
228,031	-0,16
228,5	-0,16
228,969	-0,16
229,438	-0,15
229,906	-0,14
230,375	-0,13
230,844	-0,14
231,312	-0,13
231,781	-0,15
232,249	-0,13
232,718	-0,14
233,186	-0,11
233,655	-0,12
234,123	-0,11
234,591	-0,11
235,06	-0,12
235,528	-0,13
235,996	-0,12
236,465	-0,12
236,933	-0,1
237,401	-0,11
237,869	-0,1
238,337	-0,11
238,805	-0,09
239,274	-0,09
239,742	-0,09
240,21	-0,08
240,678	-0,07
241,146	-0,06
241,614	-0,06
242,081	-0,06
242,549	-0,05
243,017	-0,06
243,485	-0,06
243,953	-0,06
244,421	-0,06
244,888	-0,06
245,356	-0,06
245,824	-0,06
246,291	-0,06
246,759	-0,07
247,227	-0,08
247,694	-0,07
248,162	-0,06
248,629	-0,06
249,097	-0,07
249,564	-0,08
250,032	-0,09
250,499	-0,09
250,967	-0,1
251,434	-0,1
251,901	-0,1
252,369	-0,1
252,836	-0,11
253,303	-0,12
253,77	-0,13
254,237	-0,12
254,705	-0,12
255,172	-0,12
255,639	-0,12
256,106	-0,13
256,573	-0,14
257,04	-0,15
257,507	-0,15
257,974	-0,15
258,441	-0,14
258,908	-0,14
259,375	-0,15
259,841	-0,16
260,308	-0,17
260,775	-0,17
261,242	-0,16
261,709	-0,16
262,175	-0,17
262,642	-0,17
263,109	-0,17
263,575	-0,19
264,042	-0,18
264,508	-0,17
264,975	-0,19
265,441	-0,2
265,908	-0,2
266,374	-0,19
266,841	-0,19
267,307	-0,19
267,773	-0,18
268,24	-0,18
268,706	-0,18
269,172	-0,19
269,639	-0,19
270,105	-0,17
270,571	-0,17
271,037	-0,18
271,503	-0,18
271,969	-0,18
272,435	-0,19
272,902	-0,21
273,368	-0,23
273,834	-0,22
274,3	-0,21
274,765	-0,22
275,231	-0,22
275,697	-0,21
276,163	-0,21
276,629	-0,21
277,095	-0,21
277,56	-0,2
278,026	-0,21
278,492	-0,18
278,958	-0,18
279,423	-0,18
279,889	-0,18
280,354	-0,19
280,82	-0,19
281,286	-0,2
281,751	-0,2
282,217	-0,19
282,682	-0,2
283,147	-0,2
283,613	-0,21
284,078	-0,22
284,544	-0,23
285,009	-0,23
285,474	-0,22
285,939	-0,23
286,405	-0,23
286,87	-0,22
287,335	-0,22
287,8	-0,2
288,265	-0,19
288,73	-0,2
289,195	-0,22
289,66	-0,22
290,125	-0,21
290,59	-0,22
291,055	-0,21
291,52	-0,21
291,985	-0,22
292,45	-0,23
292,915	-0,22
293,38	-0,22
293,844	-0,21
294,309	-0,2
294,774	-0,18
295,239	-0,19
295,703	-0,2
296,168	-0,18
296,632	-0,18
297,097	-0,16
297,562	-0,15
298,026	-0,16
298,491	-0,16
298,955	-0,14
299,419	-0,14
299,884	-0,14
300,348	-0,13
300,813	-0,11
301,277	-0,12
301,741	-0,12
302,205	-0,13
302,67	-0,12
303,134	-0,12
303,598	-0,12
304,062	-0,12
304,526	-0,12
304,99	-0,12
305,454	-0,13
305,919	-0,12
306,383	-0,12
306,847	-0,1
307,31	-0,11
307,774	-0,12
308,238	-0,12
308,702	-0,11
309,166	-0,13
309,63	-0,12
310,094	-0,09
310,557	-0,08
311,021	-0,08
311,485	-0,08
311,948	-0,09
312,412	-0,08
312,876	-0,07
313,339	-0,08
313,803	-0,09
314,266	-0,09
314,73	-0,1
315,193	-0,1
315,657	-0,1
316,12	-0,1
316,584	-0,08
317,047	-0,08
317,51	-0,07
317,973	-0,07
318,437	-0,06
318,9	-0,04
319,363	-0,03
319,826	-0,02
320,29	-0,03
320,753	-0,03
321,216	-0,03
321,679	-0,03
322,142	-0,03
322,605	-0,04
323,068	-0,04
323,531	-0,04
323,994	-0,04
324,457	-0,03
324,92	-0,03
325,382	-0,02
325,845	-0,01
326,308	-0,01
326,771	-0,01
327,233	-0
327,696	0,01
328,159	0,01
328,622	0,03
329,084	0,02
329,547	0,03
330,009	0,04
330,472	0,05
330,934	0,05
331,397	0,06
331,859	0,07
332,322	0,07
332,784	0,08
333,246	0,08
333,709	0,08
334,171	0,09
334,633	0,1
335,096	0,09
335,558	0,09
336,02	0,09
336,482	0,1
336,944	0,11
337,406	0,11
337,868	0,11
338,331	0,11
338,793	0,12
339,255	0,13
339,717	0,13
340,178	0,14
340,64	0,15
341,102	0,16
341,564	0,17
342,026	0,17
342,488	0,18
342,949	0,2
343,411	0,23
343,873	0,26
344,335	0,29
344,796	0,34
345,258	0,39
345,719	0,43
346,181	0,48
346,643	0,53
347,104	0,56
347,566	0,6
348,027	0,63
348,488	0,66
348,95	0,68
349,411	0,71
349,873	0,74
350,334	0,76
350,795	0,78
351,256	0,8
351,718	0,81
352,179	0,82
352,64	0,82
353,101	0,83
353,562	0,83
354,023	0,83
354,484	0,84
354,945	0,84
355,406	0,84
355,867	0,85
356,328	0,85
356,789	0,86
357,25	0,86
357,711	0,87
358,172	0,87
358,633	0,87
359,093	0,87
359,554	0,87
360,015	0,87
360,476	0,87
360,936	0,88
361,397	0,88
361,858	0,87
362,318	0,87
362,779	0,87
363,239	0,88
363,7	0,88
364,16	0,88
364,621	0,88
365,081	0,88
365,541	0,88
366,002	0,88
366,462	0,88
366,922	0,88
367,383	0,88
367,843	0,88
368,303	0,88
368,763	0,88
369,223	0,88
369,684	0,88
370,144	0,88
370,604	0,88
371,064	0,88
371,524	0,88
371,984	0,88
372,444	0,88
372,904	0,88
373,363	0,87
373,823	0,87
374,283	0,87
374,743	0,87
375,203	0,87
375,663	0,87
376,122	0,87
376,582	0,87
377,042	0,87
377,501	0,87
377,961	0,87
378,42	0,87
378,88	0,87
379,34	0,87
379,799	0,87
380,259	0,87
380,718	0,87
381,177	0,87
381,637	0,87
382,096	0,87
382,555	0,87
383,015	0,87
383,474	0,87
383,933	0,87
384,393	0,87
384,852	0,87
385,311	0,87
385,77	0,87
386,229	0,87
386,688	0,86
387,147	0,86
387,606	0,86
388,065	0,86
388,524	0,86
388,983	0,86
389,442	0,86
389,901	0,86
390,36	0,86
390,819	0,86
391,277	0,86
391,736	0,86
392,195	0,86
392,654	0,86
393,112	0,86
393,571	0,86
394,03	0,86
394,488	0,86
394,947	0,86
395,405	0,86
395,864	0,86
396,322	0,86
396,781	0,86
397,239	0,86
397,698	0,86
398,156	0,86
398,614	0,86
399,073	0,86
399,531	0,86
399,989	0,86
400,447	0,86
400,905	0,85
401,364	0,85
401,822	0,85
402,28	0,85
402,738	0,85
403,196	0,85
403,654	0,85
404,112	0,85
404,57	0,85
405,028	0,85
405,486	0,85
405,944	0,85
406,402	0,85
406,859	0,85
407,317	0,85
407,775	0,85
408,233	0,85
408,691	0,85
409,148	0,85
409,606	0,85
410,064	0,85
410,521	0,85
410,979	0,85
411,436	0,85
411,894	0,85
412,351	0,85
412,809	0,85
413,266	0,85
413,724	0,85
414,181	0,85
414,638	0,85
415,096	0,85
415,553	0,85
416,01	0,85
416,467	0,85
416,925	0,84
417,382	0,84
417,839	0,84
418,296	0,84
418,753	0,84
419,21	0,84
419,667	0,84
420,124	0,84
420,581	0,84
421,038	0,84
421,495	0,84
421,952	0,84
422,409	0,84
422,866	0,84
423,322	0,84
423,779	0,84
424,236	0,85
424,693	0,85
425,149	0,84
425,606	0,84
426,063	0,84
426,519	0,84
426,976	0,84
427,433	0,84
427,889	0,84
428,346	0,84
428,802	0,84
429,258	0,84
429,715	0,84
430,171	0,84
430,628	0,84
431,084	0,84
431,54	0,84
431,997	0,84
432,453	0,84
432,909	0,84
433,365	0,84
433,821	0,84
434,277	0,84
434,734	0,84
435,19	0,84
435,646	0,84
436,102	0,84
436,558	0,84
437,014	0,84
437,47	0,84
437,925	0,84
438,381	0,84
438,837	0,84
439,293	0,84
439,749	0,84
440,205	0,84
440,66	0,84
441,116	0,84
441,572	0,84
442,027	0,84
442,483	0,84
442,939	0,84
443,394	0,84
443,85	0,84
444,305	0,84
444,761	0,84
445,216	0,84
445,672	0,84
446,127	0,84
446,582	0,84
447,038	0,84
447,493	0,84
447,948	0,85
448,403	0,85
448,859	0,85
449,314	0,85
449,769	0,85
450,224	0,85
450,679	0,85
451,134	0,85
451,589	0,85
452,044	0,85
452,499	0,85
452,954	0,85
453,409	0,85
453,864	0,85
454,319	0,85
454,774	0,85
455,229	0,85
455,684	0,85
456,138	0,85
456,593	0,85
457,048	0,85
457,503	0,85
457,957	0,85
458,412	0,85
458,866	0,85
459,321	0,85
459,776	0,85
460,23	0,85
460,685	0,86
461,139	0,86
461,593	0,86
462,048	0,86
462,502	0,86
462,957	0,86
463,411	0,86
463,865	0,86
464,319	0,86
464,774	0,86
465,228	0,87
465,682	0,87
466,136	0,87
466,59	0,87
467,044	0,87
467,499	0,87
467,953	0,87
468,407	0,87
468,861	0,87
469,315	0,87
469,768	0,87
470,222	0,87
470,676	0,88
471,13	0,88
471,584	0,88
472,038	0,88
472,491	0,88
472,945	0,88
473,399	0,88
473,852	0,88
474,306	0,89
474,76	0,89
475,213	0,89
475,667	0,89
476,12	0,89
476,574	0,89
477,027	0,89
477,481	0,9
477,934	0,9
478,388	0,9
478,841	0,9
479,294	0,9
479,748	0,9
480,201	0,91
480,654	0,91
481,107	0,91
481,561	0,91
482,014	0,91
482,467	0,92
482,92	0,92
483,373	0,92
483,826	0,92
484,279	0,93
484,732	0,93
485,185	0,93
485,638	0,93
486,091	0,93
486,544	0,94
486,997	0,94
487,449	0,94
487,902	0,94
488,355	0,95
488,808	0,95
489,26	0,95
489,713	0,96
490,166	0,96
490,618	0,96
491,071	0,97
491,523	0,97
491,976	0,97
492,429	0,98
492,881	0,98
493,333	0,98
493,786	0,98
494,238	0,99
494,691	0,99
495,143	1
495,595	1
496,048	1
496,5	1,01
496,952	1,01
497,404	1,02
497,856	1,02
498,309	1,02
498,761	1,03
499,213	1,03
499,665	1,04
500,117	1,04
500,569	1,05
501,021	1,05
501,473	1,06
501,925	1,06
502,377	1,06
502,828	1,07
503,28	1,07
503,732	1,08
504,184	1,08
504,636	1,09
505,087	1,09
505,539	1,09
505,991	1,1
506,442	1,1
506,894	1,11
507,345	1,11
507,797	1,12
508,249	1,12
508,7	1,13
509,151	1,13
509,603	1,14
510,054	1,14
510,506	1,14
510,957	1,15
511,408	1,15
511,86	1,16
512,311	1,16
512,762	1,16
513,213	1,17
513,665	1,17
514,116	1,17
514,567	1,18
515,018	1,18
515,469	1,18
515,92	1,19
516,371	1,19
516,822	1,19
517,273	1,2
517,724	1,2
518,175	1,2
518,626	1,21
519,076	1,21
519,527	1,21
519,978	1,21
520,429	1,22
520,88	1,22
521,33	1,22
521,781	1,22
522,232	1,22
522,682	1,23
523,133	1,23
523,583	1,23
524,034	1,23
524,484	1,23
524,935	1,23
525,385	1,23
525,836	1,23
526,286	1,23
526,736	1,23
527,187	1,24
527,637	1,23
528,087	1,23
528,538	1,23
528,988	1,23
529,438	1,23
529,888	1,23
530,338	1,23
530,788	1,23
531,238	1,22
531,688	1,22
532,139	1,22
532,589	1,22
533,038	1,22
533,488	1,22
533,938	1,21
534,388	1,21
534,838	1,21
535,288	1,2
535,738	1,2
536,187	1,2
536,637	1,19
537,087	1,19
537,537	1,18
537,986	1,18
538,436	1,17
538,885	1,17
539,335	1,16
539,785	1,16
540,234	1,15
540,684	1,15
541,133	1,14
541,582	1,13
542,032	1,13
542,481	1,12
542,931	1,12
543,38	1,11
543,829	1,1
544,278	1,1
544,728	1,09
545,177	1,09
545,626	1,08
546,075	1,08
546,524	1,07
546,973	1,07
547,422	1,06
547,871	1,06
548,32	1,05
548,769	1,05
549,218	1,05
549,667	1,04
550,116	1,04
550,565	1,04
551,014	1,03
551,463	1,03
551,911	1,02
552,36	1,02
552,809	1,01
553,258	1,01
553,706	1
554,155	1
554,603	0,99
555,052	0,99
555,501	0,98
555,949	0,98
556,398	0,97
556,846	0,96
557,294	0,96
557,743	0,95
558,191	0,95
558,64	0,94
559,088	0,93
559,536	0,93
559,985	0,92
560,433	0,92
560,881	0,91
561,329	0,91
561,777	0,9
562,225	0,9
562,674	0,89
563,122	0,89
563,57	0,88
564,018	0,88
564,466	0,87
564,914	0,87
565,362	0,86
565,809	0,86
566,257	0,85
566,705	0,85
567,153	0,84
567,601	0,84
568,048	0,84
568,496	0,83
568,944	0,83
569,392	0,82
569,839	0,82
570,287	0,81
570,734	0,81
571,182	0,81
571,63	0,8
572,077	0,8
572,525	0,79
572,972	0,79
573,419	0,78
573,867	0,78
574,314	0,78
574,761	0,77
575,209	0,77
575,656	0,76
576,103	0,76
576,551	0,76
576,998	0,75
577,445	0,75
577,892	0,75
578,339	0,74
578,786	0,74
579,233	0,73
579,68	0,73
580,127	0,73
580,574	0,73
581,021	0,72
581,468	0,72
581,915	0,72
582,362	0,71
582,809	0,71
583,255	0,71
583,702	0,7
584,149	0,7
584,596	0,7
585,042	0,69
585,489	0,69
585,936	0,69
586,382	0,68
586,829	0,68
587,275	0,68
587,722	0,68
588,168	0,68
588,615	0,67
589,061	0,67
589,508	0,67
589,954	0,67
590,4	0,66
590,847	0,66
591,293	0,66
591,739	0,66
592,185	0,66
592,632	0,65
593,078	0,65
593,524	0,65
593,97	0,65
594,416	0,65
594,862	0,65
595,308	0,64
595,754	0,64
596,2	0,64
596,646	0,64
597,092	0,63
597,538	0,63
597,984	0,63
598,43	0,63
598,876	0,63
599,321	0,63
599,767	0,62
600,213	0,62
600,659	0,62
601,104	0,62
601,55	0,62
601,995	0,62
602,441	0,61
602,887	0,61
603,332	0,61
603,778	0,61
604,223	0,61
604,668	0,61
605,114	0,61
605,559	0,61
606,005	0,61
606,45	0,61
606,895	0,6
607,341	0,6
607,786	0,6
608,231	0,6
608,676	0,59
609,121	0,58
609,566	0,58
610,012	0,57
610,457	0,57
610,902	0,56
611,347	0,56
611,792	0,56
612,237	0,55
612,682	0,55
613,127	0,55
613,571	0,55
614,016	0,56
614,461	0,56
614,906	0,56
615,351	0,56
615,795	0,57
616,24	0,57
616,685	0,57
617,129	0,57
617,574	0,57
618,019	0,57
618,463	0,57
618,908	0,57
619,352	0,57
619,797	0,57
620,241	0,57
620,686	0,56
621,13	0,56
621,574	0,56
622,019	0,56
622,463	0,56
622,907	0,56
623,352	0,56
623,796	0,56
624,24	0,55
624,684	0,55
625,128	0,55
625,572	0,55
626,016	0,55
626,461	0,55
626,905	0,55
627,349	0,55
627,793	0,55
628,236	0,55
628,68	0,55
629,124	0,55
629,568	0,55
630,012	0,55
630,456	0,55
630,9	0,55
631,343	0,55
631,787	0,55
632,231	0,55
632,674	0,55
633,118	0,55
633,562	0,55
634,005	0,55
634,449	0,54
634,892	0,54
635,336	0,54
635,779	0,54
636,223	0,54
636,666	0,54
637,109	0,54
637,553	0,54
637,996	0,54
638,439	0,54
638,883	0,54
639,326	0,54
639,769	0,54
640,212	0,54
640,655	0,54
641,099	0,54
641,542	0,54
641,985	0,54
642,428	0,54
642,871	0,54
643,314	0,53
643,757	0,53
644,2	0,53
644,643	0,53
645,085	0,53
645,528	0,53
645,971	0,53
646,414	0,53
646,857	0,53
647,299	0,53
647,742	0,53
648,185	0,53
648,627	0,52
649,07	0,52
649,513	0,52
649,955	0,52
650,398	0,52
650,84	0,52
651,283	0,52
651,725	0,52
652,168	0,52
652,61	0,52
653,052	0,52
653,495	0,52
653,937	0,43
654,379	0,37
654,821	0,38
655,264	0,38
655,706	0,38
656,148	0,38
656,59	0,38
657,032	0,38
657,474	0,38
657,916	0,38
658,358	0,38
658,8	0,44
659,242	0,52
659,684	0,52
660,126	0,52
660,568	0,52
661,01	0,52
661,452	0,52
661,894	0,52
662,335	0,52
662,777	0,52
663,219	0,52
663,661	0,52
664,102	0,52
664,544	0,52
664,985	0,52
665,427	0,52
665,869	0,52
666,31	0,52
666,752	0,52
667,193	0,52
667,634	0,52
668,076	0,52
668,517	0,52
668,959	0,52
669,4	0,52
669,841	0,52
670,282	0,52
670,724	0,51
671,165	0,51
671,606	0,51
672,047	0,51
672,488	0,51
672,929	0,51
673,37	0,51
673,811	0,51
674,252	0,51
674,693	0,51
675,134	0,51
675,575	0,51
676,016	0,51
676,457	0,51
676,898	0,51
677,339	0,51
677,78	0,51
678,22	0,51
678,661	0,51
679,102	0,51
679,542	0,51
679,983	0,51
680,424	0,51
680,864	0,51
681,305	0,51
681,745	0,51
682,186	0,51
682,626	0,51
683,067	0,51
683,507	0,51
683,948	0,51
684,388	0,51
684,828	0,51
685,269	0,51
685,709	0,51
686,149	0,51
686,589	0,51
687,029	0,5
687,47	0,5
687,91	0,5
688,35	0,5
688,79	0,5
689,23	0,5
689,67	0,5
690,11	0,5
690,55	0,5
690,99	0,5
691,43	0,5
691,87	0,5
692,31	0,5
692,749	0,5
693,189	0,49
693,629	0,49
694,069	0,49
694,508	0,49
694,948	0,49
695,388	0,49
695,827	0,49
696,267	0,49
696,706	0,49
697,146	0,5
697,586	0,5
698,025	0,5
698,464	0,5
698,904	0,5
699,343	0,5
699,783	0,5
700,222	0,5
700,661	0,5
701,101	0,5
701,54	0,5
701,979	0,5
702,418	0,5
702,857	0,5
703,297	0,5
703,736	0,5
704,175	0,5
704,614	0,5
705,053	0,5
705,492	0,5
705,931	0,5
706,37	0,5
706,809	0,5
707,248	0,49
707,687	0,49
708,125	0,49
708,564	0,49
709,003	0,49
709,442	0,49
709,88	0,49
710,319	0,49
710,758	0,49
711,196	0,49
711,635	0,49
712,074	0,49
712,512	0,49
712,951	0,49
713,389	0,49
713,828	0,49
714,266	0,49
714,705	0,49
715,143	0,49
715,581	0,49
716,02	0,49
716,458	0,49
716,896	0,49
717,334	0,49
717,773	0,49
718,211	0,49
718,649	0,49
719,087	0,49
719,525	0,49
719,963	0,49
720,401	0,49
720,839	0,49
721,277	0,49
721,715	0,49
722,153	0,49
722,591	0,49
723,029	0,49
723,467	0,49
723,905	0,49
724,342	0,48
724,78	0,48
725,218	0,48
725,656	0,48
726,093	0,48
726,531	0,48
726,969	0,48
727,406	0,48
727,844	0,48
728,281	0,48
728,719	0,48
729,156	0,48
729,594	0,48
730,031	0,48
730,469	0,48
730,906	0,48
731,343	0,48
731,781	0,48
732,218	0,48
732,655	0,48
733,092	0,48
733,53	0,48
733,967	0,48
734,404	0,48
734,841	0,48
735,278	0,48
735,715	0,48
736,152	0,48
736,589	0,47
737,026	0,47
737,463	0,47
737,9	0,47
738,337	0,47
738,774	0,47
739,211	0,47
739,647	0,47
740,084	0,47
740,521	0,48
740,958	0,48
741,394	0,48
741,831	0,48
742,268	0,48
742,704	0,48
743,141	0,48
743,577	0,48
744,014	0,48
744,45	0,47
744,887	0,47
745,323	0,47
745,76	0,47
746,196	0,47
746,632	0,47
747,069	0,47
747,505	0,47
747,941	0,47
748,378	0,47
748,814	0,47
749,25	0,47
749,686	0,47
750,122	0,47
750,558	0,47
750,994	0,47
751,43	0,47
751,866	0,47
752,302	0,47
752,738	0,47
753,174	0,47
753,61	0,47
754,046	0,47
754,482	0,47
754,918	0,47
755,354	0,47
755,789	0,47
756,225	0,47
756,661	0,47
757,096	0,46
757,532	0,46
757,968	0,46
758,403	0,46
758,839	0,46
759,274	0,45
759,71	0,45
760,145	0,44
760,581	0,44
761,016	0,43
761,452	0,43
761,887	0,42
762,322	0,42
762,758	0,41
763,193	0,41
763,628	0,4
764,063	0,39
764,499	0,38
764,934	0,38
765,369	0,37
765,804	0,37
766,239	0,36
766,674	0,36
767,109	0,35
767,544	0,34
767,979	0,33
768,414	0,32
768,849	0,31
769,284	0,3
769,719	0,29
770,154	0,28
770,588	0,27
771,023	0,25
771,458	0,24
771,893	0,23
772,327	0,21
772,762	0,2
773,197	0,19
773,631	0,18
774,066	0,17
774,5	0,16
774,935	0,15
775,369	0,14
775,804	0,13
776,238	0,12
776,673	0,11
777,107	0,1
777,541	0,1
777,976	0,09
778,41	0,08
778,844	0,07
779,279	0,07
779,713	0,06
780,147	0,04
780,581	0,04
781,015	0,03
781,449	0,02
781,883	0,01
782,317	-0,01
782,751	-0,02
783,185	-0,02
783,619	-0,03
784,053	-0,05
784,487	-0,05
784,921	-0,05
785,355	-0,06
785,789	-0,07
786,223	-0,08
786,656	-0,09
787,09	-0,1
787,524	-0,1
787,957	-0,12
788,391	-0,14
788,825	-0,15
789,258	-0,17
789,692	-0,19
790,125	-0,21
790,559	-0,22
790,992	-0,24
791,426	-0,27
791,859	-0,28
792,293	-0,31
792,726	-0,33
793,159	-0,35
793,593	-0,36
794,026	-0,38
794,459	-0,41
794,892	-0,44
795,326	-0,46
795,759	-0,5
796,192	-0,55
796,625	-0,59
797,058	-0,62
797,491	-0,66
797,924	-0,7
798,357	-0,75
798,79	-0,79
799,223	-0,83
799,656	-0,88
800,089	-0,93
800,522	-0,97
800,955	-1,02
801,387	-1,07
801,82	-1,13
802,253	-1,19
802,686	-1,27
803,118	-1,33
803,551	-1,38
803,984	-1,42
804,416	-1,46
804,849	-1,49
805,281	-1,59
805,714	-1,95
806,146	-2,42
806,579	-2,69
807,011	-2,86
807,444	-2,95
807,876	-3,04
808,308	-3,08
808,741	-3,11
809,173	-3,16
809,605	-3,18
810,037	-3,26
810,47	-3,18
810,902	-2,99
811,334	-2,84
811,766	-2,68
812,198	-2,44
812,63	-2
813,062	-1,78
813,494	-1,68
813,926	-1,6
814,358	-1,54
814,79	-1,46
815,222	-1,4
815,654	-1,36
816,086	-1,29
816,518	-1,24
816,949	-1,19
817,381	-1,14
817,813	-1,12
818,245	-1,09
818,676	-1,05
819,108	-1,02
819,54	-1
819,971	-0,98
820,403	-0,93
820,834	-0,92
821,266	-0,87
821,697	-0,85
822,129	-0,83
822,56	-0,81
822,991	-0,79
823,423	-0,76
823,854	-0,75
824,286	-0,72
824,717	-0,71
825,148	-0,69
825,579	-0,68
826,01	-0,67
826,442	-0,66
826,873	-0,64
827,304	-0,6
827,735	-0,59
828,166	-0,6
828,597	-0,6
829,028	-0,59
829,459	-0,59
829,89	-0,59
830,321	-0,54
830,752	-0,56
831,183	-0,55
831,613	-0,55
832,044	-0,55
832,475	-0,54
832,906	-0,56
833,336	-0,56
833,767	-0,57
834,198	-0,56
834,628	-0,55
835,059	-0,58
835,49	-0,58
835,92	-0,55
836,351	-0,55
836,781	-0,55
837,212	-0,55
837,642	-0,56
838,072	-0,53
838,503	-0,54
838,933	-0,51
839,364	-0,52
839,794	-0,5
840,224	-0,49
840,654	-0,53
841,085	-0,54
841,515	-0,51
841,945	-0,52
842,375	-0,47
842,805	-0,46
843,235	-0,44
843,665	-0,46
844,095	-0,44
844,525	-0,46
844,955	-0,46
845,385	-0,45
845,815	-0,43
846,245	-0,45
846,675	-0,45
847,105	-0,48
847,534	-0,48
847,964	-0,48
848,394	-0,46
848,824	-0,49
849,253	-0,49
849,683	-0,49
850,112	-0,5
850,542	-0,53
850,972	-0,53
851,401	-0,5
851,831	-0,48
852,26	-0,48
852,69	-0,52
853,119	-0,51
853,548	-0,51
853,978	-0,51
854,407	-0,49
854,836	-0,48
855,266	-0,48
855,695	-0,5
856,124	-0,52
856,553	-0,53
856,983	-0,55
857,412	-0,54
857,841	-0,56
858,27	-0,56
858,699	-0,56
859,128	-0,6
859,557	-0,61
859,986	-0,62
860,415	-0,59
860,844	-0,57
861,273	-0,57
861,702	-0,57
862,13	-0,55
862,559	-0,57
862,988	-0,55
863,417	-0,54
863,845	-0,53
864,274	-0,54
864,703	-0,54
865,131	-0,55
865,56	-0,56
865,989	-0,58
866,417	-0,56
866,846	-0,56
867,274	-0,55
867,703	-0,57
868,131	-0,58
868,559	-0,58
868,988	-0,6
869,416	-0,58
869,844	-0,59
870,273	-0,62
870,701	-0,6
871,129	-0,63
871,557	-0,66
871,986	-0,66
872,414	-0,67
872,842	-0,65
873,27	-0,63
873,698	-0,61
874,126	-0,65
874,554	-0,63
874,982	-0,63
875,41	-0,66
875,838	-0,61
876,266	-0,59
876,694	-0,59
877,122	-0,59
877,549	-0,64
877,977	-0,61
878,405	-0,62
878,833	-0,59
879,26	-0,59
879,688	-0,58
880,116	-0,55
880,543	-0,53
880,971	-0,52
881,399	-0,55
881,826	-0,55
882,254	-0,53
882,681	-0,57
883,109	-0,53
883,536	-0,54
883,963	-0,55
884,391	-0,54
884,818	-0,53
885,245	-0,57
885,673	-0,6
886,1	-0,57
886,527	-0,57
886,954	-0,53
887,381	-0,55
887,809	-0,56
888,236	-0,58
888,663	-0,58
889,09	-0,62
889,517	-0,64
889,944	-0,63
890,371	-0,62
890,798	-0,62
891,225	-0,63
891,652	-0,66
892,078	-0,63
892,505	-0,66
892,932	-0,61
893,359	-0,61
893,786	-0,62
894,212	-0,59
894,639	-0,61
895,066	-0,63
895,492	-0,58
895,919	-0,58
896,346	-0,58
896,772	-0,58
897,199	-0,56
897,625	-0,59
898,052	-0,55
898,478	-0,53
898,904	-0,55
899,331	-0,54
899,757	-0,56
900,183	-0,58
900,61	-0,55
901,036	-0,56
901,462	-0,55
901,888	-0,54
902,315	-0,53
902,741	-0,59
903,167	-0,58
903,593	-0,6
904,019	-0,58
904,445	-0,55
904,871	-0,57
905,297	-0,59
905,723	-0,58
906,149	-0,58
906,575	-0,59
907,001	-0,59
907,427	-0,55
907,852	-0,55
908,278	-0,55
908,704	-0,54
909,13	-0,54
909,555	-0,53
909,981	-0,52
910,407	-0,52
910,832	-0,51
911,258	-0,51
911,684	-0,51
912,109	-0,5
912,535	-0,52
912,96	-0,47
913,386	-0,51
913,811	-0,51
914,236	-0,53
914,662	-0,51
915,087	-0,56
915,512	-0,56
915,938	-0,58
916,363	-0,57
916,788	-0,59
917,213	-0,57
917,639	-0,62
918,064	-0,59
918,489	-0,59
918,914	-0,59
919,339	-0,6
919,764	-0,57
920,189	-0,57
920,614	-0,59
921,039	-0,59
921,464	-0,55
921,889	-0,58
922,314	-0,59
922,738	-0,61
923,163	-0,62
923,588	-0,62
924,013	-0,62
924,437	-0,62
924,862	-0,64
925,287	-0,6
925,711	-0,6
926,136	-0,62
926,561	-0,6
926,985	-0,59
927,41	-0,56
927,834	-0,54
928,259	-0,5
928,683	-0,49
929,108	-0,46
929,532	-0,47
929,956	-0,47
930,381	-0,47
930,805	-0,47
931,229	-0,46
931,653	-0,44
932,078	-0,44
932,502	-0,45
932,926	-0,47
933,35	-0,47
933,774	-0,45
934,198	-0,44
934,622	-0,42
935,046	-0,42
935,47	-0,42
935,894	-0,42
936,318	-0,42
936,742	-0,42
937,166	-0,43
937,59	-0,43
938,014	-0,45
938,437	-0,46
938,861	-0,48
939,285	-0,5
939,709	-0,48
940,132	-0,49
940,556	-0,49
940,98	-0,5
941,403	-0,49
941,827	-0,48
942,25	-0,5
942,674	-0,48
943,097	-0,48
943,521	-0,47
943,944	-0,48
944,368	-0,47
944,791	-0,46
945,214	-0,48
945,638	-0,48
946,061	-0,52
946,484	-0,53
946,907	-0,51
947,331	-0,51
947,754	-0,56
948,177	-0,53
948,6	-0,53
949,023	-0,53
949,446	-0,52
949,869	-0,5
950,292	-0,49
950,715	-0,46
951,138	-0,44
951,561	-0,42
951,984	-0,42
952,407	-0,39
952,83	-0,38
953,252	-0,34
953,675	-0,34
954,098	-0,35
954,521	-0,35
954,943	-0,33
955,366	-0,34
955,789	-0,32
956,211	-0,34
956,634	-0,35
957,056	-0,33
957,479	-0,34
957,902	-0,36
958,324	-0,36
958,746	-0,34
959,169	-0,35
959,591	-0,36
960,014	-0,37
960,436	-0,37
960,858	-0,37
961,281	-0,37
961,703	-0,38
962,125	-0,38
962,547	-0,36
962,969	-0,37
963,391	-0,37
963,814	-0,39
964,236	-0,38
964,658	-0,36
965,08	-0,36
965,502	-0,35
965,924	-0,32
966,346	-0,32
966,768	-0,32
967,189	-0,34
967,611	-0,33
968,033	-0,33
968,455	-0,31
968,877	-0,31
969,298	-0,32
969,72	-0,32
970,142	-0,32
970,563	-0,33
970,985	-0,31
971,407	-0,29
971,828	-0,27
972,25	-0,27
972,671	-0,25
973,093	-0,24
973,514	-0,23
973,936	-0,21
974,357	-0,2
974,778	-0,2
975,2	-0,18
975,621	-0,18
976,042	-0,17
976,464	-0,16
976,885	-0,15
977,306	-0,14
977,727	-0,14
978,148	-0,13
978,57	-0,11
978,991	-0,1
979,412	-0,09
979,833	-0,08
980,254	-0,07
980,675	-0,07
981,096	-0,05
981,517	-0,04
981,937	-0,04
982,358	-0,02
982,779	-0,01
983,2	-0,02
983,621	-0,01
984,042	0,01
984,462	0,02
984,883	0,04
985,304	0,05
985,724	0,06
986,145	0,08
986,565	0,1
986,986	0,11
987,407	0,12
987,827	0,14
988,248	0,15
988,668	0,17
989,088	0,17
989,509	0,18
989,929	0,19
990,35	0,21
990,77	0,22
991,19	0,23
991,61	0,24
992,031	0,25
992,451	0,26
992,871	0,27
993,291	0,28
993,711	0,29
994,131	0,3
994,551	0,31
994,971	0,33
995,391	0,33
995,811	0,34
996,231	0,35
996,651	0,35
997,071	0,36
997,491	0,37
997,911	0,38
998,331	0,39
998,75	0,39
999,17	0,4
999,59	0,41
1000,009	0,41
1000,429	0,42
1000,849	0,43
1001,268	0,43
1001,688	0,44
1002,107	0,44
1002,527	0,45
1002,946	0,45
1003,366	0,45
1003,785	0,46
1004,205	0,46
1004,624	0,46
1005,044	0,46
1005,463	0,47
1005,882	0,47
1006,301	0,47
1006,721	0,47
1007,14	0,47
1007,559	0,48
1007,978	0,48
1008,397	0,48
1008,816	0,48
1009,235	0,48
1009,655	0,48
1010,074	0,47
1010,492	0,47
1010,911	0,47
1011,33	0,47
1011,749	0,47
1012,168	0,47
1012,587	0,47
1013,006	0,47
1013,425	0,47
1013,843	0,47
1014,262	0,47
1014,681	0,47
1015,099	0,47
1015,518	0,47
1015,937	0,47
1016,355	0,47
1016,774	0,47
1017,192	0,47
1017,611	0,47
1018,029	0,47
1018,448	0,47
1018,866	0,47
1019,285	0,47
1019,703	0,47
1020,121	0,47
1020,54	0,47
1020,958	0,47
1021,376	0,47
1021,794	0,46
1022,213	0,46
1022,631	0,46
1023,049	0,46
1023,467	0,46
1023,885	0,46
1024,303	0,46
1024,721	0,46
1025,139	0,46
1025,557	0,45
1025,975	0,45
1026,393	0,45
1026,811	0,45
1027,229	0,45
1027,647	0,45
1028,065	0,45
1028,482	0,45
1028,9	0,45
1029,318	0,45
1029,735	0,45
1030,153	0,45
1030,571	0,45
1030,988	0,45
1031,406	0,45
1031,823	0,45
1032,241	0,45
1032,659	0,45
1033,076	0,45
1033,493	0,45
1033,911	0,45
1034,328	0,45
1034,746	0,45
1035,163	0,45
1035,58	0,45
1035,997	0,45
1036,415	0,45
1036,832	0,45
1037,249	0,45
1037,666	0,45
1038,083	0,45
1038,501	0,45
1038,918	0,45
1039,335	0,45
1039,752	0,45
1040,169	0,45
1040,586	0,45
1041,003	0,45
1041,419	0,45
1041,836	0,45
1042,253	0,45
1042,67	0,45
1043,087	0,45
1043,504	0,45
1043,92	0,45
1044,337	0,45
1044,754	0,44
1045,17	0,44
1045,587	0,44
1046,004	0,44
1046,42	0,44
1046,837	0,44
1047,253	0,44
1047,67	0,44
1048,086	0,44
1048,503	0,44
1048,919	0,44
1049,335	0,44
1049,752	0,44
1050,168	0,44
1050,584	0,44
1051,001	0,45
1051,417	0,45
1051,833	0,45
1052,249	0,45
1052,665	0,45
1053,081	0,45
1053,497	0,45
1053,914	0,45
1054,33	0,45
1054,746	0,46
1055,162	0,46
1055,578	0,46
1055,993	0,46
1056,409	0,46
1056,825	0,46
1057,241	0,46
1057,657	0,46
1058,073	0,46
1058,488	0,46
1058,904	0,46
1059,32	0,46
1059,736	0,46
1060,151	0,46
1060,567	0,46
1060,982	0,46
1061,398	0,46
1061,813	0,46
1062,229	0,46
1062,644	0,46
1063,06	0,46
1063,475	0,46
1063,891	0,46
1064,306	0,46
1064,721	0,46
1065,137	0,46
1065,552	0,46
1065,967	0,46
1066,382	0,45
1066,798	0,45
1067,213	0,45
1067,628	0,45
1068,043	0,45
1068,458	0,46
1068,873	0,46
1069,288	0,46
1069,703	0,46
1070,118	0,46
1070,533	0,46
1070,948	0,46
1071,363	0,46
1071,778	0,46
1072,193	0,46
1072,607	0,46
1073,022	0,46
1073,437	0,46
1073,852	0,46
1074,266	0,46
1074,681	0,46
1075,096	0,46
1075,51	0,46
1075,925	0,46
1076,339	0,46
1076,754	0,46
1077,168	0,46
1077,583	0,45
1077,997	0,45
1078,412	0,45
1078,826	0,45
1079,24	0,45
1079,655	0,45
1080,069	0,45
1080,483	0,45
1080,897	0,45
1081,312	0,45
1081,726	0,45
1082,14	0,44
1082,554	0,44
1082,968	0,44
1083,382	0,44
1083,796	0,44
1084,21	0,44
1084,624	0,44
1085,038	0,44
1085,452	0,43
1085,866	0,43
1086,28	0,43
1086,694	0,43
1087,108	0,43
1087,521	0,43
1087,935	0,43
1088,349	0,42
1088,763	0,42
1089,176	0,42
1089,59	0,42
1090,004	0,41
1090,417	0,41
1090,831	0,4
1091,244	0,4
1091,658	0,4
1092,071	0,4
1092,485	0,39
1092,898	0,39
1093,312	0,39
1093,725	0,38
1094,138	0,38
1094,552	0,38
1094,965	0,38
1095,378	0,38
1095,791	0,37
1096,205	0,37
1096,618	0,37
1097,031	0,36
1097,444	0,36
1097,857	0,36
1098,27	0,36
1098,683	0,36
1099,096	0,35
1099,509	0,35
1099,922	0,34
1100,335	0,34
1100,748	0,33
1101,161	0,33
1101,574	0,32
1101,986	0,32
1102,399	0,32
1102,812	0,32
1103,225	0,31
1103,637	0,31
1104,05	0,31
1104,463	0,31
1104,875	0,3
1105,288	0,3
1105,7	0,3
1106,113	0,29
1106,525	0,29
1106,938	0,28
1107,35	0,27
1107,763	0,27
1108,175	0,27
1108,588	0,27
1109	0,26
1109,412	0,25
1109,824	0,25
1110,237	0,25
1110,649	0,26
1111,061	0,25
