Data from 18C-808nm-8A-cont_Absorbance__265__01694.txt Node

Date: Mon Jul 17 17:27:38 CEST 2023
User: Laser008
Spectrometer: MAYP115816
Trigger mode: 0
Integration Time (sec): 2,500000E-1
Scans to average: 10
Electric dark correction enabled: true
Nonlinearity correction enabled: true
Boxcar width: 5
XAxis mode: Wavelengths
Number of Pixels in Spectrum: 2068
>>>>>Begin Spectral Data<<<<<
198,914	-0,72
199,384	-0,49
199,855	-0,36
200,325	-0,28
200,796	-0,25
201,266	-0,2
201,737	-0,18
202,207	-0,16
202,677	-0,15
203,147	-0,14
203,618	-0,11
204,088	-0,09
204,558	-0,07
205,028	-0,07
205,498	-0,07
205,968	-0,07
206,439	-0,08
206,909	-0,08
207,379	-0,09
207,849	-0,1
208,319	-0,09
208,789	-0,1
209,258	-0,1
209,728	-0,12
210,198	-0,11
210,668	-0,1
211,138	-0,1
211,608	-0,1
212,077	-0,1
212,547	-0,09
213,017	-0,09
213,486	-0,11
213,956	-0,11
214,426	-0,12
214,895	-0,12
215,365	-0,13
215,834	-0,14
216,304	-0,15
216,773	-0,15
217,243	-0,17
217,712	-0,17
218,181	-0,18
218,651	-0,17
219,12	-0,17
219,589	-0,16
220,058	-0,15
220,528	-0,16
220,997	-0,16
221,466	-0,17
221,935	-0,18
222,404	-0,17
222,873	-0,16
223,342	-0,15
223,812	-0,15
224,281	-0,16
224,749	-0,16
225,218	-0,19
225,687	-0,19
226,156	-0,18
226,625	-0,16
227,094	-0,16
227,563	-0,16
228,031	-0,18
228,5	-0,18
228,969	-0,19
229,438	-0,17
229,906	-0,16
230,375	-0,15
230,844	-0,14
231,312	-0,14
231,781	-0,15
232,249	-0,14
232,718	-0,14
233,186	-0,12
233,655	-0,13
234,123	-0,12
234,591	-0,13
235,06	-0,13
235,528	-0,13
235,996	-0,13
236,465	-0,13
236,933	-0,12
237,401	-0,12
237,869	-0,11
238,337	-0,11
238,805	-0,1
239,274	-0,1
239,742	-0,09
240,21	-0,08
240,678	-0,08
241,146	-0,08
241,614	-0,07
242,081	-0,07
242,549	-0,07
243,017	-0,08
243,485	-0,09
243,953	-0,09
244,421	-0,09
244,888	-0,08
245,356	-0,08
245,824	-0,08
246,291	-0,08
246,759	-0,09
247,227	-0,1
247,694	-0,08
248,162	-0,07
248,629	-0,06
249,097	-0,07
249,564	-0,08
250,032	-0,09
250,499	-0,1
250,967	-0,11
251,434	-0,11
251,901	-0,1
252,369	-0,11
252,836	-0,12
253,303	-0,14
253,77	-0,15
254,237	-0,14
254,705	-0,15
255,172	-0,14
255,639	-0,15
256,106	-0,16
256,573	-0,16
257,04	-0,16
257,507	-0,17
257,974	-0,17
258,441	-0,15
258,908	-0,16
259,375	-0,17
259,841	-0,17
260,308	-0,17
260,775	-0,17
261,242	-0,16
261,709	-0,16
262,175	-0,17
262,642	-0,16
263,109	-0,16
263,575	-0,17
264,042	-0,15
264,508	-0,15
264,975	-0,16
265,441	-0,17
265,908	-0,17
266,374	-0,17
266,841	-0,18
267,307	-0,18
267,773	-0,18
268,24	-0,19
268,706	-0,19
269,172	-0,19
269,639	-0,21
270,105	-0,19
270,571	-0,2
271,037	-0,2
271,503	-0,21
271,969	-0,21
272,435	-0,2
272,902	-0,22
273,368	-0,22
273,834	-0,22
274,3	-0,23
274,765	-0,22
275,231	-0,22
275,697	-0,21
276,163	-0,22
276,629	-0,21
277,095	-0,22
277,56	-0,22
278,026	-0,22
278,492	-0,2
278,958	-0,2
279,423	-0,2
279,889	-0,2
280,354	-0,2
280,82	-0,21
281,286	-0,21
281,751	-0,21
282,217	-0,2
282,682	-0,19
283,147	-0,19
283,613	-0,2
284,078	-0,19
284,544	-0,19
285,009	-0,21
285,474	-0,2
285,939	-0,21
286,405	-0,2
286,87	-0,2
287,335	-0,2
287,8	-0,19
288,265	-0,18
288,73	-0,2
289,195	-0,22
289,66	-0,21
290,125	-0,19
290,59	-0,2
291,055	-0,19
291,52	-0,19
291,985	-0,21
292,45	-0,22
292,915	-0,22
293,38	-0,22
293,844	-0,2
294,309	-0,19
294,774	-0,18
295,239	-0,19
295,703	-0,19
296,168	-0,17
296,632	-0,17
297,097	-0,15
297,562	-0,13
298,026	-0,14
298,491	-0,14
298,955	-0,14
299,419	-0,14
299,884	-0,14
300,348	-0,13
300,813	-0,13
301,277	-0,14
301,741	-0,13
302,205	-0,13
302,67	-0,12
303,134	-0,12
303,598	-0,12
304,062	-0,11
304,526	-0,11
304,99	-0,12
305,454	-0,13
305,919	-0,12
306,383	-0,12
306,847	-0,12
307,31	-0,13
307,774	-0,14
308,238	-0,15
308,702	-0,14
309,166	-0,16
309,63	-0,15
310,094	-0,13
310,557	-0,12
311,021	-0,12
311,485	-0,12
311,948	-0,12
312,412	-0,11
312,876	-0,1
313,339	-0,1
313,803	-0,12
314,266	-0,11
314,73	-0,12
315,193	-0,12
315,657	-0,12
316,12	-0,12
316,584	-0,1
317,047	-0,1
317,51	-0,09
317,973	-0,09
318,437	-0,07
318,9	-0,06
319,363	-0,05
319,826	-0,03
320,29	-0,04
320,753	-0,04
321,216	-0,03
321,679	-0,04
322,142	-0,04
322,605	-0,06
323,068	-0,06
323,531	-0,06
323,994	-0,05
324,457	-0,05
324,92	-0,05
325,382	-0,05
325,845	-0,04
326,308	-0,03
326,771	-0,02
327,233	-0,01
327,696	0
328,159	0,02
328,622	0,03
329,084	0,03
329,547	0,03
330,009	0,04
330,472	0,06
330,934	0,06
331,397	0,06
331,859	0,07
332,322	0,06
332,784	0,06
333,246	0,07
333,709	0,06
334,171	0,07
334,633	0,08
335,096	0,07
335,558	0,07
336,02	0,08
336,482	0,07
336,944	0,08
337,406	0,09
337,868	0,1
338,331	0,1
338,793	0,11
339,255	0,11
339,717	0,12
340,178	0,12
340,64	0,13
341,102	0,13
341,564	0,15
342,026	0,16
342,488	0,17
342,949	0,18
343,411	0,21
343,873	0,24
344,335	0,27
344,796	0,31
345,258	0,35
345,719	0,39
346,181	0,43
346,643	0,47
347,104	0,5
347,566	0,52
348,027	0,55
348,488	0,57
348,95	0,59
349,411	0,61
349,873	0,63
350,334	0,65
350,795	0,66
351,256	0,67
351,718	0,68
352,179	0,69
352,64	0,69
353,101	0,69
353,562	0,7
354,023	0,7
354,484	0,7
354,945	0,7
355,406	0,71
355,867	0,71
356,328	0,71
356,789	0,71
357,25	0,71
357,711	0,72
358,172	0,72
358,633	0,72
359,093	0,72
359,554	0,72
360,015	0,72
360,476	0,72
360,936	0,72
361,397	0,73
361,858	0,73
362,318	0,73
362,779	0,73
363,239	0,73
363,7	0,73
364,16	0,73
364,621	0,73
365,081	0,73
365,541	0,73
366,002	0,73
366,462	0,73
366,922	0,73
367,383	0,73
367,843	0,73
368,303	0,73
368,763	0,73
369,223	0,73
369,684	0,73
370,144	0,73
370,604	0,73
371,064	0,73
371,524	0,73
371,984	0,73
372,444	0,73
372,904	0,73
373,363	0,73
373,823	0,73
374,283	0,73
374,743	0,73
375,203	0,73
375,663	0,73
376,122	0,72
376,582	0,73
377,042	0,72
377,501	0,72
377,961	0,72
378,42	0,72
378,88	0,72
379,34	0,72
379,799	0,72
380,259	0,72
380,718	0,72
381,177	0,72
381,637	0,72
382,096	0,72
382,555	0,72
383,015	0,72
383,474	0,72
383,933	0,72
384,393	0,72
384,852	0,72
385,311	0,72
385,77	0,72
386,229	0,72
386,688	0,72
387,147	0,72
387,606	0,72
388,065	0,72
388,524	0,72
388,983	0,72
389,442	0,72
389,901	0,72
390,36	0,71
390,819	0,71
391,277	0,71
391,736	0,71
392,195	0,71
392,654	0,71
393,112	0,71
393,571	0,71
394,03	0,71
394,488	0,71
394,947	0,71
395,405	0,71
395,864	0,71
396,322	0,71
396,781	0,71
397,239	0,71
397,698	0,71
398,156	0,71
398,614	0,71
399,073	0,71
399,531	0,71
399,989	0,71
400,447	0,71
400,905	0,71
401,364	0,71
401,822	0,71
402,28	0,71
402,738	0,71
403,196	0,71
403,654	0,71
404,112	0,71
404,57	0,71
405,028	0,7
405,486	0,7
405,944	0,7
406,402	0,7
406,859	0,7
407,317	0,7
407,775	0,7
408,233	0,7
408,691	0,7
409,148	0,7
409,606	0,7
410,064	0,7
410,521	0,7
410,979	0,7
411,436	0,7
411,894	0,7
412,351	0,7
412,809	0,7
413,266	0,7
413,724	0,7
414,181	0,7
414,638	0,7
415,096	0,7
415,553	0,7
416,01	0,7
416,467	0,7
416,925	0,7
417,382	0,7
417,839	0,7
418,296	0,7
418,753	0,7
419,21	0,7
419,667	0,7
420,124	0,7
420,581	0,7
421,038	0,7
421,495	0,7
421,952	0,7
422,409	0,7
422,866	0,7
423,322	0,7
423,779	0,7
424,236	0,7
424,693	0,7
425,149	0,7
425,606	0,7
426,063	0,7
426,519	0,7
426,976	0,7
427,433	0,7
427,889	0,7
428,346	0,7
428,802	0,7
429,258	0,7
429,715	0,7
430,171	0,7
430,628	0,7
431,084	0,7
431,54	0,7
431,997	0,7
432,453	0,7
432,909	0,7
433,365	0,69
433,821	0,69
434,277	0,69
434,734	0,69
435,19	0,69
435,646	0,69
436,102	0,69
436,558	0,69
437,014	0,69
437,47	0,69
437,925	0,69
438,381	0,69
438,837	0,7
439,293	0,7
439,749	0,7
440,205	0,7
440,66	0,7
441,116	0,7
441,572	0,7
442,027	0,7
442,483	0,7
442,939	0,7
443,394	0,7
443,85	0,7
444,305	0,7
444,761	0,7
445,216	0,7
445,672	0,7
446,127	0,7
446,582	0,7
447,038	0,7
447,493	0,7
447,948	0,7
448,403	0,7
448,859	0,7
449,314	0,7
449,769	0,7
450,224	0,7
450,679	0,7
451,134	0,7
451,589	0,7
452,044	0,7
452,499	0,7
452,954	0,7
453,409	0,7
453,864	0,7
454,319	0,7
454,774	0,7
455,229	0,7
455,684	0,7
456,138	0,7
456,593	0,7
457,048	0,7
457,503	0,7
457,957	0,7
458,412	0,7
458,866	0,7
459,321	0,7
459,776	0,7
460,23	0,71
460,685	0,71
461,139	0,71
461,593	0,71
462,048	0,71
462,502	0,71
462,957	0,71
463,411	0,71
463,865	0,71
464,319	0,71
464,774	0,71
465,228	0,71
465,682	0,71
466,136	0,72
466,59	0,72
467,044	0,72
467,499	0,72
467,953	0,72
468,407	0,72
468,861	0,72
469,315	0,72
469,768	0,72
470,222	0,72
470,676	0,72
471,13	0,72
471,584	0,72
472,038	0,72
472,491	0,72
472,945	0,73
473,399	0,73
473,852	0,73
474,306	0,73
474,76	0,73
475,213	0,73
475,667	0,73
476,12	0,73
476,574	0,73
477,027	0,74
477,481	0,74
477,934	0,74
478,388	0,74
478,841	0,74
479,294	0,74
479,748	0,75
480,201	0,75
480,654	0,75
481,107	0,75
481,561	0,75
482,014	0,75
482,467	0,75
482,92	0,76
483,373	0,76
483,826	0,76
484,279	0,76
484,732	0,76
485,185	0,77
485,638	0,77
486,091	0,77
486,544	0,77
486,997	0,77
487,449	0,78
487,902	0,78
488,355	0,78
488,808	0,78
489,26	0,79
489,713	0,79
490,166	0,79
490,618	0,79
491,071	0,8
491,523	0,8
491,976	0,8
492,429	0,8
492,881	0,81
493,333	0,81
493,786	0,81
494,238	0,81
494,691	0,82
495,143	0,82
495,595	0,82
496,048	0,83
496,5	0,83
496,952	0,83
497,404	0,84
497,856	0,84
498,309	0,84
498,761	0,85
499,213	0,85
499,665	0,85
500,117	0,86
500,569	0,86
501,021	0,86
501,473	0,87
501,925	0,87
502,377	0,88
502,828	0,88
503,28	0,88
503,732	0,89
504,184	0,89
504,636	0,89
505,087	0,9
505,539	0,9
505,991	0,9
506,442	0,91
506,894	0,91
507,345	0,92
507,797	0,92
508,249	0,92
508,7	0,93
509,151	0,93
509,603	0,93
510,054	0,94
510,506	0,94
510,957	0,95
511,408	0,95
511,86	0,95
512,311	0,95
512,762	0,96
513,213	0,96
513,665	0,96
514,116	0,97
514,567	0,97
515,018	0,97
515,469	0,98
515,92	0,98
516,371	0,98
516,822	0,99
517,273	0,99
517,724	0,99
518,175	1
518,626	1
519,076	1
519,527	1
519,978	1
520,429	1,01
520,88	1,01
521,33	1,01
521,781	1,01
522,232	1,01
522,682	1,02
523,133	1,02
523,583	1,02
524,034	1,02
524,484	1,02
524,935	1,02
525,385	1,02
525,836	1,02
526,286	1,02
526,736	1,02
527,187	1,02
527,637	1,02
528,087	1,02
528,538	1,02
528,988	1,02
529,438	1,02
529,888	1,02
530,338	1,02
530,788	1,02
531,238	1,01
531,688	1,01
532,139	1,01
532,589	1,01
533,038	1,01
533,488	1,01
533,938	1
534,388	1
534,838	1
535,288	1
535,738	0,99
536,187	0,99
536,637	0,99
537,087	0,98
537,537	0,98
537,986	0,98
538,436	0,97
538,885	0,97
539,335	0,97
539,785	0,96
540,234	0,96
540,684	0,95
541,133	0,95
541,582	0,95
542,032	0,94
542,481	0,94
542,931	0,93
543,38	0,93
543,829	0,92
544,278	0,92
544,728	0,91
545,177	0,91
545,626	0,91
546,075	0,9
546,524	0,9
546,973	0,89
547,422	0,89
547,871	0,89
548,32	0,88
548,769	0,88
549,218	0,88
549,667	0,88
550,116	0,87
550,565	0,87
551,014	0,86
551,463	0,86
551,911	0,86
552,36	0,85
552,809	0,85
553,258	0,84
553,706	0,84
554,155	0,84
554,603	0,83
555,052	0,83
555,501	0,82
555,949	0,82
556,398	0,82
556,846	0,81
557,294	0,81
557,743	0,8
558,191	0,8
558,64	0,79
559,088	0,79
559,536	0,78
559,985	0,78
560,433	0,77
560,881	0,77
561,329	0,77
561,777	0,76
562,225	0,76
562,674	0,75
563,122	0,75
563,57	0,75
564,018	0,74
564,466	0,74
564,914	0,74
565,362	0,73
565,809	0,73
566,257	0,73
566,705	0,72
567,153	0,72
567,601	0,72
568,048	0,71
568,496	0,71
568,944	0,7
569,392	0,7
569,839	0,7
570,287	0,69
570,734	0,69
571,182	0,69
571,63	0,68
572,077	0,68
572,525	0,68
572,972	0,67
573,419	0,67
573,867	0,67
574,314	0,66
574,761	0,66
575,209	0,66
575,656	0,65
576,103	0,65
576,551	0,65
576,998	0,65
577,445	0,64
577,892	0,64
578,339	0,64
578,786	0,64
579,233	0,63
579,68	0,63
580,127	0,63
580,574	0,62
581,021	0,62
581,468	0,62
581,915	0,62
582,362	0,61
582,809	0,61
583,255	0,61
583,702	0,61
584,149	0,61
584,596	0,6
585,042	0,6
585,489	0,6
585,936	0,6
586,382	0,6
586,829	0,59
587,275	0,59
587,722	0,59
588,168	0,59
588,615	0,59
589,061	0,58
589,508	0,58
589,954	0,58
590,4	0,58
590,847	0,58
591,293	0,57
591,739	0,57
592,185	0,57
592,632	0,57
593,078	0,57
593,524	0,57
593,97	0,57
594,416	0,56
594,862	0,56
595,308	0,56
595,754	0,56
596,2	0,56
596,646	0,56
597,092	0,56
597,538	0,56
597,984	0,55
598,43	0,55
598,876	0,55
599,321	0,55
599,767	0,55
600,213	0,55
600,659	0,55
601,104	0,55
601,55	0,54
601,995	0,54
602,441	0,54
602,887	0,54
603,332	0,54
603,778	0,54
604,223	0,54
604,668	0,54
605,114	0,53
605,559	0,53
606,005	0,53
606,45	0,53
606,895	0,53
607,341	0,53
607,786	0,53
608,231	0,53
608,676	0,52
609,121	0,52
609,566	0,51
610,012	0,51
610,457	0,5
610,902	0,5
611,347	0,5
611,792	0,5
612,237	0,49
612,682	0,49
613,127	0,49
613,571	0,49
614,016	0,5
614,461	0,5
614,906	0,5
615,351	0,5
615,795	0,5
616,24	0,5
616,685	0,5
617,129	0,5
617,574	0,5
618,019	0,5
618,463	0,5
618,908	0,5
619,352	0,5
619,797	0,5
620,241	0,5
620,686	0,5
621,13	0,5
621,574	0,5
622,019	0,5
622,463	0,5
622,907	0,49
623,352	0,49
623,796	0,49
624,24	0,49
624,684	0,49
625,128	0,49
625,572	0,49
626,016	0,49
626,461	0,49
626,905	0,49
627,349	0,49
627,793	0,49
628,236	0,49
628,68	0,49
629,124	0,49
629,568	0,49
630,012	0,49
630,456	0,49
630,9	0,49
631,343	0,49
631,787	0,49
632,231	0,49
632,674	0,49
633,118	0,49
633,562	0,49
634,005	0,49
634,449	0,49
634,892	0,49
635,336	0,49
635,779	0,49
636,223	0,48
636,666	0,48
637,109	0,48
637,553	0,48
637,996	0,48
638,439	0,48
638,883	0,48
639,326	0,48
639,769	0,48
640,212	0,48
640,655	0,48
641,099	0,48
641,542	0,48
641,985	0,48
642,428	0,48
642,871	0,48
643,314	0,47
643,757	0,47
644,2	0,47
644,643	0,47
645,085	0,47
645,528	0,47
645,971	0,47
646,414	0,47
646,857	0,47
647,299	0,47
647,742	0,47
648,185	0,47
648,627	0,47
649,07	0,47
649,513	0,47
649,955	0,47
650,398	0,47
650,84	0,47
651,283	0,47
651,725	0,47
652,168	0,47
652,61	0,47
653,052	0,47
653,495	0,47
653,937	0,39
654,379	0,33
654,821	0,33
655,264	0,33
655,706	0,33
656,148	0,33
656,59	0,33
657,032	0,33
657,474	0,33
657,916	0,33
658,358	0,33
658,8	0,39
659,242	0,47
659,684	0,47
660,126	0,47
660,568	0,47
661,01	0,47
661,452	0,47
661,894	0,46
662,335	0,46
662,777	0,46
663,219	0,46
663,661	0,46
664,102	0,46
664,544	0,46
664,985	0,46
665,427	0,46
665,869	0,46
666,31	0,46
666,752	0,46
667,193	0,46
667,634	0,46
668,076	0,46
668,517	0,46
668,959	0,46
669,4	0,46
669,841	0,46
670,282	0,46
670,724	0,46
671,165	0,46
671,606	0,46
672,047	0,46
672,488	0,46
672,929	0,46
673,37	0,46
673,811	0,46
674,252	0,46
674,693	0,46
675,134	0,46
675,575	0,45
676,016	0,45
676,457	0,45
676,898	0,45
677,339	0,45
677,78	0,45
678,22	0,45
678,661	0,45
679,102	0,45
679,542	0,45
679,983	0,45
680,424	0,45
680,864	0,45
681,305	0,45
681,745	0,45
682,186	0,45
682,626	0,45
683,067	0,45
683,507	0,45
683,948	0,45
684,388	0,45
684,828	0,45
685,269	0,45
685,709	0,45
686,149	0,45
686,589	0,45
687,029	0,45
687,47	0,45
687,91	0,45
688,35	0,45
688,79	0,45
689,23	0,45
689,67	0,45
690,11	0,44
690,55	0,44
690,99	0,44
691,43	0,44
691,87	0,44
692,31	0,44
692,749	0,44
693,189	0,44
693,629	0,44
694,069	0,44
694,508	0,44
694,948	0,44
695,388	0,44
695,827	0,44
696,267	0,44
696,706	0,44
697,146	0,44
697,586	0,44
698,025	0,44
698,464	0,44
698,904	0,44
699,343	0,44
699,783	0,44
700,222	0,44
700,661	0,44
701,101	0,44
701,54	0,44
701,979	0,44
702,418	0,44
702,857	0,44
703,297	0,44
703,736	0,44
704,175	0,44
704,614	0,44
705,053	0,44
705,492	0,44
705,931	0,44
706,37	0,44
706,809	0,44
707,248	0,44
707,687	0,44
708,125	0,44
708,564	0,44
709,003	0,44
709,442	0,44
709,88	0,44
710,319	0,44
710,758	0,44
711,196	0,43
711,635	0,43
712,074	0,43
712,512	0,43
712,951	0,43
713,389	0,43
713,828	0,43
714,266	0,43
714,705	0,43
715,143	0,43
715,581	0,43
716,02	0,43
716,458	0,43
716,896	0,43
717,334	0,43
717,773	0,43
718,211	0,43
718,649	0,43
719,087	0,43
719,525	0,43
719,963	0,43
720,401	0,43
720,839	0,43
721,277	0,43
721,715	0,43
722,153	0,43
722,591	0,43
723,029	0,43
723,467	0,43
723,905	0,43
724,342	0,43
724,78	0,43
725,218	0,43
725,656	0,43
726,093	0,43
726,531	0,43
726,969	0,43
727,406	0,43
727,844	0,43
728,281	0,43
728,719	0,43
729,156	0,43
729,594	0,43
730,031	0,43
730,469	0,43
730,906	0,43
731,343	0,43
731,781	0,43
732,218	0,43
732,655	0,42
733,092	0,42
733,53	0,42
733,967	0,42
734,404	0,42
734,841	0,42
735,278	0,42
735,715	0,42
736,152	0,42
736,589	0,42
737,026	0,41
737,463	0,41
737,9	0,41
738,337	0,41
738,774	0,41
739,211	0,41
739,647	0,41
740,084	0,41
740,521	0,41
740,958	0,41
741,394	0,41
741,831	0,41
742,268	0,41
742,704	0,41
743,141	0,41
743,577	0,41
744,014	0,41
744,45	0,41
744,887	0,41
745,323	0,41
745,76	0,41
746,196	0,41
746,632	0,41
747,069	0,41
747,505	0,4
747,941	0,4
748,378	0,4
748,814	0,4
749,25	0,41
749,686	0,41
750,122	0,41
750,558	0,41
750,994	0,41
751,43	0,41
751,866	0,41
752,302	0,42
752,738	0,42
753,174	0,42
753,61	0,42
754,046	0,42
754,482	0,42
754,918	0,42
755,354	0,42
755,789	0,42
756,225	0,42
756,661	0,41
757,096	0,41
757,532	0,41
757,968	0,41
758,403	0,41
758,839	0,4
759,274	0,4
759,71	0,4
760,145	0,39
760,581	0,39
761,016	0,38
761,452	0,38
761,887	0,37
762,322	0,37
762,758	0,37
763,193	0,36
763,628	0,36
764,063	0,35
764,499	0,34
764,934	0,34
765,369	0,33
765,804	0,33
766,239	0,32
766,674	0,31
767,109	0,3
767,544	0,3
767,979	0,29
768,414	0,28
768,849	0,27
769,284	0,27
769,719	0,26
770,154	0,25
770,588	0,24
771,023	0,23
771,458	0,22
771,893	0,21
772,327	0,19
772,762	0,19
773,197	0,18
773,631	0,17
774,066	0,16
774,5	0,15
774,935	0,14
775,369	0,13
775,804	0,12
776,238	0,11
776,673	0,1
777,107	0,09
777,541	0,08
777,976	0,06
778,41	0,06
778,844	0,05
779,279	0,04
779,713	0,03
780,147	0,01
780,581	0,01
781,015	-0
781,449	-0,01
781,883	-0,02
782,317	-0,03
782,751	-0,03
783,185	-0,04
783,619	-0,05
784,053	-0,05
784,487	-0,06
784,921	-0,07
785,355	-0,08
785,789	-0,09
786,223	-0,1
786,656	-0,11
787,09	-0,13
787,524	-0,13
787,957	-0,14
788,391	-0,16
788,825	-0,18
789,258	-0,19
789,692	-0,2
790,125	-0,22
790,559	-0,23
790,992	-0,25
791,426	-0,27
791,859	-0,28
792,293	-0,31
792,726	-0,33
793,159	-0,35
793,593	-0,37
794,026	-0,39
794,459	-0,42
794,892	-0,45
795,326	-0,48
795,759	-0,51
796,192	-0,56
796,625	-0,6
797,058	-0,63
797,491	-0,67
797,924	-0,71
798,357	-0,76
798,79	-0,8
799,223	-0,84
799,656	-0,9
800,089	-0,95
800,522	-0,99
800,955	-1,03
801,387	-1,09
801,82	-1,14
802,253	-1,2
802,686	-1,28
803,118	-1,34
803,551	-1,39
803,984	-1,43
804,416	-1,47
804,849	-1,5
805,281	-1,61
805,714	-1,96
806,146	-2,43
806,579	-2,7
807,011	-2,86
807,444	-2,96
807,876	-3,05
808,308	-3,08
808,741	-3,11
809,173	-3,16
809,605	-3,18
810,037	-3,26
810,47	-3,18
810,902	-2,99
811,334	-2,84
811,766	-2,69
812,198	-2,45
812,63	-2,02
813,062	-1,79
813,494	-1,69
813,926	-1,6
814,358	-1,55
814,79	-1,47
815,222	-1,41
815,654	-1,36
816,086	-1,3
816,518	-1,24
816,949	-1,19
817,381	-1,15
817,813	-1,13
818,245	-1,09
818,676	-1,05
819,108	-1,01
819,54	-1
819,971	-0,97
820,403	-0,92
820,834	-0,91
821,266	-0,86
821,697	-0,84
822,129	-0,82
822,56	-0,8
822,991	-0,78
823,423	-0,75
823,854	-0,75
824,286	-0,72
824,717	-0,71
825,148	-0,69
825,579	-0,68
826,01	-0,67
826,442	-0,67
826,873	-0,66
827,304	-0,62
827,735	-0,61
828,166	-0,61
828,597	-0,61
829,028	-0,6
829,459	-0,62
829,89	-0,62
830,321	-0,57
830,752	-0,58
831,183	-0,57
831,613	-0,55
832,044	-0,56
832,475	-0,55
832,906	-0,56
833,336	-0,57
833,767	-0,56
834,198	-0,55
834,628	-0,53
835,059	-0,56
835,49	-0,57
835,92	-0,54
836,351	-0,54
836,781	-0,54
837,212	-0,54
837,642	-0,54
838,072	-0,52
838,503	-0,53
838,933	-0,51
839,364	-0,53
839,794	-0,5
840,224	-0,49
840,654	-0,53
841,085	-0,53
841,515	-0,51
841,945	-0,52
842,375	-0,47
842,805	-0,46
843,235	-0,45
843,665	-0,46
844,095	-0,44
844,525	-0,47
844,955	-0,48
845,385	-0,46
845,815	-0,44
846,245	-0,46
846,675	-0,47
847,105	-0,49
847,534	-0,49
847,964	-0,48
848,394	-0,46
848,824	-0,49
849,253	-0,48
849,683	-0,47
850,112	-0,48
850,542	-0,51
850,972	-0,51
851,401	-0,5
851,831	-0,47
852,26	-0,48
852,69	-0,51
853,119	-0,51
853,548	-0,52
853,978	-0,52
854,407	-0,51
854,836	-0,51
855,266	-0,51
855,695	-0,53
856,124	-0,54
856,553	-0,55
856,983	-0,57
857,412	-0,57
857,841	-0,58
858,27	-0,59
858,699	-0,59
859,128	-0,62
859,557	-0,63
859,986	-0,64
860,415	-0,61
860,844	-0,57
861,273	-0,58
861,702	-0,58
862,13	-0,55
862,559	-0,58
862,988	-0,55
863,417	-0,55
863,845	-0,54
864,274	-0,54
864,703	-0,54
865,131	-0,55
865,56	-0,57
865,989	-0,59
866,417	-0,56
866,846	-0,57
867,274	-0,55
867,703	-0,57
868,131	-0,59
868,559	-0,58
868,988	-0,61
869,416	-0,59
869,844	-0,6
870,273	-0,62
870,701	-0,6
871,129	-0,65
871,557	-0,68
871,986	-0,68
872,414	-0,69
872,842	-0,66
873,27	-0,64
873,698	-0,61
874,126	-0,65
874,554	-0,63
874,982	-0,63
875,41	-0,66
875,838	-0,61
876,266	-0,59
876,694	-0,59
877,122	-0,58
877,549	-0,62
877,977	-0,59
878,405	-0,61
878,833	-0,57
879,26	-0,56
879,688	-0,56
880,116	-0,53
880,543	-0,51
880,971	-0,49
881,399	-0,51
881,826	-0,53
882,254	-0,51
882,681	-0,55
883,109	-0,51
883,536	-0,53
883,963	-0,55
884,391	-0,54
884,818	-0,53
885,245	-0,56
885,673	-0,59
886,1	-0,56
886,527	-0,56
886,954	-0,53
887,381	-0,55
887,809	-0,57
888,236	-0,59
888,663	-0,6
889,09	-0,63
889,517	-0,66
889,944	-0,65
890,371	-0,64
890,798	-0,65
891,225	-0,64
891,652	-0,66
892,078	-0,64
892,505	-0,66
892,932	-0,62
893,359	-0,62
893,786	-0,61
894,212	-0,57
894,639	-0,59
895,066	-0,61
895,492	-0,55
895,919	-0,55
896,346	-0,56
896,772	-0,55
897,199	-0,53
897,625	-0,56
898,052	-0,52
898,478	-0,51
898,904	-0,52
899,331	-0,52
899,757	-0,53
900,183	-0,55
900,61	-0,53
901,036	-0,53
901,462	-0,53
901,888	-0,53
902,315	-0,51
902,741	-0,56
903,167	-0,55
903,593	-0,58
904,019	-0,56
904,445	-0,52
904,871	-0,55
905,297	-0,57
905,723	-0,57
906,149	-0,56
906,575	-0,56
907,001	-0,57
907,427	-0,54
907,852	-0,54
908,278	-0,55
908,704	-0,54
909,13	-0,53
909,555	-0,53
909,981	-0,52
910,407	-0,53
910,832	-0,53
911,258	-0,53
911,684	-0,52
912,109	-0,53
912,535	-0,54
912,96	-0,5
913,386	-0,54
913,811	-0,53
914,236	-0,55
914,662	-0,53
915,087	-0,56
915,512	-0,55
915,938	-0,57
916,363	-0,56
916,788	-0,58
917,213	-0,56
917,639	-0,61
918,064	-0,58
918,489	-0,59
918,914	-0,58
919,339	-0,59
919,764	-0,56
920,189	-0,57
920,614	-0,59
921,039	-0,6
921,464	-0,56
921,889	-0,58
922,314	-0,59
922,738	-0,62
923,163	-0,64
923,588	-0,64
924,013	-0,63
924,437	-0,63
924,862	-0,64
925,287	-0,6
925,711	-0,61
926,136	-0,62
926,561	-0,6
926,985	-0,58
927,41	-0,55
927,834	-0,53
928,259	-0,5
928,683	-0,48
929,108	-0,46
929,532	-0,47
929,956	-0,47
930,381	-0,46
930,805	-0,46
931,229	-0,46
931,653	-0,44
932,078	-0,44
932,502	-0,45
932,926	-0,46
933,35	-0,46
933,774	-0,45
934,198	-0,43
934,622	-0,42
935,046	-0,42
935,47	-0,43
935,894	-0,42
936,318	-0,43
936,742	-0,42
937,166	-0,42
937,59	-0,42
938,014	-0,44
938,437	-0,45
938,861	-0,46
939,285	-0,47
939,709	-0,47
940,132	-0,47
940,556	-0,47
940,98	-0,46
941,403	-0,45
941,827	-0,45
942,25	-0,48
942,674	-0,47
943,097	-0,47
943,521	-0,47
943,944	-0,47
944,368	-0,47
944,791	-0,46
945,214	-0,48
945,638	-0,49
946,061	-0,52
946,484	-0,53
946,907	-0,52
947,331	-0,51
947,754	-0,55
948,177	-0,52
948,6	-0,52
949,023	-0,52
949,446	-0,52
949,869	-0,49
950,292	-0,5
950,715	-0,46
951,138	-0,44
951,561	-0,42
951,984	-0,43
952,407	-0,41
952,83	-0,4
953,252	-0,36
953,675	-0,36
954,098	-0,36
954,521	-0,35
954,943	-0,34
955,366	-0,35
955,789	-0,34
956,211	-0,35
956,634	-0,37
957,056	-0,34
957,479	-0,35
957,902	-0,37
958,324	-0,37
958,746	-0,36
959,169	-0,37
959,591	-0,38
960,014	-0,39
960,436	-0,38
960,858	-0,38
961,281	-0,37
961,703	-0,39
962,125	-0,38
962,547	-0,36
962,969	-0,37
963,391	-0,37
963,814	-0,38
964,236	-0,37
964,658	-0,34
965,08	-0,35
965,502	-0,34
965,924	-0,31
966,346	-0,31
966,768	-0,3
967,189	-0,32
967,611	-0,31
968,033	-0,31
968,455	-0,29
968,877	-0,29
969,298	-0,3
969,72	-0,31
970,142	-0,3
970,563	-0,3
970,985	-0,29
971,407	-0,29
971,828	-0,26
972,25	-0,26
972,671	-0,25
973,093	-0,24
973,514	-0,23
973,936	-0,22
974,357	-0,21
974,778	-0,21
975,2	-0,21
975,621	-0,2
976,042	-0,18
976,464	-0,17
976,885	-0,16
977,306	-0,16
977,727	-0,15
978,148	-0,15
978,57	-0,13
978,991	-0,12
979,412	-0,11
979,833	-0,1
980,254	-0,09
980,675	-0,09
981,096	-0,08
981,517	-0,07
981,937	-0,06
982,358	-0,05
982,779	-0,03
983,2	-0,03
983,621	-0,02
984,042	-0,01
984,462	0
984,883	0,02
985,304	0,03
985,724	0,05
986,145	0,06
986,565	0,08
986,986	0,09
987,407	0,1
987,827	0,11
988,248	0,13
988,668	0,13
989,088	0,14
989,509	0,16
989,929	0,17
990,35	0,18
990,77	0,19
991,19	0,19
991,61	0,21
992,031	0,21
992,451	0,22
992,871	0,23
993,291	0,25
993,711	0,26
994,131	0,26
994,551	0,27
994,971	0,28
995,391	0,28
995,811	0,29
996,231	0,29
996,651	0,3
997,071	0,31
997,491	0,31
997,911	0,32
998,331	0,33
998,75	0,33
999,17	0,34
999,59	0,34
1000,009	0,35
1000,429	0,35
1000,849	0,36
1001,268	0,36
1001,688	0,37
1002,107	0,37
1002,527	0,38
1002,946	0,38
1003,366	0,38
1003,785	0,39
1004,205	0,39
1004,624	0,39
1005,044	0,39
1005,463	0,4
1005,882	0,4
1006,301	0,4
1006,721	0,4
1007,14	0,4
1007,559	0,4
1007,978	0,4
1008,397	0,4
1008,816	0,4
1009,235	0,4
1009,655	0,4
1010,074	0,4
1010,492	0,4
1010,911	0,4
1011,33	0,4
1011,749	0,4
1012,168	0,4
1012,587	0,4
1013,006	0,4
1013,425	0,4
1013,843	0,39
1014,262	0,39
1014,681	0,39
1015,099	0,39
1015,518	0,39
1015,937	0,39
1016,355	0,39
1016,774	0,39
1017,192	0,39
1017,611	0,39
1018,029	0,39
1018,448	0,39
1018,866	0,39
1019,285	0,39
1019,703	0,39
1020,121	0,39
1020,54	0,39
1020,958	0,39
1021,376	0,39
1021,794	0,39
1022,213	0,39
1022,631	0,39
1023,049	0,39
1023,467	0,39
1023,885	0,39
1024,303	0,38
1024,721	0,38
1025,139	0,38
1025,557	0,38
1025,975	0,38
1026,393	0,38
1026,811	0,38
1027,229	0,38
1027,647	0,38
1028,065	0,38
1028,482	0,38
1028,9	0,38
1029,318	0,38
1029,735	0,38
1030,153	0,38
1030,571	0,38
1030,988	0,38
1031,406	0,38
1031,823	0,38
1032,241	0,38
1032,659	0,38
1033,076	0,38
1033,493	0,38
1033,911	0,38
1034,328	0,38
1034,746	0,38
1035,163	0,38
1035,58	0,38
1035,997	0,38
1036,415	0,38
1036,832	0,38
1037,249	0,38
1037,666	0,38
1038,083	0,38
1038,501	0,38
1038,918	0,38
1039,335	0,38
1039,752	0,38
1040,169	0,38
1040,586	0,38
1041,003	0,38
1041,419	0,38
1041,836	0,38
1042,253	0,38
1042,67	0,38
1043,087	0,38
1043,504	0,38
1043,92	0,38
1044,337	0,38
1044,754	0,38
1045,17	0,38
1045,587	0,38
1046,004	0,37
1046,42	0,38
1046,837	0,38
1047,253	0,38
1047,67	0,38
1048,086	0,38
1048,503	0,38
1048,919	0,38
1049,335	0,38
1049,752	0,38
1050,168	0,38
1050,584	0,38
1051,001	0,38
1051,417	0,38
1051,833	0,38
1052,249	0,38
1052,665	0,38
1053,081	0,38
1053,497	0,38
1053,914	0,38
1054,33	0,38
1054,746	0,39
1055,162	0,39
1055,578	0,39
1055,993	0,39
1056,409	0,39
1056,825	0,39
1057,241	0,39
1057,657	0,39
1058,073	0,39
1058,488	0,39
1058,904	0,39
1059,32	0,39
1059,736	0,39
1060,151	0,39
1060,567	0,39
1060,982	0,39
1061,398	0,39
1061,813	0,39
1062,229	0,38
1062,644	0,38
1063,06	0,38
1063,475	0,38
1063,891	0,38
1064,306	0,38
1064,721	0,38
1065,137	0,38
1065,552	0,38
1065,967	0,38
1066,382	0,38
1066,798	0,38
1067,213	0,38
1067,628	0,38
1068,043	0,38
1068,458	0,38
1068,873	0,38
1069,288	0,38
1069,703	0,38
1070,118	0,38
1070,533	0,38
1070,948	0,38
1071,363	0,38
1071,778	0,38
1072,193	0,38
1072,607	0,38
1073,022	0,38
1073,437	0,38
1073,852	0,38
1074,266	0,38
1074,681	0,38
1075,096	0,38
1075,51	0,38
1075,925	0,38
1076,339	0,38
1076,754	0,38
1077,168	0,38
1077,583	0,38
1077,997	0,38
1078,412	0,38
1078,826	0,38
1079,24	0,38
1079,655	0,37
1080,069	0,37
1080,483	0,38
1080,897	0,37
1081,312	0,38
1081,726	0,38
1082,14	0,37
1082,554	0,37
1082,968	0,37
1083,382	0,37
1083,796	0,37
1084,21	0,37
1084,624	0,37
1085,038	0,37
1085,452	0,37
1085,866	0,37
1086,28	0,36
1086,694	0,36
1087,108	0,36
1087,521	0,36
1087,935	0,36
1088,349	0,36
1088,763	0,36
1089,176	0,35
1089,59	0,35
1090,004	0,35
1090,417	0,34
1090,831	0,34
1091,244	0,34
1091,658	0,33
1092,071	0,33
1092,485	0,33
1092,898	0,33
1093,312	0,32
1093,725	0,32
1094,138	0,32
1094,552	0,32
1094,965	0,31
1095,378	0,32
1095,791	0,31
1096,205	0,31
1096,618	0,31
1097,031	0,3
1097,444	0,3
1097,857	0,3
1098,27	0,3
1098,683	0,3
1099,096	0,29
1099,509	0,29
1099,922	0,29
1100,335	0,28
1100,748	0,28
1101,161	0,27
1101,574	0,27
1101,986	0,26
1102,399	0,26
1102,812	0,26
1103,225	0,25
1103,637	0,25
1104,05	0,24
1104,463	0,24
1104,875	0,24
1105,288	0,24
1105,7	0,24
1106,113	0,23
1106,525	0,23
1106,938	0,23
1107,35	0,22
1107,763	0,22
1108,175	0,22
1108,588	0,22
1109	0,21
1109,412	0,21
1109,824	0,21
1110,237	0,21
1110,649	0,22
1111,061	0,22
