Data from 18C-808nm-8A-cont_Absorbance__423__01852.txt Node

Date: Mon Jul 17 17:34:13 CEST 2023
User: Laser008
Spectrometer: MAYP115816
Trigger mode: 0
Integration Time (sec): 2,500000E-1
Scans to average: 10
Electric dark correction enabled: true
Nonlinearity correction enabled: true
Boxcar width: 5
XAxis mode: Wavelengths
Number of Pixels in Spectrum: 2068
>>>>>Begin Spectral Data<<<<<
198,914	-0,69
199,384	-0,48
199,855	-0,34
200,325	-0,27
200,796	-0,25
201,266	-0,2
201,737	-0,19
202,207	-0,17
202,677	-0,16
203,147	-0,15
203,618	-0,11
204,088	-0,1
204,558	-0,08
205,028	-0,07
205,498	-0,07
205,968	-0,07
206,439	-0,08
206,909	-0,07
207,379	-0,08
207,849	-0,09
208,319	-0,09
208,789	-0,11
209,258	-0,1
209,728	-0,12
210,198	-0,12
210,668	-0,12
211,138	-0,11
211,608	-0,1
212,077	-0,1
212,547	-0,1
213,017	-0,1
213,486	-0,1
213,956	-0,09
214,426	-0,1
214,895	-0,1
215,365	-0,11
215,834	-0,12
216,304	-0,13
216,773	-0,14
217,243	-0,15
217,712	-0,16
218,181	-0,15
218,651	-0,15
219,12	-0,15
219,589	-0,16
220,058	-0,14
220,528	-0,15
220,997	-0,16
221,466	-0,17
221,935	-0,17
222,404	-0,16
222,873	-0,15
223,342	-0,16
223,812	-0,17
224,281	-0,17
224,749	-0,17
225,218	-0,18
225,687	-0,18
226,156	-0,17
226,625	-0,15
227,094	-0,16
227,563	-0,16
228,031	-0,18
228,5	-0,17
228,969	-0,18
229,438	-0,17
229,906	-0,16
230,375	-0,16
230,844	-0,16
231,312	-0,16
231,781	-0,17
232,249	-0,16
232,718	-0,16
233,186	-0,14
233,655	-0,14
234,123	-0,14
234,591	-0,14
235,06	-0,14
235,528	-0,15
235,996	-0,14
236,465	-0,14
236,933	-0,13
237,401	-0,13
237,869	-0,12
238,337	-0,12
238,805	-0,11
239,274	-0,11
239,742	-0,1
240,21	-0,09
240,678	-0,08
241,146	-0,07
241,614	-0,07
242,081	-0,07
242,549	-0,07
243,017	-0,09
243,485	-0,09
243,953	-0,09
244,421	-0,08
244,888	-0,09
245,356	-0,09
245,824	-0,09
246,291	-0,09
246,759	-0,1
247,227	-0,1
247,694	-0,09
248,162	-0,08
248,629	-0,06
249,097	-0,08
249,564	-0,09
250,032	-0,1
250,499	-0,1
250,967	-0,11
251,434	-0,12
251,901	-0,12
252,369	-0,13
252,836	-0,14
253,303	-0,15
253,77	-0,17
254,237	-0,16
254,705	-0,16
255,172	-0,15
255,639	-0,15
256,106	-0,16
256,573	-0,15
257,04	-0,15
257,507	-0,15
257,974	-0,16
258,441	-0,14
258,908	-0,14
259,375	-0,15
259,841	-0,17
260,308	-0,17
260,775	-0,17
261,242	-0,17
261,709	-0,18
262,175	-0,18
262,642	-0,17
263,109	-0,17
263,575	-0,19
264,042	-0,18
264,508	-0,17
264,975	-0,18
265,441	-0,19
265,908	-0,2
266,374	-0,19
266,841	-0,19
267,307	-0,19
267,773	-0,19
268,24	-0,19
268,706	-0,19
269,172	-0,2
269,639	-0,21
270,105	-0,19
270,571	-0,19
271,037	-0,19
271,503	-0,2
271,969	-0,19
272,435	-0,2
272,902	-0,21
273,368	-0,22
273,834	-0,21
274,3	-0,21
274,765	-0,21
275,231	-0,22
275,697	-0,21
276,163	-0,2
276,629	-0,2
277,095	-0,21
277,56	-0,19
278,026	-0,2
278,492	-0,18
278,958	-0,17
279,423	-0,18
279,889	-0,17
280,354	-0,17
280,82	-0,18
281,286	-0,21
281,751	-0,21
282,217	-0,21
282,682	-0,21
283,147	-0,21
283,613	-0,22
284,078	-0,24
284,544	-0,24
285,009	-0,25
285,474	-0,25
285,939	-0,26
286,405	-0,23
286,87	-0,23
287,335	-0,22
287,8	-0,22
288,265	-0,2
288,73	-0,21
289,195	-0,23
289,66	-0,24
290,125	-0,23
290,59	-0,22
291,055	-0,22
291,52	-0,22
291,985	-0,22
292,45	-0,24
292,915	-0,23
293,38	-0,24
293,844	-0,22
294,309	-0,2
294,774	-0,19
295,239	-0,2
295,703	-0,2
296,168	-0,2
296,632	-0,18
297,097	-0,17
297,562	-0,15
298,026	-0,15
298,491	-0,16
298,955	-0,15
299,419	-0,15
299,884	-0,15
300,348	-0,14
300,813	-0,13
301,277	-0,14
301,741	-0,16
302,205	-0,16
302,67	-0,16
303,134	-0,16
303,598	-0,15
304,062	-0,15
304,526	-0,15
304,99	-0,15
305,454	-0,16
305,919	-0,15
306,383	-0,14
306,847	-0,12
307,31	-0,13
307,774	-0,14
308,238	-0,14
308,702	-0,14
309,166	-0,15
309,63	-0,15
310,094	-0,13
310,557	-0,13
311,021	-0,13
311,485	-0,13
311,948	-0,13
312,412	-0,12
312,876	-0,11
313,339	-0,11
313,803	-0,12
314,266	-0,11
314,73	-0,11
315,193	-0,12
315,657	-0,11
316,12	-0,11
316,584	-0,1
317,047	-0,1
317,51	-0,08
317,973	-0,08
318,437	-0,07
318,9	-0,06
319,363	-0,05
319,826	-0,04
320,29	-0,03
320,753	-0,04
321,216	-0,03
321,679	-0,04
322,142	-0,03
322,605	-0,05
323,068	-0,05
323,531	-0,05
323,994	-0,04
324,457	-0,04
324,92	-0,03
325,382	-0,03
325,845	-0,02
326,308	-0,02
326,771	-0,01
327,233	-0,01
327,696	0,01
328,159	0,01
328,622	0,02
329,084	0,01
329,547	0,01
330,009	0,02
330,472	0,04
330,934	0,03
331,397	0,04
331,859	0,05
332,322	0,05
332,784	0,06
333,246	0,06
333,709	0,06
334,171	0,08
334,633	0,07
335,096	0,07
335,558	0,07
336,02	0,08
336,482	0,08
336,944	0,09
337,406	0,1
337,868	0,1
338,331	0,1
338,793	0,11
339,255	0,11
339,717	0,12
340,178	0,13
340,64	0,13
341,102	0,14
341,564	0,15
342,026	0,16
342,488	0,17
342,949	0,19
343,411	0,22
343,873	0,25
344,335	0,28
344,796	0,32
345,258	0,37
345,719	0,42
346,181	0,47
346,643	0,51
347,104	0,55
347,566	0,58
348,027	0,61
348,488	0,63
348,95	0,66
349,411	0,68
349,873	0,71
350,334	0,73
350,795	0,75
351,256	0,76
351,718	0,77
352,179	0,78
352,64	0,78
353,101	0,79
353,562	0,79
354,023	0,79
354,484	0,8
354,945	0,8
355,406	0,8
355,867	0,8
356,328	0,81
356,789	0,81
357,25	0,81
357,711	0,81
358,172	0,82
358,633	0,82
359,093	0,82
359,554	0,82
360,015	0,82
360,476	0,82
360,936	0,82
361,397	0,83
361,858	0,83
362,318	0,83
362,779	0,83
363,239	0,83
363,7	0,83
364,16	0,83
364,621	0,83
365,081	0,83
365,541	0,83
366,002	0,83
366,462	0,83
366,922	0,83
367,383	0,83
367,843	0,83
368,303	0,83
368,763	0,83
369,223	0,83
369,684	0,83
370,144	0,83
370,604	0,83
371,064	0,83
371,524	0,83
371,984	0,83
372,444	0,83
372,904	0,83
373,363	0,83
373,823	0,83
374,283	0,83
374,743	0,83
375,203	0,83
375,663	0,83
376,122	0,83
376,582	0,83
377,042	0,83
377,501	0,83
377,961	0,83
378,42	0,83
378,88	0,83
379,34	0,83
379,799	0,83
380,259	0,83
380,718	0,82
381,177	0,82
381,637	0,82
382,096	0,82
382,555	0,82
383,015	0,82
383,474	0,82
383,933	0,82
384,393	0,82
384,852	0,82
385,311	0,82
385,77	0,82
386,229	0,82
386,688	0,82
387,147	0,82
387,606	0,82
388,065	0,82
388,524	0,82
388,983	0,82
389,442	0,82
389,901	0,82
390,36	0,82
390,819	0,82
391,277	0,82
391,736	0,82
392,195	0,82
392,654	0,82
393,112	0,82
393,571	0,81
394,03	0,81
394,488	0,81
394,947	0,81
395,405	0,81
395,864	0,81
396,322	0,81
396,781	0,81
397,239	0,81
397,698	0,81
398,156	0,81
398,614	0,81
399,073	0,81
399,531	0,81
399,989	0,81
400,447	0,81
400,905	0,81
401,364	0,81
401,822	0,81
402,28	0,81
402,738	0,81
403,196	0,81
403,654	0,81
404,112	0,81
404,57	0,81
405,028	0,81
405,486	0,81
405,944	0,81
406,402	0,81
406,859	0,81
407,317	0,81
407,775	0,81
408,233	0,81
408,691	0,81
409,148	0,81
409,606	0,81
410,064	0,8
410,521	0,8
410,979	0,8
411,436	0,8
411,894	0,81
412,351	0,8
412,809	0,8
413,266	0,8
413,724	0,8
414,181	0,8
414,638	0,8
415,096	0,8
415,553	0,8
416,01	0,8
416,467	0,8
416,925	0,8
417,382	0,8
417,839	0,8
418,296	0,8
418,753	0,8
419,21	0,8
419,667	0,8
420,124	0,8
420,581	0,8
421,038	0,8
421,495	0,8
421,952	0,8
422,409	0,8
422,866	0,8
423,322	0,8
423,779	0,8
424,236	0,8
424,693	0,8
425,149	0,8
425,606	0,8
426,063	0,8
426,519	0,8
426,976	0,8
427,433	0,8
427,889	0,8
428,346	0,8
428,802	0,8
429,258	0,8
429,715	0,8
430,171	0,8
430,628	0,8
431,084	0,8
431,54	0,8
431,997	0,8
432,453	0,8
432,909	0,8
433,365	0,8
433,821	0,79
434,277	0,79
434,734	0,79
435,19	0,79
435,646	0,79
436,102	0,79
436,558	0,79
437,014	0,79
437,47	0,79
437,925	0,79
438,381	0,8
438,837	0,8
439,293	0,8
439,749	0,8
440,205	0,8
440,66	0,8
441,116	0,8
441,572	0,8
442,027	0,8
442,483	0,8
442,939	0,8
443,394	0,8
443,85	0,8
444,305	0,8
444,761	0,8
445,216	0,8
445,672	0,8
446,127	0,8
446,582	0,8
447,038	0,8
447,493	0,8
447,948	0,8
448,403	0,8
448,859	0,8
449,314	0,8
449,769	0,8
450,224	0,8
450,679	0,8
451,134	0,8
451,589	0,8
452,044	0,8
452,499	0,8
452,954	0,81
453,409	0,81
453,864	0,81
454,319	0,81
454,774	0,81
455,229	0,81
455,684	0,81
456,138	0,81
456,593	0,81
457,048	0,81
457,503	0,81
457,957	0,81
458,412	0,81
458,866	0,81
459,321	0,81
459,776	0,81
460,23	0,81
460,685	0,81
461,139	0,81
461,593	0,81
462,048	0,81
462,502	0,81
462,957	0,81
463,411	0,82
463,865	0,82
464,319	0,82
464,774	0,82
465,228	0,82
465,682	0,82
466,136	0,82
466,59	0,82
467,044	0,82
467,499	0,82
467,953	0,83
468,407	0,83
468,861	0,83
469,315	0,83
469,768	0,83
470,222	0,83
470,676	0,83
471,13	0,83
471,584	0,83
472,038	0,83
472,491	0,83
472,945	0,83
473,399	0,84
473,852	0,84
474,306	0,84
474,76	0,84
475,213	0,84
475,667	0,84
476,12	0,84
476,574	0,84
477,027	0,85
477,481	0,85
477,934	0,85
478,388	0,85
478,841	0,85
479,294	0,85
479,748	0,86
480,201	0,86
480,654	0,86
481,107	0,86
481,561	0,86
482,014	0,87
482,467	0,87
482,92	0,87
483,373	0,87
483,826	0,87
484,279	0,88
484,732	0,88
485,185	0,88
485,638	0,88
486,091	0,88
486,544	0,89
486,997	0,89
487,449	0,89
487,902	0,89
488,355	0,9
488,808	0,9
489,26	0,9
489,713	0,9
490,166	0,91
490,618	0,91
491,071	0,91
491,523	0,92
491,976	0,92
492,429	0,92
492,881	0,93
493,333	0,93
493,786	0,93
494,238	0,94
494,691	0,94
495,143	0,94
495,595	0,95
496,048	0,95
496,5	0,96
496,952	0,96
497,404	0,96
497,856	0,97
498,309	0,97
498,761	0,97
499,213	0,98
499,665	0,98
500,117	0,99
500,569	0,99
501,021	0,99
501,473	1
501,925	1
502,377	1,01
502,828	1,01
503,28	1,02
503,732	1,02
504,184	1,02
504,636	1,03
505,087	1,03
505,539	1,03
505,991	1,04
506,442	1,04
506,894	1,05
507,345	1,05
507,797	1,05
508,249	1,06
508,7	1,06
509,151	1,07
509,603	1,07
510,054	1,08
510,506	1,08
510,957	1,08
511,408	1,09
511,86	1,09
512,311	1,1
512,762	1,1
513,213	1,1
513,665	1,11
514,116	1,11
514,567	1,11
515,018	1,12
515,469	1,12
515,92	1,12
516,371	1,13
516,822	1,13
517,273	1,13
517,724	1,14
518,175	1,14
518,626	1,14
519,076	1,14
519,527	1,15
519,978	1,15
520,429	1,15
520,88	1,15
521,33	1,15
521,781	1,16
522,232	1,16
522,682	1,16
523,133	1,16
523,583	1,16
524,034	1,17
524,484	1,17
524,935	1,17
525,385	1,17
525,836	1,17
526,286	1,17
526,736	1,17
527,187	1,17
527,637	1,17
528,087	1,17
528,538	1,17
528,988	1,17
529,438	1,17
529,888	1,16
530,338	1,16
530,788	1,16
531,238	1,16
531,688	1,16
532,139	1,16
532,589	1,16
533,038	1,15
533,488	1,15
533,938	1,15
534,388	1,15
534,838	1,14
535,288	1,14
535,738	1,14
536,187	1,13
536,637	1,13
537,087	1,12
537,537	1,12
537,986	1,12
538,436	1,11
538,885	1,11
539,335	1,1
539,785	1,1
540,234	1,09
540,684	1,09
541,133	1,08
541,582	1,08
542,032	1,07
542,481	1,07
542,931	1,06
543,38	1,06
543,829	1,05
544,278	1,04
544,728	1,04
545,177	1,03
545,626	1,03
546,075	1,03
546,524	1,02
546,973	1,02
547,422	1,01
547,871	1,01
548,32	1,01
548,769	1
549,218	1
549,667	1
550,116	0,99
550,565	0,99
551,014	0,98
551,463	0,98
551,911	0,97
552,36	0,97
552,809	0,96
553,258	0,96
553,706	0,95
554,155	0,95
554,603	0,94
555,052	0,94
555,501	0,93
555,949	0,93
556,398	0,92
556,846	0,92
557,294	0,91
557,743	0,91
558,191	0,9
558,64	0,9
559,088	0,89
559,536	0,89
559,985	0,88
560,433	0,88
560,881	0,87
561,329	0,87
561,777	0,86
562,225	0,86
562,674	0,85
563,122	0,85
563,57	0,84
564,018	0,84
564,466	0,84
564,914	0,83
565,362	0,83
565,809	0,82
566,257	0,82
566,705	0,81
567,153	0,81
567,601	0,8
568,048	0,8
568,496	0,8
568,944	0,79
569,392	0,79
569,839	0,78
570,287	0,78
570,734	0,78
571,182	0,77
571,63	0,77
572,077	0,76
572,525	0,76
572,972	0,76
573,419	0,75
573,867	0,75
574,314	0,75
574,761	0,74
575,209	0,74
575,656	0,73
576,103	0,73
576,551	0,73
576,998	0,72
577,445	0,72
577,892	0,72
578,339	0,71
578,786	0,71
579,233	0,71
579,68	0,7
580,127	0,7
580,574	0,7
581,021	0,69
581,468	0,69
581,915	0,69
582,362	0,69
582,809	0,68
583,255	0,68
583,702	0,68
584,149	0,68
584,596	0,67
585,042	0,67
585,489	0,67
585,936	0,66
586,382	0,66
586,829	0,66
587,275	0,66
587,722	0,66
588,168	0,65
588,615	0,65
589,061	0,65
589,508	0,65
589,954	0,64
590,4	0,64
590,847	0,64
591,293	0,64
591,739	0,63
592,185	0,63
592,632	0,63
593,078	0,63
593,524	0,63
593,97	0,63
594,416	0,63
594,862	0,62
595,308	0,62
595,754	0,62
596,2	0,62
596,646	0,62
597,092	0,62
597,538	0,61
597,984	0,61
598,43	0,61
598,876	0,61
599,321	0,61
599,767	0,61
600,213	0,61
600,659	0,6
601,104	0,6
601,55	0,6
601,995	0,6
602,441	0,6
602,887	0,6
603,332	0,59
603,778	0,59
604,223	0,59
604,668	0,59
605,114	0,59
605,559	0,59
606,005	0,59
606,45	0,59
606,895	0,59
607,341	0,58
607,786	0,58
608,231	0,58
608,676	0,58
609,121	0,57
609,566	0,56
610,012	0,56
610,457	0,55
610,902	0,55
611,347	0,55
611,792	0,55
612,237	0,54
612,682	0,54
613,127	0,54
613,571	0,54
614,016	0,55
614,461	0,55
614,906	0,55
615,351	0,55
615,795	0,55
616,24	0,55
616,685	0,55
617,129	0,55
617,574	0,55
618,019	0,55
618,463	0,55
618,908	0,55
619,352	0,55
619,797	0,55
620,241	0,55
620,686	0,55
621,13	0,55
621,574	0,55
622,019	0,55
622,463	0,54
622,907	0,54
623,352	0,54
623,796	0,54
624,24	0,54
624,684	0,54
625,128	0,54
625,572	0,54
626,016	0,54
626,461	0,54
626,905	0,54
627,349	0,54
627,793	0,54
628,236	0,54
628,68	0,54
629,124	0,54
629,568	0,54
630,012	0,54
630,456	0,54
630,9	0,53
631,343	0,53
631,787	0,53
632,231	0,53
632,674	0,53
633,118	0,53
633,562	0,53
634,005	0,53
634,449	0,53
634,892	0,53
635,336	0,53
635,779	0,53
636,223	0,53
636,666	0,53
637,109	0,53
637,553	0,53
637,996	0,53
638,439	0,53
638,883	0,53
639,326	0,53
639,769	0,53
640,212	0,53
640,655	0,53
641,099	0,52
641,542	0,52
641,985	0,52
642,428	0,52
642,871	0,52
643,314	0,52
643,757	0,52
644,2	0,52
644,643	0,52
645,085	0,52
645,528	0,52
645,971	0,52
646,414	0,52
646,857	0,52
647,299	0,51
647,742	0,51
648,185	0,51
648,627	0,51
649,07	0,51
649,513	0,51
649,955	0,51
650,398	0,51
650,84	0,51
651,283	0,52
651,725	0,52
652,168	0,52
652,61	0,52
653,052	0,52
653,495	0,51
653,937	0,43
654,379	0,37
654,821	0,38
655,264	0,38
655,706	0,38
656,148	0,38
656,59	0,38
657,032	0,38
657,474	0,38
657,916	0,38
658,358	0,37
658,8	0,43
659,242	0,51
659,684	0,51
660,126	0,51
660,568	0,51
661,01	0,51
661,452	0,51
661,894	0,51
662,335	0,51
662,777	0,51
663,219	0,51
663,661	0,51
664,102	0,51
664,544	0,51
664,985	0,51
665,427	0,51
665,869	0,51
666,31	0,51
666,752	0,51
667,193	0,51
667,634	0,51
668,076	0,51
668,517	0,51
668,959	0,51
669,4	0,51
669,841	0,51
670,282	0,51
670,724	0,51
671,165	0,51
671,606	0,51
672,047	0,51
672,488	0,5
672,929	0,5
673,37	0,5
673,811	0,5
674,252	0,5
674,693	0,5
675,134	0,5
675,575	0,5
676,016	0,5
676,457	0,49
676,898	0,49
677,339	0,49
677,78	0,49
678,22	0,49
678,661	0,49
679,102	0,49
679,542	0,49
679,983	0,49
680,424	0,5
680,864	0,5
681,305	0,5
681,745	0,5
682,186	0,5
682,626	0,5
683,067	0,5
683,507	0,5
683,948	0,5
684,388	0,5
684,828	0,5
685,269	0,5
685,709	0,5
686,149	0,49
686,589	0,49
687,029	0,49
687,47	0,49
687,91	0,49
688,35	0,49
688,79	0,49
689,23	0,49
689,67	0,49
690,11	0,49
690,55	0,49
690,99	0,49
691,43	0,49
691,87	0,49
692,31	0,48
692,749	0,48
693,189	0,48
693,629	0,48
694,069	0,48
694,508	0,48
694,948	0,48
695,388	0,48
695,827	0,48
696,267	0,48
696,706	0,48
697,146	0,48
697,586	0,48
698,025	0,48
698,464	0,48
698,904	0,48
699,343	0,48
699,783	0,48
700,222	0,48
700,661	0,48
701,101	0,49
701,54	0,49
701,979	0,48
702,418	0,49
702,857	0,49
703,297	0,49
703,736	0,49
704,175	0,48
704,614	0,48
705,053	0,48
705,492	0,48
705,931	0,48
706,37	0,48
706,809	0,48
707,248	0,48
707,687	0,48
708,125	0,48
708,564	0,48
709,003	0,48
709,442	0,48
709,88	0,48
710,319	0,48
710,758	0,48
711,196	0,48
711,635	0,48
712,074	0,48
712,512	0,48
712,951	0,47
713,389	0,47
713,828	0,47
714,266	0,47
714,705	0,47
715,143	0,47
715,581	0,47
716,02	0,47
716,458	0,47
716,896	0,47
717,334	0,47
717,773	0,47
718,211	0,47
718,649	0,47
719,087	0,47
719,525	0,47
719,963	0,47
720,401	0,47
720,839	0,47
721,277	0,48
721,715	0,48
722,153	0,48
722,591	0,48
723,029	0,47
723,467	0,47
723,905	0,47
724,342	0,47
724,78	0,47
725,218	0,47
725,656	0,47
726,093	0,47
726,531	0,47
726,969	0,47
727,406	0,47
727,844	0,47
728,281	0,47
728,719	0,47
729,156	0,47
729,594	0,47
730,031	0,47
730,469	0,47
730,906	0,47
731,343	0,47
731,781	0,47
732,218	0,47
732,655	0,47
733,092	0,46
733,53	0,46
733,967	0,46
734,404	0,46
734,841	0,46
735,278	0,46
735,715	0,46
736,152	0,46
736,589	0,46
737,026	0,46
737,463	0,46
737,9	0,46
738,337	0,46
738,774	0,46
739,211	0,46
739,647	0,46
740,084	0,46
740,521	0,46
740,958	0,46
741,394	0,46
741,831	0,46
742,268	0,46
742,704	0,46
743,141	0,46
743,577	0,46
744,014	0,46
744,45	0,46
744,887	0,46
745,323	0,46
745,76	0,45
746,196	0,45
746,632	0,45
747,069	0,45
747,505	0,45
747,941	0,45
748,378	0,45
748,814	0,45
749,25	0,45
749,686	0,45
750,122	0,45
750,558	0,46
750,994	0,46
751,43	0,46
751,866	0,46
752,302	0,46
752,738	0,46
753,174	0,46
753,61	0,46
754,046	0,46
754,482	0,46
754,918	0,46
755,354	0,46
755,789	0,46
756,225	0,46
756,661	0,45
757,096	0,45
757,532	0,45
757,968	0,45
758,403	0,45
758,839	0,44
759,274	0,44
759,71	0,43
760,145	0,43
760,581	0,42
761,016	0,42
761,452	0,41
761,887	0,41
762,322	0,4
762,758	0,4
763,193	0,39
763,628	0,39
764,063	0,38
764,499	0,37
764,934	0,37
765,369	0,36
765,804	0,36
766,239	0,35
766,674	0,34
767,109	0,33
767,544	0,33
767,979	0,31
768,414	0,3
768,849	0,29
769,284	0,29
769,719	0,27
770,154	0,27
770,588	0,26
771,023	0,24
771,458	0,23
771,893	0,21
772,327	0,2
772,762	0,19
773,197	0,18
773,631	0,17
774,066	0,16
774,5	0,16
774,935	0,14
775,369	0,13
775,804	0,12
776,238	0,11
776,673	0,1
777,107	0,09
777,541	0,08
777,976	0,07
778,41	0,06
778,844	0,05
779,279	0,04
779,713	0,03
780,147	0,02
780,581	0,01
781,015	0
781,449	-0,01
781,883	-0,01
782,317	-0,03
782,751	-0,03
783,185	-0,04
783,619	-0,04
784,053	-0,05
784,487	-0,06
784,921	-0,07
785,355	-0,07
785,789	-0,08
786,223	-0,1
786,656	-0,1
787,09	-0,12
787,524	-0,12
787,957	-0,14
788,391	-0,16
788,825	-0,18
789,258	-0,19
789,692	-0,2
790,125	-0,22
790,559	-0,23
790,992	-0,25
791,426	-0,27
791,859	-0,28
792,293	-0,32
792,726	-0,33
793,159	-0,35
793,593	-0,37
794,026	-0,39
794,459	-0,42
794,892	-0,45
795,326	-0,48
795,759	-0,51
796,192	-0,56
796,625	-0,6
797,058	-0,63
797,491	-0,67
797,924	-0,72
798,357	-0,76
798,79	-0,8
799,223	-0,85
799,656	-0,9
800,089	-0,95
800,522	-0,99
800,955	-1,03
801,387	-1,09
801,82	-1,14
802,253	-1,21
802,686	-1,28
803,118	-1,34
803,551	-1,39
803,984	-1,44
804,416	-1,48
804,849	-1,53
805,281	-1,69
805,714	-2,03
806,146	-2,47
806,579	-2,72
807,011	-2,88
807,444	-2,97
807,876	-3,05
808,308	-3,08
808,741	-3,11
809,173	-3,16
809,605	-3,18
810,037	-3,26
810,47	-3,17
810,902	-2,97
811,334	-2,82
811,766	-2,66
812,198	-2,4
812,63	-1,98
813,062	-1,77
813,494	-1,68
813,926	-1,59
814,358	-1,54
814,79	-1,46
815,222	-1,4
815,654	-1,35
816,086	-1,29
816,518	-1,24
816,949	-1,18
817,381	-1,14
817,813	-1,12
818,245	-1,08
818,676	-1,04
819,108	-1,01
819,54	-0,99
819,971	-0,97
820,403	-0,92
820,834	-0,91
821,266	-0,87
821,697	-0,84
822,129	-0,83
822,56	-0,8
822,991	-0,78
823,423	-0,75
823,854	-0,74
824,286	-0,72
824,717	-0,71
825,148	-0,69
825,579	-0,68
826,01	-0,68
826,442	-0,67
826,873	-0,65
827,304	-0,62
827,735	-0,61
828,166	-0,62
828,597	-0,62
829,028	-0,62
829,459	-0,63
829,89	-0,62
830,321	-0,58
830,752	-0,58
831,183	-0,56
831,613	-0,55
832,044	-0,55
832,475	-0,54
832,906	-0,56
833,336	-0,56
833,767	-0,56
834,198	-0,55
834,628	-0,54
835,059	-0,57
835,49	-0,57
835,92	-0,55
836,351	-0,56
836,781	-0,56
837,212	-0,57
837,642	-0,56
838,072	-0,55
838,503	-0,55
838,933	-0,52
839,364	-0,54
839,794	-0,51
840,224	-0,5
840,654	-0,54
841,085	-0,54
841,515	-0,52
841,945	-0,51
842,375	-0,48
842,805	-0,47
843,235	-0,45
843,665	-0,47
844,095	-0,45
844,525	-0,48
844,955	-0,48
845,385	-0,46
845,815	-0,45
846,245	-0,46
846,675	-0,48
847,105	-0,5
847,534	-0,5
847,964	-0,49
848,394	-0,47
848,824	-0,5
849,253	-0,5
849,683	-0,49
850,112	-0,5
850,542	-0,54
850,972	-0,55
851,401	-0,53
851,831	-0,5
852,26	-0,5
852,69	-0,55
853,119	-0,54
853,548	-0,55
853,978	-0,56
854,407	-0,54
854,836	-0,55
855,266	-0,53
855,695	-0,54
856,124	-0,55
856,553	-0,57
856,983	-0,59
857,412	-0,58
857,841	-0,59
858,27	-0,58
858,699	-0,59
859,128	-0,61
859,557	-0,62
859,986	-0,64
860,415	-0,62
860,844	-0,59
861,273	-0,59
861,702	-0,59
862,13	-0,57
862,559	-0,59
862,988	-0,56
863,417	-0,56
863,845	-0,56
864,274	-0,56
864,703	-0,55
865,131	-0,55
865,56	-0,56
865,989	-0,59
866,417	-0,56
866,846	-0,57
867,274	-0,57
867,703	-0,59
868,131	-0,58
868,559	-0,58
868,988	-0,6
869,416	-0,6
869,844	-0,62
870,273	-0,64
870,701	-0,62
871,129	-0,65
871,557	-0,66
871,986	-0,66
872,414	-0,67
872,842	-0,65
873,27	-0,63
873,698	-0,61
874,126	-0,65
874,554	-0,64
874,982	-0,64
875,41	-0,67
875,838	-0,62
876,266	-0,61
876,694	-0,61
877,122	-0,6
877,549	-0,66
877,977	-0,63
878,405	-0,66
878,833	-0,62
879,26	-0,59
879,688	-0,59
880,116	-0,57
880,543	-0,56
880,971	-0,54
881,399	-0,58
881,826	-0,58
882,254	-0,56
882,681	-0,59
883,109	-0,56
883,536	-0,57
883,963	-0,6
884,391	-0,58
884,818	-0,57
885,245	-0,61
885,673	-0,62
886,1	-0,59
886,527	-0,59
886,954	-0,56
887,381	-0,57
887,809	-0,59
888,236	-0,6
888,663	-0,61
889,09	-0,64
889,517	-0,65
889,944	-0,65
890,371	-0,64
890,798	-0,64
891,225	-0,64
891,652	-0,67
892,078	-0,64
892,505	-0,66
892,932	-0,61
893,359	-0,62
893,786	-0,61
894,212	-0,59
894,639	-0,61
895,066	-0,63
895,492	-0,57
895,919	-0,57
896,346	-0,57
896,772	-0,57
897,199	-0,55
897,625	-0,58
898,052	-0,55
898,478	-0,53
898,904	-0,54
899,331	-0,53
899,757	-0,55
900,183	-0,58
900,61	-0,56
901,036	-0,56
901,462	-0,56
901,888	-0,55
902,315	-0,54
902,741	-0,59
903,167	-0,58
903,593	-0,62
904,019	-0,6
904,445	-0,57
904,871	-0,59
905,297	-0,61
905,723	-0,6
906,149	-0,59
906,575	-0,6
907,001	-0,59
907,427	-0,55
907,852	-0,56
908,278	-0,55
908,704	-0,54
909,13	-0,53
909,555	-0,53
909,981	-0,51
910,407	-0,52
910,832	-0,52
911,258	-0,51
911,684	-0,52
912,109	-0,52
912,535	-0,54
912,96	-0,5
913,386	-0,54
913,811	-0,54
914,236	-0,56
914,662	-0,54
915,087	-0,58
915,512	-0,58
915,938	-0,6
916,363	-0,59
916,788	-0,61
917,213	-0,58
917,639	-0,63
918,064	-0,6
918,489	-0,6
918,914	-0,59
919,339	-0,61
919,764	-0,58
920,189	-0,57
920,614	-0,6
921,039	-0,6
921,464	-0,56
921,889	-0,59
922,314	-0,6
922,738	-0,63
923,163	-0,64
923,588	-0,65
924,013	-0,63
924,437	-0,63
924,862	-0,64
925,287	-0,61
925,711	-0,62
926,136	-0,63
926,561	-0,61
926,985	-0,6
927,41	-0,58
927,834	-0,56
928,259	-0,53
928,683	-0,52
929,108	-0,49
929,532	-0,51
929,956	-0,5
930,381	-0,49
930,805	-0,49
931,229	-0,49
931,653	-0,47
932,078	-0,46
932,502	-0,46
932,926	-0,47
933,35	-0,47
933,774	-0,47
934,198	-0,45
934,622	-0,43
935,046	-0,44
935,47	-0,44
935,894	-0,43
936,318	-0,44
936,742	-0,45
937,166	-0,45
937,59	-0,45
938,014	-0,46
938,437	-0,47
938,861	-0,49
939,285	-0,5
939,709	-0,49
940,132	-0,49
940,556	-0,5
940,98	-0,49
941,403	-0,47
941,827	-0,46
942,25	-0,47
942,674	-0,46
943,097	-0,45
943,521	-0,45
943,944	-0,46
944,368	-0,46
944,791	-0,45
945,214	-0,47
945,638	-0,47
946,061	-0,51
946,484	-0,53
946,907	-0,51
947,331	-0,52
947,754	-0,56
948,177	-0,53
948,6	-0,53
949,023	-0,53
949,446	-0,53
949,869	-0,51
950,292	-0,5
950,715	-0,46
951,138	-0,44
951,561	-0,42
951,984	-0,42
952,407	-0,41
952,83	-0,39
953,252	-0,35
953,675	-0,35
954,098	-0,36
954,521	-0,35
954,943	-0,34
955,366	-0,35
955,789	-0,34
956,211	-0,36
956,634	-0,37
957,056	-0,34
957,479	-0,36
957,902	-0,38
958,324	-0,38
958,746	-0,37
959,169	-0,38
959,591	-0,38
960,014	-0,39
960,436	-0,39
960,858	-0,38
961,281	-0,38
961,703	-0,4
962,125	-0,39
962,547	-0,37
962,969	-0,38
963,391	-0,38
963,814	-0,39
964,236	-0,39
964,658	-0,36
965,08	-0,37
965,502	-0,37
965,924	-0,34
966,346	-0,33
966,768	-0,33
967,189	-0,34
967,611	-0,34
968,033	-0,34
968,455	-0,32
968,877	-0,32
969,298	-0,33
969,72	-0,33
970,142	-0,33
970,563	-0,33
970,985	-0,32
971,407	-0,31
971,828	-0,29
972,25	-0,28
972,671	-0,26
973,093	-0,26
973,514	-0,24
973,936	-0,23
974,357	-0,22
974,778	-0,22
975,2	-0,22
975,621	-0,21
976,042	-0,19
976,464	-0,19
976,885	-0,18
977,306	-0,17
977,727	-0,17
978,148	-0,15
978,57	-0,13
978,991	-0,11
979,412	-0,1
979,833	-0,08
980,254	-0,07
980,675	-0,08
981,096	-0,07
981,517	-0,05
981,937	-0,04
982,358	-0,02
982,779	-0,01
983,2	-0,01
983,621	-0,01
984,042	0
984,462	0,02
984,883	0,03
985,304	0,05
985,724	0,06
986,145	0,06
986,565	0,08
986,986	0,09
987,407	0,1
987,827	0,11
988,248	0,13
988,668	0,15
989,088	0,16
989,509	0,17
989,929	0,19
990,35	0,2
990,77	0,21
991,19	0,22
991,61	0,24
992,031	0,25
992,451	0,26
992,871	0,27
993,291	0,28
993,711	0,29
994,131	0,29
994,551	0,3
994,971	0,31
995,391	0,31
995,811	0,32
996,231	0,33
996,651	0,33
997,071	0,34
997,491	0,35
997,911	0,36
998,331	0,37
998,75	0,37
999,17	0,38
999,59	0,39
1000,009	0,39
1000,429	0,4
1000,849	0,4
1001,268	0,41
1001,688	0,41
1002,107	0,41
1002,527	0,42
1002,946	0,42
1003,366	0,42
1003,785	0,43
1004,205	0,43
1004,624	0,44
1005,044	0,44
1005,463	0,44
1005,882	0,45
1006,301	0,45
1006,721	0,45
1007,14	0,45
1007,559	0,45
1007,978	0,45
1008,397	0,45
1008,816	0,45
1009,235	0,45
1009,655	0,45
1010,074	0,45
1010,492	0,45
1010,911	0,45
1011,33	0,45
1011,749	0,45
1012,168	0,45
1012,587	0,45
1013,006	0,45
1013,425	0,45
1013,843	0,45
1014,262	0,45
1014,681	0,45
1015,099	0,45
1015,518	0,45
1015,937	0,45
1016,355	0,45
1016,774	0,44
1017,192	0,44
1017,611	0,44
1018,029	0,44
1018,448	0,44
1018,866	0,44
1019,285	0,44
1019,703	0,44
1020,121	0,44
1020,54	0,44
1020,958	0,44
1021,376	0,44
1021,794	0,44
1022,213	0,44
1022,631	0,44
1023,049	0,44
1023,467	0,44
1023,885	0,44
1024,303	0,44
1024,721	0,44
1025,139	0,43
1025,557	0,43
1025,975	0,43
1026,393	0,43
1026,811	0,43
1027,229	0,43
1027,647	0,43
1028,065	0,43
1028,482	0,42
1028,9	0,42
1029,318	0,42
1029,735	0,42
1030,153	0,42
1030,571	0,42
1030,988	0,42
1031,406	0,42
1031,823	0,42
1032,241	0,42
1032,659	0,43
1033,076	0,43
1033,493	0,43
1033,911	0,43
1034,328	0,43
1034,746	0,43
1035,163	0,43
1035,58	0,43
1035,997	0,43
1036,415	0,43
1036,832	0,43
1037,249	0,43
1037,666	0,43
1038,083	0,43
1038,501	0,43
1038,918	0,43
1039,335	0,43
1039,752	0,43
1040,169	0,43
1040,586	0,43
1041,003	0,43
1041,419	0,43
1041,836	0,43
1042,253	0,43
1042,67	0,43
1043,087	0,43
1043,504	0,43
1043,92	0,43
1044,337	0,43
1044,754	0,43
1045,17	0,43
1045,587	0,43
1046,004	0,43
1046,42	0,43
1046,837	0,43
1047,253	0,43
1047,67	0,43
1048,086	0,43
1048,503	0,43
1048,919	0,43
1049,335	0,43
1049,752	0,43
1050,168	0,43
1050,584	0,43
1051,001	0,43
1051,417	0,43
1051,833	0,43
1052,249	0,43
1052,665	0,43
1053,081	0,43
1053,497	0,43
1053,914	0,43
1054,33	0,43
1054,746	0,44
1055,162	0,44
1055,578	0,44
1055,993	0,44
1056,409	0,44
1056,825	0,44
1057,241	0,44
1057,657	0,44
1058,073	0,44
1058,488	0,44
1058,904	0,44
1059,32	0,44
1059,736	0,44
1060,151	0,44
1060,567	0,44
1060,982	0,44
1061,398	0,44
1061,813	0,44
1062,229	0,44
1062,644	0,44
1063,06	0,44
1063,475	0,43
1063,891	0,43
1064,306	0,43
1064,721	0,43
1065,137	0,43
1065,552	0,43
1065,967	0,43
1066,382	0,43
1066,798	0,43
1067,213	0,43
1067,628	0,43
1068,043	0,43
1068,458	0,43
1068,873	0,43
1069,288	0,43
1069,703	0,43
1070,118	0,43
1070,533	0,43
1070,948	0,43
1071,363	0,43
1071,778	0,43
1072,193	0,43
1072,607	0,43
1073,022	0,43
1073,437	0,43
1073,852	0,43
1074,266	0,43
1074,681	0,43
1075,096	0,43
1075,51	0,43
1075,925	0,43
1076,339	0,43
1076,754	0,43
1077,168	0,43
1077,583	0,43
1077,997	0,43
1078,412	0,43
1078,826	0,43
1079,24	0,43
1079,655	0,43
1080,069	0,43
1080,483	0,43
1080,897	0,43
1081,312	0,43
1081,726	0,43
1082,14	0,43
1082,554	0,42
1082,968	0,42
1083,382	0,42
1083,796	0,42
1084,21	0,42
1084,624	0,42
1085,038	0,42
1085,452	0,42
1085,866	0,42
1086,28	0,41
1086,694	0,41
1087,108	0,41
1087,521	0,41
1087,935	0,41
1088,349	0,41
1088,763	0,4
1089,176	0,4
1089,59	0,4
1090,004	0,39
1090,417	0,39
1090,831	0,39
1091,244	0,38
1091,658	0,38
1092,071	0,38
1092,485	0,38
1092,898	0,37
1093,312	0,37
1093,725	0,37
1094,138	0,37
1094,552	0,36
1094,965	0,36
1095,378	0,36
1095,791	0,36
1096,205	0,35
1096,618	0,35
1097,031	0,35
1097,444	0,34
1097,857	0,34
1098,27	0,34
1098,683	0,33
1099,096	0,33
1099,509	0,32
1099,922	0,32
1100,335	0,31
1100,748	0,31
1101,161	0,3
1101,574	0,3
1101,986	0,29
1102,399	0,29
1102,812	0,29
1103,225	0,29
1103,637	0,28
1104,05	0,28
1104,463	0,28
1104,875	0,28
1105,288	0,27
1105,7	0,26
1106,113	0,26
1106,525	0,25
1106,938	0,25
1107,35	0,24
1107,763	0,24
1108,175	0,24
1108,588	0,23
1109	0,22
1109,412	0,22
1109,824	0,21
1110,237	0,22
1110,649	0,22
1111,061	0,22
