Data from 18C-808nm-8A-cont_Absorbance__41__01470.txt Node

Date: Mon Jul 17 17:18:18 CEST 2023
User: Laser008
Spectrometer: MAYP115816
Trigger mode: 0
Integration Time (sec): 2,500000E-1
Scans to average: 10
Electric dark correction enabled: true
Nonlinearity correction enabled: true
Boxcar width: 5
XAxis mode: Wavelengths
Number of Pixels in Spectrum: 2068
>>>>>Begin Spectral Data<<<<<
198,914	-0,75
199,384	-0,5
199,855	-0,37
200,325	-0,29
200,796	-0,26
201,266	-0,22
201,737	-0,2
202,207	-0,19
202,677	-0,18
203,147	-0,16
203,618	-0,13
204,088	-0,11
204,558	-0,1
205,028	-0,09
205,498	-0,1
205,968	-0,09
206,439	-0,11
206,909	-0,1
207,379	-0,11
207,849	-0,11
208,319	-0,12
208,789	-0,12
209,258	-0,12
209,728	-0,13
210,198	-0,14
210,668	-0,14
211,138	-0,14
211,608	-0,13
212,077	-0,14
212,547	-0,14
213,017	-0,15
213,486	-0,15
213,956	-0,15
214,426	-0,16
214,895	-0,16
215,365	-0,16
215,834	-0,16
216,304	-0,17
216,773	-0,17
217,243	-0,19
217,712	-0,2
218,181	-0,2
218,651	-0,2
219,12	-0,21
219,589	-0,2
220,058	-0,19
220,528	-0,19
220,997	-0,2
221,466	-0,21
221,935	-0,22
222,404	-0,21
222,873	-0,19
223,342	-0,19
223,812	-0,19
224,281	-0,19
224,749	-0,21
225,218	-0,22
225,687	-0,23
226,156	-0,21
226,625	-0,19
227,094	-0,19
227,563	-0,19
228,031	-0,21
228,5	-0,2
228,969	-0,2
229,438	-0,19
229,906	-0,17
230,375	-0,16
230,844	-0,16
231,312	-0,16
231,781	-0,18
232,249	-0,16
232,718	-0,17
233,186	-0,15
233,655	-0,16
234,123	-0,15
234,591	-0,16
235,06	-0,16
235,528	-0,17
235,996	-0,16
236,465	-0,16
236,933	-0,15
237,401	-0,16
237,869	-0,15
238,337	-0,15
238,805	-0,14
239,274	-0,14
239,742	-0,13
240,21	-0,14
240,678	-0,13
241,146	-0,12
241,614	-0,13
242,081	-0,12
242,549	-0,12
243,017	-0,12
243,485	-0,13
243,953	-0,13
244,421	-0,12
244,888	-0,12
245,356	-0,13
245,824	-0,13
246,291	-0,13
246,759	-0,14
247,227	-0,14
247,694	-0,13
248,162	-0,13
248,629	-0,12
249,097	-0,13
249,564	-0,15
250,032	-0,16
250,499	-0,16
250,967	-0,16
251,434	-0,16
251,901	-0,15
252,369	-0,16
252,836	-0,17
253,303	-0,18
253,77	-0,2
254,237	-0,19
254,705	-0,19
255,172	-0,18
255,639	-0,18
256,106	-0,2
256,573	-0,19
257,04	-0,2
257,507	-0,2
257,974	-0,19
258,441	-0,17
258,908	-0,17
259,375	-0,18
259,841	-0,18
260,308	-0,19
260,775	-0,19
261,242	-0,18
261,709	-0,18
262,175	-0,19
262,642	-0,19
263,109	-0,18
263,575	-0,2
264,042	-0,18
264,508	-0,18
264,975	-0,19
265,441	-0,19
265,908	-0,2
266,374	-0,19
266,841	-0,2
267,307	-0,2
267,773	-0,19
268,24	-0,2
268,706	-0,19
269,172	-0,21
269,639	-0,21
270,105	-0,2
270,571	-0,21
271,037	-0,21
271,503	-0,21
271,969	-0,21
272,435	-0,21
272,902	-0,22
273,368	-0,23
273,834	-0,22
274,3	-0,23
274,765	-0,24
275,231	-0,25
275,697	-0,23
276,163	-0,23
276,629	-0,23
277,095	-0,23
277,56	-0,23
278,026	-0,24
278,492	-0,22
278,958	-0,21
279,423	-0,22
279,889	-0,21
280,354	-0,22
280,82	-0,22
281,286	-0,24
281,751	-0,24
282,217	-0,24
282,682	-0,24
283,147	-0,24
283,613	-0,24
284,078	-0,25
284,544	-0,25
285,009	-0,25
285,474	-0,24
285,939	-0,26
286,405	-0,25
286,87	-0,23
287,335	-0,23
287,8	-0,22
288,265	-0,21
288,73	-0,23
289,195	-0,24
289,66	-0,24
290,125	-0,22
290,59	-0,22
291,055	-0,2
291,52	-0,2
291,985	-0,21
292,45	-0,23
292,915	-0,22
293,38	-0,23
293,844	-0,21
294,309	-0,2
294,774	-0,19
295,239	-0,21
295,703	-0,22
296,168	-0,21
296,632	-0,21
297,097	-0,18
297,562	-0,17
298,026	-0,18
298,491	-0,18
298,955	-0,18
299,419	-0,18
299,884	-0,17
300,348	-0,16
300,813	-0,15
301,277	-0,15
301,741	-0,15
302,205	-0,15
302,67	-0,14
303,134	-0,14
303,598	-0,14
304,062	-0,13
304,526	-0,13
304,99	-0,14
305,454	-0,15
305,919	-0,15
306,383	-0,15
306,847	-0,15
307,31	-0,17
307,774	-0,18
308,238	-0,18
308,702	-0,18
309,166	-0,19
309,63	-0,18
310,094	-0,15
310,557	-0,15
311,021	-0,14
311,485	-0,15
311,948	-0,14
312,412	-0,13
312,876	-0,12
313,339	-0,12
313,803	-0,12
314,266	-0,12
314,73	-0,13
315,193	-0,13
315,657	-0,12
316,12	-0,12
316,584	-0,1
317,047	-0,09
317,51	-0,08
317,973	-0,07
318,437	-0,07
318,9	-0,05
319,363	-0,04
319,826	-0,04
320,29	-0,05
320,753	-0,05
321,216	-0,05
321,679	-0,05
322,142	-0,05
322,605	-0,07
323,068	-0,07
323,531	-0,07
323,994	-0,06
324,457	-0,07
324,92	-0,05
325,382	-0,05
325,845	-0,05
326,308	-0,04
326,771	-0,04
327,233	-0,04
327,696	-0,03
328,159	-0,02
328,622	-0,02
329,084	-0,02
329,547	-0,02
330,009	-0,02
330,472	-0
330,934	-0
331,397	0,01
331,859	0,01
332,322	0,02
332,784	0,02
333,246	0,03
333,709	0,03
334,171	0,03
334,633	0,04
335,096	0,03
335,558	0,04
336,02	0,04
336,482	0,03
336,944	0,03
337,406	0,04
337,868	0,04
338,331	0,04
338,793	0,05
339,255	0,06
339,717	0,06
340,178	0,07
340,64	0,08
341,102	0,08
341,564	0,09
342,026	0,1
342,488	0,11
342,949	0,12
343,411	0,14
343,873	0,17
344,335	0,19
344,796	0,22
345,258	0,26
345,719	0,29
346,181	0,33
346,643	0,36
347,104	0,39
347,566	0,41
348,027	0,43
348,488	0,44
348,95	0,46
349,411	0,47
349,873	0,48
350,334	0,5
350,795	0,51
351,256	0,52
351,718	0,52
352,179	0,52
352,64	0,53
353,101	0,53
353,562	0,53
354,023	0,53
354,484	0,53
354,945	0,53
355,406	0,53
355,867	0,53
356,328	0,54
356,789	0,54
357,25	0,54
357,711	0,54
358,172	0,54
358,633	0,54
359,093	0,55
359,554	0,55
360,015	0,55
360,476	0,55
360,936	0,55
361,397	0,55
361,858	0,55
362,318	0,55
362,779	0,55
363,239	0,55
363,7	0,55
364,16	0,55
364,621	0,55
365,081	0,55
365,541	0,55
366,002	0,55
366,462	0,55
366,922	0,55
367,383	0,55
367,843	0,55
368,303	0,55
368,763	0,55
369,223	0,55
369,684	0,55
370,144	0,55
370,604	0,55
371,064	0,55
371,524	0,55
371,984	0,55
372,444	0,55
372,904	0,55
373,363	0,55
373,823	0,55
374,283	0,55
374,743	0,54
375,203	0,54
375,663	0,54
376,122	0,54
376,582	0,54
377,042	0,54
377,501	0,54
377,961	0,54
378,42	0,54
378,88	0,54
379,34	0,54
379,799	0,54
380,259	0,54
380,718	0,54
381,177	0,54
381,637	0,54
382,096	0,54
382,555	0,54
383,015	0,54
383,474	0,54
383,933	0,54
384,393	0,54
384,852	0,54
385,311	0,54
385,77	0,54
386,229	0,54
386,688	0,54
387,147	0,54
387,606	0,54
388,065	0,54
388,524	0,54
388,983	0,53
389,442	0,53
389,901	0,53
390,36	0,53
390,819	0,53
391,277	0,53
391,736	0,53
392,195	0,53
392,654	0,53
393,112	0,53
393,571	0,53
394,03	0,53
394,488	0,53
394,947	0,53
395,405	0,53
395,864	0,53
396,322	0,53
396,781	0,53
397,239	0,53
397,698	0,53
398,156	0,53
398,614	0,53
399,073	0,53
399,531	0,53
399,989	0,53
400,447	0,53
400,905	0,53
401,364	0,53
401,822	0,53
402,28	0,53
402,738	0,52
403,196	0,52
403,654	0,52
404,112	0,52
404,57	0,52
405,028	0,52
405,486	0,52
405,944	0,52
406,402	0,52
406,859	0,52
407,317	0,52
407,775	0,52
408,233	0,52
408,691	0,52
409,148	0,52
409,606	0,52
410,064	0,52
410,521	0,52
410,979	0,52
411,436	0,52
411,894	0,52
412,351	0,52
412,809	0,52
413,266	0,52
413,724	0,52
414,181	0,52
414,638	0,52
415,096	0,52
415,553	0,52
416,01	0,52
416,467	0,52
416,925	0,52
417,382	0,52
417,839	0,52
418,296	0,52
418,753	0,52
419,21	0,52
419,667	0,52
420,124	0,52
420,581	0,52
421,038	0,52
421,495	0,52
421,952	0,52
422,409	0,52
422,866	0,52
423,322	0,52
423,779	0,52
424,236	0,52
424,693	0,52
425,149	0,52
425,606	0,52
426,063	0,52
426,519	0,52
426,976	0,52
427,433	0,52
427,889	0,52
428,346	0,52
428,802	0,52
429,258	0,52
429,715	0,51
430,171	0,51
430,628	0,51
431,084	0,51
431,54	0,51
431,997	0,51
432,453	0,51
432,909	0,51
433,365	0,51
433,821	0,51
434,277	0,51
434,734	0,51
435,19	0,51
435,646	0,51
436,102	0,51
436,558	0,51
437,014	0,51
437,47	0,51
437,925	0,51
438,381	0,51
438,837	0,51
439,293	0,51
439,749	0,51
440,205	0,51
440,66	0,51
441,116	0,51
441,572	0,51
442,027	0,51
442,483	0,51
442,939	0,51
443,394	0,51
443,85	0,51
444,305	0,51
444,761	0,51
445,216	0,51
445,672	0,51
446,127	0,51
446,582	0,51
447,038	0,51
447,493	0,51
447,948	0,51
448,403	0,51
448,859	0,51
449,314	0,51
449,769	0,51
450,224	0,51
450,679	0,51
451,134	0,52
451,589	0,52
452,044	0,52
452,499	0,52
452,954	0,52
453,409	0,52
453,864	0,52
454,319	0,52
454,774	0,52
455,229	0,52
455,684	0,52
456,138	0,52
456,593	0,52
457,048	0,52
457,503	0,52
457,957	0,52
458,412	0,52
458,866	0,52
459,321	0,52
459,776	0,52
460,23	0,52
460,685	0,52
461,139	0,52
461,593	0,52
462,048	0,52
462,502	0,52
462,957	0,52
463,411	0,52
463,865	0,52
464,319	0,52
464,774	0,52
465,228	0,52
465,682	0,52
466,136	0,53
466,59	0,53
467,044	0,53
467,499	0,53
467,953	0,53
468,407	0,53
468,861	0,53
469,315	0,53
469,768	0,53
470,222	0,53
470,676	0,53
471,13	0,53
471,584	0,53
472,038	0,53
472,491	0,53
472,945	0,53
473,399	0,54
473,852	0,54
474,306	0,54
474,76	0,54
475,213	0,54
475,667	0,54
476,12	0,54
476,574	0,54
477,027	0,54
477,481	0,54
477,934	0,54
478,388	0,54
478,841	0,55
479,294	0,55
479,748	0,55
480,201	0,55
480,654	0,55
481,107	0,55
481,561	0,55
482,014	0,55
482,467	0,56
482,92	0,56
483,373	0,56
483,826	0,56
484,279	0,56
484,732	0,56
485,185	0,57
485,638	0,57
486,091	0,57
486,544	0,57
486,997	0,57
487,449	0,57
487,902	0,57
488,355	0,58
488,808	0,58
489,26	0,58
489,713	0,58
490,166	0,58
490,618	0,59
491,071	0,59
491,523	0,59
491,976	0,59
492,429	0,59
492,881	0,6
493,333	0,6
493,786	0,6
494,238	0,6
494,691	0,61
495,143	0,61
495,595	0,61
496,048	0,61
496,5	0,62
496,952	0,62
497,404	0,62
497,856	0,62
498,309	0,63
498,761	0,63
499,213	0,63
499,665	0,64
500,117	0,64
500,569	0,64
501,021	0,65
501,473	0,65
501,925	0,65
502,377	0,66
502,828	0,66
503,28	0,66
503,732	0,66
504,184	0,67
504,636	0,67
505,087	0,67
505,539	0,68
505,991	0,68
506,442	0,68
506,894	0,69
507,345	0,69
507,797	0,69
508,249	0,69
508,7	0,7
509,151	0,7
509,603	0,7
510,054	0,71
510,506	0,71
510,957	0,71
511,408	0,72
511,86	0,72
512,311	0,72
512,762	0,73
513,213	0,73
513,665	0,73
514,116	0,73
514,567	0,74
515,018	0,74
515,469	0,74
515,92	0,75
516,371	0,75
516,822	0,75
517,273	0,75
517,724	0,76
518,175	0,76
518,626	0,76
519,076	0,76
519,527	0,76
519,978	0,76
520,429	0,77
520,88	0,77
521,33	0,77
521,781	0,77
522,232	0,77
522,682	0,77
523,133	0,77
523,583	0,78
524,034	0,78
524,484	0,78
524,935	0,78
525,385	0,78
525,836	0,78
526,286	0,78
526,736	0,78
527,187	0,78
527,637	0,78
528,087	0,78
528,538	0,78
528,988	0,78
529,438	0,78
529,888	0,78
530,338	0,78
530,788	0,78
531,238	0,78
531,688	0,77
532,139	0,77
532,589	0,77
533,038	0,77
533,488	0,77
533,938	0,77
534,388	0,77
534,838	0,77
535,288	0,76
535,738	0,76
536,187	0,76
536,637	0,75
537,087	0,75
537,537	0,75
537,986	0,75
538,436	0,74
538,885	0,74
539,335	0,74
539,785	0,73
540,234	0,73
540,684	0,73
541,133	0,72
541,582	0,72
542,032	0,72
542,481	0,71
542,931	0,71
543,38	0,71
543,829	0,7
544,278	0,7
544,728	0,7
545,177	0,69
545,626	0,69
546,075	0,69
546,524	0,68
546,973	0,68
547,422	0,68
547,871	0,68
548,32	0,67
548,769	0,67
549,218	0,67
549,667	0,67
550,116	0,66
550,565	0,66
551,014	0,66
551,463	0,65
551,911	0,65
552,36	0,65
552,809	0,64
553,258	0,64
553,706	0,64
554,155	0,63
554,603	0,63
555,052	0,63
555,501	0,62
555,949	0,62
556,398	0,62
556,846	0,61
557,294	0,61
557,743	0,61
558,191	0,6
558,64	0,6
559,088	0,6
559,536	0,59
559,985	0,59
560,433	0,59
560,881	0,58
561,329	0,58
561,777	0,58
562,225	0,57
562,674	0,57
563,122	0,57
563,57	0,57
564,018	0,56
564,466	0,56
564,914	0,56
565,362	0,55
565,809	0,55
566,257	0,55
566,705	0,54
567,153	0,54
567,601	0,54
568,048	0,54
568,496	0,53
568,944	0,53
569,392	0,53
569,839	0,52
570,287	0,52
570,734	0,52
571,182	0,52
571,63	0,51
572,077	0,51
572,525	0,51
572,972	0,51
573,419	0,5
573,867	0,5
574,314	0,5
574,761	0,5
575,209	0,49
575,656	0,49
576,103	0,49
576,551	0,49
576,998	0,49
577,445	0,48
577,892	0,48
578,339	0,48
578,786	0,48
579,233	0,48
579,68	0,47
580,127	0,47
580,574	0,47
581,021	0,47
581,468	0,46
581,915	0,46
582,362	0,46
582,809	0,46
583,255	0,46
583,702	0,46
584,149	0,45
584,596	0,45
585,042	0,45
585,489	0,45
585,936	0,45
586,382	0,45
586,829	0,44
587,275	0,44
587,722	0,44
588,168	0,44
588,615	0,44
589,061	0,44
589,508	0,44
589,954	0,43
590,4	0,43
590,847	0,43
591,293	0,43
591,739	0,43
592,185	0,43
592,632	0,43
593,078	0,43
593,524	0,42
593,97	0,42
594,416	0,42
594,862	0,42
595,308	0,42
595,754	0,42
596,2	0,42
596,646	0,42
597,092	0,42
597,538	0,41
597,984	0,41
598,43	0,41
598,876	0,41
599,321	0,41
599,767	0,41
600,213	0,41
600,659	0,41
601,104	0,41
601,55	0,4
601,995	0,4
602,441	0,4
602,887	0,4
603,332	0,4
603,778	0,4
604,223	0,4
604,668	0,4
605,114	0,4
605,559	0,4
606,005	0,4
606,45	0,4
606,895	0,4
607,341	0,4
607,786	0,39
608,231	0,39
608,676	0,39
609,121	0,39
609,566	0,38
610,012	0,38
610,457	0,38
610,902	0,37
611,347	0,37
611,792	0,37
612,237	0,37
612,682	0,37
613,127	0,37
613,571	0,37
614,016	0,37
614,461	0,37
614,906	0,37
615,351	0,37
615,795	0,37
616,24	0,37
616,685	0,37
617,129	0,37
617,574	0,37
618,019	0,37
618,463	0,37
618,908	0,37
619,352	0,37
619,797	0,37
620,241	0,37
620,686	0,37
621,13	0,37
621,574	0,37
622,019	0,37
622,463	0,37
622,907	0,37
623,352	0,37
623,796	0,37
624,24	0,37
624,684	0,36
625,128	0,36
625,572	0,36
626,016	0,36
626,461	0,36
626,905	0,36
627,349	0,36
627,793	0,36
628,236	0,36
628,68	0,36
629,124	0,36
629,568	0,36
630,012	0,36
630,456	0,36
630,9	0,36
631,343	0,36
631,787	0,36
632,231	0,36
632,674	0,36
633,118	0,36
633,562	0,36
634,005	0,36
634,449	0,36
634,892	0,36
635,336	0,36
635,779	0,36
636,223	0,36
636,666	0,36
637,109	0,36
637,553	0,36
637,996	0,35
638,439	0,35
638,883	0,35
639,326	0,35
639,769	0,35
640,212	0,35
640,655	0,35
641,099	0,35
641,542	0,35
641,985	0,35
642,428	0,35
642,871	0,35
643,314	0,35
643,757	0,35
644,2	0,35
644,643	0,35
645,085	0,35
645,528	0,35
645,971	0,35
646,414	0,35
646,857	0,35
647,299	0,35
647,742	0,35
648,185	0,35
648,627	0,35
649,07	0,34
649,513	0,34
649,955	0,34
650,398	0,34
650,84	0,34
651,283	0,35
651,725	0,34
652,168	0,35
652,61	0,35
653,052	0,34
653,495	0,34
653,937	0,27
654,379	0,21
654,821	0,22
655,264	0,22
655,706	0,22
656,148	0,22
656,59	0,22
657,032	0,22
657,474	0,22
657,916	0,22
658,358	0,21
658,8	0,27
659,242	0,34
659,684	0,34
660,126	0,34
660,568	0,34
661,01	0,34
661,452	0,34
661,894	0,34
662,335	0,34
662,777	0,34
663,219	0,34
663,661	0,34
664,102	0,34
664,544	0,34
664,985	0,34
665,427	0,34
665,869	0,34
666,31	0,34
666,752	0,34
667,193	0,34
667,634	0,34
668,076	0,34
668,517	0,34
668,959	0,34
669,4	0,34
669,841	0,34
670,282	0,34
670,724	0,34
671,165	0,34
671,606	0,34
672,047	0,34
672,488	0,34
672,929	0,34
673,37	0,34
673,811	0,34
674,252	0,33
674,693	0,33
675,134	0,33
675,575	0,33
676,016	0,33
676,457	0,33
676,898	0,33
677,339	0,33
677,78	0,33
678,22	0,33
678,661	0,33
679,102	0,33
679,542	0,33
679,983	0,33
680,424	0,33
680,864	0,33
681,305	0,33
681,745	0,33
682,186	0,33
682,626	0,33
683,067	0,33
683,507	0,33
683,948	0,33
684,388	0,33
684,828	0,33
685,269	0,33
685,709	0,33
686,149	0,33
686,589	0,32
687,029	0,32
687,47	0,32
687,91	0,32
688,35	0,32
688,79	0,32
689,23	0,32
689,67	0,32
690,11	0,32
690,55	0,32
690,99	0,32
691,43	0,32
691,87	0,32
692,31	0,32
692,749	0,32
693,189	0,32
693,629	0,32
694,069	0,32
694,508	0,32
694,948	0,32
695,388	0,32
695,827	0,32
696,267	0,32
696,706	0,32
697,146	0,32
697,586	0,32
698,025	0,32
698,464	0,32
698,904	0,32
699,343	0,32
699,783	0,32
700,222	0,32
700,661	0,32
701,101	0,32
701,54	0,32
701,979	0,32
702,418	0,32
702,857	0,32
703,297	0,32
703,736	0,32
704,175	0,32
704,614	0,32
705,053	0,32
705,492	0,32
705,931	0,32
706,37	0,32
706,809	0,32
707,248	0,32
707,687	0,32
708,125	0,32
708,564	0,32
709,003	0,32
709,442	0,32
709,88	0,31
710,319	0,31
710,758	0,31
711,196	0,31
711,635	0,31
712,074	0,31
712,512	0,31
712,951	0,31
713,389	0,31
713,828	0,31
714,266	0,31
714,705	0,31
715,143	0,31
715,581	0,31
716,02	0,31
716,458	0,31
716,896	0,3
717,334	0,3
717,773	0,3
718,211	0,3
718,649	0,3
719,087	0,3
719,525	0,3
719,963	0,3
720,401	0,31
720,839	0,31
721,277	0,31
721,715	0,31
722,153	0,31
722,591	0,31
723,029	0,31
723,467	0,31
723,905	0,31
724,342	0,31
724,78	0,31
725,218	0,31
725,656	0,31
726,093	0,31
726,531	0,31
726,969	0,31
727,406	0,31
727,844	0,31
728,281	0,31
728,719	0,31
729,156	0,31
729,594	0,31
730,031	0,3
730,469	0,3
730,906	0,3
731,343	0,3
731,781	0,3
732,218	0,3
732,655	0,3
733,092	0,3
733,53	0,3
733,967	0,3
734,404	0,3
734,841	0,3
735,278	0,3
735,715	0,3
736,152	0,3
736,589	0,3
737,026	0,3
737,463	0,3
737,9	0,3
738,337	0,3
738,774	0,3
739,211	0,3
739,647	0,29
740,084	0,29
740,521	0,29
740,958	0,29
741,394	0,29
741,831	0,29
742,268	0,29
742,704	0,29
743,141	0,29
743,577	0,29
744,014	0,29
744,45	0,29
744,887	0,29
745,323	0,28
745,76	0,28
746,196	0,28
746,632	0,28
747,069	0,28
747,505	0,28
747,941	0,28
748,378	0,28
748,814	0,28
749,25	0,29
749,686	0,29
750,122	0,29
750,558	0,29
750,994	0,29
751,43	0,29
751,866	0,3
752,302	0,3
752,738	0,3
753,174	0,3
753,61	0,3
754,046	0,3
754,482	0,3
754,918	0,3
755,354	0,3
755,789	0,3
756,225	0,3
756,661	0,3
757,096	0,3
757,532	0,3
757,968	0,29
758,403	0,29
758,839	0,29
759,274	0,29
759,71	0,28
760,145	0,28
760,581	0,28
761,016	0,27
761,452	0,27
761,887	0,27
762,322	0,27
762,758	0,26
763,193	0,26
763,628	0,25
764,063	0,25
764,499	0,24
764,934	0,24
765,369	0,23
765,804	0,23
766,239	0,22
766,674	0,22
767,109	0,21
767,544	0,21
767,979	0,2
768,414	0,19
768,849	0,18
769,284	0,18
769,719	0,17
770,154	0,17
770,588	0,16
771,023	0,15
771,458	0,14
771,893	0,13
772,327	0,12
772,762	0,11
773,197	0,1
773,631	0,1
774,066	0,09
774,5	0,08
774,935	0,07
775,369	0,06
775,804	0,05
776,238	0,04
776,673	0,03
777,107	0,03
777,541	0,02
777,976	0,01
778,41	0
778,844	-0,01
779,279	-0,01
779,713	-0,02
780,147	-0,02
780,581	-0,03
781,015	-0,04
781,449	-0,04
781,883	-0,05
782,317	-0,07
782,751	-0,08
783,185	-0,08
783,619	-0,09
784,053	-0,1
784,487	-0,1
784,921	-0,11
785,355	-0,12
785,789	-0,13
786,223	-0,14
786,656	-0,14
787,09	-0,15
787,524	-0,15
787,957	-0,17
788,391	-0,18
788,825	-0,2
789,258	-0,21
789,692	-0,22
790,125	-0,23
790,559	-0,25
790,992	-0,27
791,426	-0,29
791,859	-0,3
792,293	-0,34
792,726	-0,35
793,159	-0,36
793,593	-0,38
794,026	-0,4
794,459	-0,43
794,892	-0,46
795,326	-0,49
795,759	-0,52
796,192	-0,56
796,625	-0,61
797,058	-0,63
797,491	-0,67
797,924	-0,71
798,357	-0,76
798,79	-0,8
799,223	-0,84
799,656	-0,9
800,089	-0,94
800,522	-0,99
800,955	-1,03
801,387	-1,08
801,82	-1,14
802,253	-1,2
802,686	-1,28
803,118	-1,33
803,551	-1,38
803,984	-1,42
804,416	-1,46
804,849	-1,49
805,281	-1,57
805,714	-1,89
806,146	-2,38
806,579	-2,67
807,011	-2,84
807,444	-2,94
807,876	-3,03
808,308	-3,07
808,741	-3,1
809,173	-3,15
809,605	-3,17
810,037	-3,25
810,47	-3,18
810,902	-2,99
811,334	-2,84
811,766	-2,69
812,198	-2,46
812,63	-2,03
813,062	-1,8
813,494	-1,7
813,926	-1,61
814,358	-1,55
814,79	-1,47
815,222	-1,41
815,654	-1,36
816,086	-1,3
816,518	-1,24
816,949	-1,19
817,381	-1,15
817,813	-1,13
818,245	-1,09
818,676	-1,05
819,108	-1,01
819,54	-1
819,971	-0,97
820,403	-0,93
820,834	-0,91
821,266	-0,87
821,697	-0,85
822,129	-0,84
822,56	-0,81
822,991	-0,79
823,423	-0,76
823,854	-0,76
824,286	-0,73
824,717	-0,72
825,148	-0,7
825,579	-0,69
826,01	-0,67
826,442	-0,67
826,873	-0,65
827,304	-0,62
827,735	-0,61
828,166	-0,61
828,597	-0,62
829,028	-0,61
829,459	-0,62
829,89	-0,62
830,321	-0,58
830,752	-0,58
831,183	-0,57
831,613	-0,56
832,044	-0,56
832,475	-0,55
832,906	-0,56
833,336	-0,56
833,767	-0,56
834,198	-0,54
834,628	-0,52
835,059	-0,55
835,49	-0,56
835,92	-0,53
836,351	-0,52
836,781	-0,52
837,212	-0,54
837,642	-0,54
838,072	-0,52
838,503	-0,53
838,933	-0,51
839,364	-0,52
839,794	-0,5
840,224	-0,49
840,654	-0,54
841,085	-0,55
841,515	-0,53
841,945	-0,53
842,375	-0,49
842,805	-0,47
843,235	-0,45
843,665	-0,48
844,095	-0,46
844,525	-0,48
844,955	-0,48
845,385	-0,46
845,815	-0,44
846,245	-0,46
846,675	-0,47
847,105	-0,49
847,534	-0,5
847,964	-0,49
848,394	-0,47
848,824	-0,5
849,253	-0,49
849,683	-0,49
850,112	-0,5
850,542	-0,53
850,972	-0,53
851,401	-0,5
851,831	-0,48
852,26	-0,49
852,69	-0,52
853,119	-0,52
853,548	-0,53
853,978	-0,53
854,407	-0,52
854,836	-0,52
855,266	-0,51
855,695	-0,53
856,124	-0,54
856,553	-0,55
856,983	-0,57
857,412	-0,56
857,841	-0,57
858,27	-0,57
858,699	-0,58
859,128	-0,61
859,557	-0,62
859,986	-0,64
860,415	-0,61
860,844	-0,58
861,273	-0,58
861,702	-0,59
862,13	-0,57
862,559	-0,58
862,988	-0,55
863,417	-0,54
863,845	-0,53
864,274	-0,54
864,703	-0,53
865,131	-0,54
865,56	-0,55
865,989	-0,58
866,417	-0,55
866,846	-0,55
867,274	-0,54
867,703	-0,57
868,131	-0,59
868,559	-0,59
868,988	-0,61
869,416	-0,61
869,844	-0,62
870,273	-0,64
870,701	-0,62
871,129	-0,66
871,557	-0,69
871,986	-0,69
872,414	-0,69
872,842	-0,66
873,27	-0,64
873,698	-0,61
874,126	-0,64
874,554	-0,63
874,982	-0,63
875,41	-0,65
875,838	-0,6
876,266	-0,58
876,694	-0,58
877,122	-0,56
877,549	-0,62
877,977	-0,59
878,405	-0,61
878,833	-0,58
879,26	-0,56
879,688	-0,56
880,116	-0,54
880,543	-0,52
880,971	-0,51
881,399	-0,55
881,826	-0,56
882,254	-0,54
882,681	-0,57
883,109	-0,54
883,536	-0,55
883,963	-0,57
884,391	-0,56
884,818	-0,55
885,245	-0,59
885,673	-0,6
886,1	-0,56
886,527	-0,56
886,954	-0,53
887,381	-0,54
887,809	-0,56
888,236	-0,57
888,663	-0,56
889,09	-0,6
889,517	-0,63
889,944	-0,63
890,371	-0,61
890,798	-0,63
891,225	-0,62
891,652	-0,64
892,078	-0,62
892,505	-0,65
892,932	-0,6
893,359	-0,62
893,786	-0,62
894,212	-0,58
894,639	-0,59
895,066	-0,62
895,492	-0,56
895,919	-0,57
896,346	-0,57
896,772	-0,57
897,199	-0,54
897,625	-0,57
898,052	-0,54
898,478	-0,52
898,904	-0,54
899,331	-0,54
899,757	-0,56
900,183	-0,58
900,61	-0,56
901,036	-0,56
901,462	-0,57
901,888	-0,56
902,315	-0,55
902,741	-0,6
903,167	-0,59
903,593	-0,61
904,019	-0,6
904,445	-0,56
904,871	-0,58
905,297	-0,61
905,723	-0,6
906,149	-0,59
906,575	-0,59
907,001	-0,6
907,427	-0,56
907,852	-0,56
908,278	-0,56
908,704	-0,55
909,13	-0,55
909,555	-0,54
909,981	-0,53
910,407	-0,54
910,832	-0,54
911,258	-0,55
911,684	-0,54
912,109	-0,56
912,535	-0,57
912,96	-0,53
913,386	-0,57
913,811	-0,57
914,236	-0,58
914,662	-0,56
915,087	-0,59
915,512	-0,59
915,938	-0,6
916,363	-0,59
916,788	-0,6
917,213	-0,57
917,639	-0,62
918,064	-0,58
918,489	-0,59
918,914	-0,6
919,339	-0,61
919,764	-0,57
920,189	-0,57
920,614	-0,59
921,039	-0,6
921,464	-0,56
921,889	-0,59
922,314	-0,6
922,738	-0,63
923,163	-0,64
923,588	-0,63
924,013	-0,62
924,437	-0,62
924,862	-0,64
925,287	-0,61
925,711	-0,62
926,136	-0,63
926,561	-0,61
926,985	-0,6
927,41	-0,57
927,834	-0,55
928,259	-0,52
928,683	-0,51
929,108	-0,48
929,532	-0,48
929,956	-0,47
930,381	-0,46
930,805	-0,46
931,229	-0,46
931,653	-0,45
932,078	-0,44
932,502	-0,46
932,926	-0,46
933,35	-0,46
933,774	-0,46
934,198	-0,45
934,622	-0,44
935,046	-0,45
935,47	-0,45
935,894	-0,44
936,318	-0,43
936,742	-0,43
937,166	-0,44
937,59	-0,43
938,014	-0,46
938,437	-0,46
938,861	-0,48
939,285	-0,49
939,709	-0,48
940,132	-0,48
940,556	-0,49
940,98	-0,49
941,403	-0,48
941,827	-0,49
942,25	-0,5
942,674	-0,48
943,097	-0,49
943,521	-0,48
943,944	-0,49
944,368	-0,48
944,791	-0,47
945,214	-0,49
945,638	-0,5
946,061	-0,53
946,484	-0,53
946,907	-0,51
947,331	-0,51
947,754	-0,54
948,177	-0,52
948,6	-0,51
949,023	-0,52
949,446	-0,51
949,869	-0,49
950,292	-0,49
950,715	-0,46
951,138	-0,45
951,561	-0,43
951,984	-0,43
952,407	-0,42
952,83	-0,41
953,252	-0,37
953,675	-0,37
954,098	-0,38
954,521	-0,37
954,943	-0,36
955,366	-0,37
955,789	-0,35
956,211	-0,37
956,634	-0,37
957,056	-0,34
957,479	-0,36
957,902	-0,38
958,324	-0,38
958,746	-0,36
959,169	-0,37
959,591	-0,38
960,014	-0,39
960,436	-0,39
960,858	-0,38
961,281	-0,38
961,703	-0,4
962,125	-0,4
962,547	-0,38
962,969	-0,39
963,391	-0,39
963,814	-0,41
964,236	-0,4
964,658	-0,37
965,08	-0,38
965,502	-0,37
965,924	-0,34
966,346	-0,34
966,768	-0,33
967,189	-0,36
967,611	-0,35
968,033	-0,35
968,455	-0,32
968,877	-0,32
969,298	-0,34
969,72	-0,34
970,142	-0,33
970,563	-0,34
970,985	-0,32
971,407	-0,31
971,828	-0,28
972,25	-0,28
972,671	-0,27
973,093	-0,28
973,514	-0,27
973,936	-0,25
974,357	-0,25
974,778	-0,25
975,2	-0,25
975,621	-0,24
976,042	-0,22
976,464	-0,21
976,885	-0,21
977,306	-0,2
977,727	-0,19
978,148	-0,18
978,57	-0,17
978,991	-0,15
979,412	-0,13
979,833	-0,13
980,254	-0,13
980,675	-0,14
981,096	-0,13
981,517	-0,1
981,937	-0,1
982,358	-0,08
982,779	-0,07
983,2	-0,07
983,621	-0,07
984,042	-0,06
984,462	-0,05
984,883	-0,03
985,304	-0,02
985,724	-0
986,145	0
986,565	0,01
986,986	0,02
987,407	0,03
987,827	0,04
988,248	0,05
988,668	0,06
989,088	0,06
989,509	0,08
989,929	0,09
990,35	0,09
990,77	0,1
991,19	0,11
991,61	0,12
992,031	0,13
992,451	0,14
992,871	0,15
993,291	0,15
993,711	0,16
994,131	0,16
994,551	0,17
994,971	0,18
995,391	0,18
995,811	0,19
996,231	0,19
996,651	0,19
997,071	0,2
997,491	0,2
997,911	0,21
998,331	0,22
998,75	0,22
999,17	0,22
999,59	0,23
1000,009	0,23
1000,429	0,23
1000,849	0,24
1001,268	0,24
1001,688	0,24
1002,107	0,24
1002,527	0,25
1002,946	0,25
1003,366	0,25
1003,785	0,25
1004,205	0,26
1004,624	0,26
1005,044	0,26
1005,463	0,26
1005,882	0,26
1006,301	0,26
1006,721	0,26
1007,14	0,27
1007,559	0,27
1007,978	0,27
1008,397	0,27
1008,816	0,27
1009,235	0,27
1009,655	0,27
1010,074	0,27
1010,492	0,26
1010,911	0,26
1011,33	0,26
1011,749	0,26
1012,168	0,26
1012,587	0,26
1013,006	0,26
1013,425	0,26
1013,843	0,26
1014,262	0,26
1014,681	0,26
1015,099	0,26
1015,518	0,26
1015,937	0,26
1016,355	0,25
1016,774	0,25
1017,192	0,26
1017,611	0,26
1018,029	0,26
1018,448	0,26
1018,866	0,26
1019,285	0,26
1019,703	0,26
1020,121	0,26
1020,54	0,26
1020,958	0,26
1021,376	0,26
1021,794	0,26
1022,213	0,26
1022,631	0,26
1023,049	0,26
1023,467	0,26
1023,885	0,26
1024,303	0,26
1024,721	0,25
1025,139	0,25
1025,557	0,25
1025,975	0,25
1026,393	0,25
1026,811	0,25
1027,229	0,25
1027,647	0,25
1028,065	0,25
1028,482	0,25
1028,9	0,25
1029,318	0,25
1029,735	0,25
1030,153	0,25
1030,571	0,25
1030,988	0,25
1031,406	0,25
1031,823	0,25
1032,241	0,25
1032,659	0,25
1033,076	0,25
1033,493	0,25
1033,911	0,25
1034,328	0,25
1034,746	0,25
1035,163	0,25
1035,58	0,25
1035,997	0,25
1036,415	0,25
1036,832	0,25
1037,249	0,25
1037,666	0,25
1038,083	0,25
1038,501	0,25
1038,918	0,25
1039,335	0,25
1039,752	0,25
1040,169	0,25
1040,586	0,25
1041,003	0,25
1041,419	0,25
1041,836	0,25
1042,253	0,25
1042,67	0,25
1043,087	0,24
1043,504	0,24
1043,92	0,24
1044,337	0,24
1044,754	0,24
1045,17	0,24
1045,587	0,24
1046,004	0,24
1046,42	0,24
1046,837	0,24
1047,253	0,24
1047,67	0,24
1048,086	0,24
1048,503	0,24
1048,919	0,24
1049,335	0,24
1049,752	0,24
1050,168	0,24
1050,584	0,24
1051,001	0,24
1051,417	0,24
1051,833	0,24
1052,249	0,24
1052,665	0,24
1053,081	0,24
1053,497	0,24
1053,914	0,24
1054,33	0,25
1054,746	0,25
1055,162	0,25
1055,578	0,25
1055,993	0,25
1056,409	0,25
1056,825	0,25
1057,241	0,25
1057,657	0,25
1058,073	0,25
1058,488	0,25
1058,904	0,25
1059,32	0,25
1059,736	0,25
1060,151	0,25
1060,567	0,25
1060,982	0,25
1061,398	0,25
1061,813	0,25
1062,229	0,25
1062,644	0,25
1063,06	0,25
1063,475	0,25
1063,891	0,25
1064,306	0,25
1064,721	0,25
1065,137	0,25
1065,552	0,25
1065,967	0,25
1066,382	0,25
1066,798	0,25
1067,213	0,25
1067,628	0,25
1068,043	0,25
1068,458	0,25
1068,873	0,25
1069,288	0,25
1069,703	0,25
1070,118	0,25
1070,533	0,25
1070,948	0,25
1071,363	0,25
1071,778	0,25
1072,193	0,25
1072,607	0,25
1073,022	0,25
1073,437	0,25
1073,852	0,25
1074,266	0,25
1074,681	0,25
1075,096	0,25
1075,51	0,25
1075,925	0,25
1076,339	0,25
1076,754	0,25
1077,168	0,25
1077,583	0,25
1077,997	0,25
1078,412	0,25
1078,826	0,25
1079,24	0,25
1079,655	0,25
1080,069	0,25
1080,483	0,24
1080,897	0,24
1081,312	0,24
1081,726	0,24
1082,14	0,24
1082,554	0,24
1082,968	0,24
1083,382	0,24
1083,796	0,24
1084,21	0,24
1084,624	0,24
1085,038	0,24
1085,452	0,24
1085,866	0,23
1086,28	0,23
1086,694	0,23
1087,108	0,23
1087,521	0,23
1087,935	0,23
1088,349	0,23
1088,763	0,23
1089,176	0,22
1089,59	0,22
1090,004	0,22
1090,417	0,22
1090,831	0,21
1091,244	0,21
1091,658	0,21
1092,071	0,21
1092,485	0,21
1092,898	0,21
1093,312	0,21
1093,725	0,2
1094,138	0,2
1094,552	0,2
1094,965	0,2
1095,378	0,2
1095,791	0,2
1096,205	0,2
1096,618	0,2
1097,031	0,19
1097,444	0,19
1097,857	0,19
1098,27	0,18
1098,683	0,18
1099,096	0,18
1099,509	0,18
1099,922	0,17
1100,335	0,17
1100,748	0,17
1101,161	0,17
1101,574	0,17
1101,986	0,16
1102,399	0,16
1102,812	0,16
1103,225	0,15
1103,637	0,15
1104,05	0,15
1104,463	0,15
1104,875	0,14
1105,288	0,14
1105,7	0,13
1106,113	0,13
1106,525	0,13
1106,938	0,12
1107,35	0,12
1107,763	0,12
1108,175	0,12
1108,588	0,11
1109	0,11
1109,412	0,1
1109,824	0,1
1110,237	0,1
1110,649	0,09
1111,061	0,08
