Data from 18C-808nm-8A-cont_Absorbance__348__01777.txt Node

Date: Mon Jul 17 17:31:05 CEST 2023
User: Laser008
Spectrometer: MAYP115816
Trigger mode: 0
Integration Time (sec): 2,500000E-1
Scans to average: 10
Electric dark correction enabled: true
Nonlinearity correction enabled: true
Boxcar width: 5
XAxis mode: Wavelengths
Number of Pixels in Spectrum: 2068
>>>>>Begin Spectral Data<<<<<
198,914	-0,68
199,384	-0,45
199,855	-0,33
200,325	-0,23
200,796	-0,21
201,266	-0,17
201,737	-0,14
202,207	-0,13
202,677	-0,12
203,147	-0,11
203,618	-0,07
204,088	-0,05
204,558	-0,04
205,028	-0,03
205,498	-0,05
205,968	-0,05
206,439	-0,06
206,909	-0,06
207,379	-0,07
207,849	-0,08
208,319	-0,08
208,789	-0,09
209,258	-0,09
209,728	-0,1
210,198	-0,11
210,668	-0,1
211,138	-0,1
211,608	-0,1
212,077	-0,1
212,547	-0,1
213,017	-0,1
213,486	-0,1
213,956	-0,12
214,426	-0,13
214,895	-0,13
215,365	-0,14
215,834	-0,14
216,304	-0,15
216,773	-0,14
217,243	-0,17
217,712	-0,18
218,181	-0,18
218,651	-0,18
219,12	-0,16
219,589	-0,17
220,058	-0,16
220,528	-0,17
220,997	-0,18
221,466	-0,18
221,935	-0,19
222,404	-0,18
222,873	-0,17
223,342	-0,17
223,812	-0,17
224,281	-0,18
224,749	-0,18
225,218	-0,19
225,687	-0,19
226,156	-0,17
226,625	-0,15
227,094	-0,15
227,563	-0,15
228,031	-0,17
228,5	-0,17
228,969	-0,18
229,438	-0,18
229,906	-0,16
230,375	-0,16
230,844	-0,16
231,312	-0,16
231,781	-0,18
232,249	-0,17
232,718	-0,16
233,186	-0,14
233,655	-0,14
234,123	-0,13
234,591	-0,14
235,06	-0,14
235,528	-0,15
235,996	-0,15
236,465	-0,14
236,933	-0,13
237,401	-0,13
237,869	-0,13
238,337	-0,13
238,805	-0,13
239,274	-0,12
239,742	-0,12
240,21	-0,11
240,678	-0,11
241,146	-0,1
241,614	-0,11
242,081	-0,1
242,549	-0,1
243,017	-0,1
243,485	-0,1
243,953	-0,1
244,421	-0,09
244,888	-0,09
245,356	-0,09
245,824	-0,09
246,291	-0,09
246,759	-0,09
247,227	-0,09
247,694	-0,09
248,162	-0,08
248,629	-0,07
249,097	-0,08
249,564	-0,09
250,032	-0,1
250,499	-0,1
250,967	-0,1
251,434	-0,1
251,901	-0,1
252,369	-0,11
252,836	-0,11
253,303	-0,14
253,77	-0,15
254,237	-0,14
254,705	-0,14
255,172	-0,13
255,639	-0,13
256,106	-0,15
256,573	-0,15
257,04	-0,15
257,507	-0,16
257,974	-0,16
258,441	-0,14
258,908	-0,14
259,375	-0,16
259,841	-0,16
260,308	-0,16
260,775	-0,16
261,242	-0,15
261,709	-0,15
262,175	-0,16
262,642	-0,15
263,109	-0,14
263,575	-0,16
264,042	-0,14
264,508	-0,14
264,975	-0,16
265,441	-0,17
265,908	-0,17
266,374	-0,16
266,841	-0,17
267,307	-0,17
267,773	-0,17
268,24	-0,18
268,706	-0,18
269,172	-0,2
269,639	-0,2
270,105	-0,18
270,571	-0,18
271,037	-0,19
271,503	-0,2
271,969	-0,19
272,435	-0,19
272,902	-0,21
273,368	-0,22
273,834	-0,22
274,3	-0,22
274,765	-0,22
275,231	-0,23
275,697	-0,21
276,163	-0,21
276,629	-0,21
277,095	-0,22
277,56	-0,22
278,026	-0,22
278,492	-0,19
278,958	-0,2
279,423	-0,2
279,889	-0,2
280,354	-0,21
280,82	-0,2
281,286	-0,22
281,751	-0,21
282,217	-0,2
282,682	-0,2
283,147	-0,2
283,613	-0,2
284,078	-0,2
284,544	-0,21
285,009	-0,22
285,474	-0,21
285,939	-0,23
286,405	-0,21
286,87	-0,21
287,335	-0,2
287,8	-0,2
288,265	-0,19
288,73	-0,21
289,195	-0,24
289,66	-0,23
290,125	-0,21
290,59	-0,21
291,055	-0,2
291,52	-0,21
291,985	-0,21
292,45	-0,23
292,915	-0,23
293,38	-0,23
293,844	-0,21
294,309	-0,19
294,774	-0,18
295,239	-0,2
295,703	-0,21
296,168	-0,19
296,632	-0,19
297,097	-0,17
297,562	-0,16
298,026	-0,16
298,491	-0,17
298,955	-0,16
299,419	-0,16
299,884	-0,16
300,348	-0,15
300,813	-0,14
301,277	-0,15
301,741	-0,15
302,205	-0,15
302,67	-0,14
303,134	-0,15
303,598	-0,15
304,062	-0,14
304,526	-0,13
304,99	-0,13
305,454	-0,13
305,919	-0,13
306,383	-0,12
306,847	-0,12
307,31	-0,12
307,774	-0,13
308,238	-0,13
308,702	-0,12
309,166	-0,14
309,63	-0,14
310,094	-0,12
310,557	-0,12
311,021	-0,11
311,485	-0,12
311,948	-0,12
312,412	-0,12
312,876	-0,11
313,339	-0,11
313,803	-0,12
314,266	-0,11
314,73	-0,11
315,193	-0,12
315,657	-0,11
316,12	-0,12
316,584	-0,1
317,047	-0,1
317,51	-0,08
317,973	-0,07
318,437	-0,06
318,9	-0,05
319,363	-0,04
319,826	-0,04
320,29	-0,04
320,753	-0,04
321,216	-0,03
321,679	-0,04
322,142	-0,03
322,605	-0,05
323,068	-0,06
323,531	-0,06
323,994	-0,05
324,457	-0,05
324,92	-0,04
325,382	-0,04
325,845	-0,03
326,308	-0,02
326,771	-0,02
327,233	-0,01
327,696	0
328,159	0,01
328,622	0,02
329,084	0,02
329,547	0,03
330,009	0,04
330,472	0,05
330,934	0,05
331,397	0,04
331,859	0,05
332,322	0,05
332,784	0,06
333,246	0,06
333,709	0,06
334,171	0,06
334,633	0,06
335,096	0,06
335,558	0,07
336,02	0,06
336,482	0,08
336,944	0,08
337,406	0,09
337,868	0,09
338,331	0,09
338,793	0,1
339,255	0,11
339,717	0,11
340,178	0,12
340,64	0,13
341,102	0,14
341,564	0,15
342,026	0,16
342,488	0,17
342,949	0,18
343,411	0,21
343,873	0,23
344,335	0,26
344,796	0,3
345,258	0,34
345,719	0,39
346,181	0,44
346,643	0,47
347,104	0,5
347,566	0,53
348,027	0,56
348,488	0,58
348,95	0,6
349,411	0,63
349,873	0,65
350,334	0,67
350,795	0,68
351,256	0,69
351,718	0,7
352,179	0,71
352,64	0,71
353,101	0,71
353,562	0,72
354,023	0,72
354,484	0,72
354,945	0,72
355,406	0,73
355,867	0,73
356,328	0,73
356,789	0,73
357,25	0,73
357,711	0,74
358,172	0,74
358,633	0,74
359,093	0,74
359,554	0,74
360,015	0,74
360,476	0,75
360,936	0,75
361,397	0,75
361,858	0,75
362,318	0,75
362,779	0,75
363,239	0,75
363,7	0,75
364,16	0,75
364,621	0,75
365,081	0,75
365,541	0,75
366,002	0,75
366,462	0,75
366,922	0,75
367,383	0,75
367,843	0,75
368,303	0,75
368,763	0,75
369,223	0,75
369,684	0,75
370,144	0,75
370,604	0,75
371,064	0,75
371,524	0,75
371,984	0,75
372,444	0,75
372,904	0,75
373,363	0,75
373,823	0,75
374,283	0,75
374,743	0,75
375,203	0,75
375,663	0,75
376,122	0,75
376,582	0,75
377,042	0,75
377,501	0,75
377,961	0,75
378,42	0,75
378,88	0,75
379,34	0,74
379,799	0,74
380,259	0,74
380,718	0,74
381,177	0,74
381,637	0,74
382,096	0,74
382,555	0,74
383,015	0,74
383,474	0,74
383,933	0,74
384,393	0,74
384,852	0,74
385,311	0,74
385,77	0,74
386,229	0,74
386,688	0,74
387,147	0,74
387,606	0,74
388,065	0,74
388,524	0,74
388,983	0,74
389,442	0,74
389,901	0,74
390,36	0,73
390,819	0,73
391,277	0,73
391,736	0,73
392,195	0,73
392,654	0,73
393,112	0,73
393,571	0,73
394,03	0,73
394,488	0,73
394,947	0,73
395,405	0,73
395,864	0,73
396,322	0,73
396,781	0,73
397,239	0,73
397,698	0,73
398,156	0,73
398,614	0,73
399,073	0,73
399,531	0,73
399,989	0,73
400,447	0,73
400,905	0,73
401,364	0,73
401,822	0,73
402,28	0,73
402,738	0,72
403,196	0,72
403,654	0,72
404,112	0,72
404,57	0,72
405,028	0,72
405,486	0,72
405,944	0,72
406,402	0,72
406,859	0,72
407,317	0,72
407,775	0,72
408,233	0,72
408,691	0,72
409,148	0,72
409,606	0,72
410,064	0,72
410,521	0,72
410,979	0,72
411,436	0,72
411,894	0,72
412,351	0,72
412,809	0,72
413,266	0,72
413,724	0,72
414,181	0,72
414,638	0,72
415,096	0,72
415,553	0,72
416,01	0,72
416,467	0,72
416,925	0,72
417,382	0,72
417,839	0,72
418,296	0,72
418,753	0,72
419,21	0,72
419,667	0,72
420,124	0,72
420,581	0,72
421,038	0,72
421,495	0,72
421,952	0,72
422,409	0,72
422,866	0,72
423,322	0,72
423,779	0,72
424,236	0,72
424,693	0,72
425,149	0,72
425,606	0,72
426,063	0,72
426,519	0,72
426,976	0,72
427,433	0,72
427,889	0,72
428,346	0,71
428,802	0,71
429,258	0,71
429,715	0,71
430,171	0,71
430,628	0,71
431,084	0,71
431,54	0,71
431,997	0,71
432,453	0,71
432,909	0,71
433,365	0,71
433,821	0,71
434,277	0,71
434,734	0,71
435,19	0,71
435,646	0,71
436,102	0,71
436,558	0,71
437,014	0,71
437,47	0,71
437,925	0,71
438,381	0,71
438,837	0,71
439,293	0,71
439,749	0,71
440,205	0,71
440,66	0,71
441,116	0,71
441,572	0,71
442,027	0,71
442,483	0,71
442,939	0,71
443,394	0,71
443,85	0,71
444,305	0,71
444,761	0,71
445,216	0,71
445,672	0,72
446,127	0,72
446,582	0,72
447,038	0,72
447,493	0,72
447,948	0,72
448,403	0,72
448,859	0,72
449,314	0,72
449,769	0,72
450,224	0,72
450,679	0,72
451,134	0,72
451,589	0,72
452,044	0,72
452,499	0,72
452,954	0,72
453,409	0,72
453,864	0,72
454,319	0,72
454,774	0,72
455,229	0,72
455,684	0,72
456,138	0,72
456,593	0,72
457,048	0,72
457,503	0,72
457,957	0,72
458,412	0,72
458,866	0,72
459,321	0,72
459,776	0,72
460,23	0,72
460,685	0,72
461,139	0,72
461,593	0,72
462,048	0,73
462,502	0,73
462,957	0,73
463,411	0,73
463,865	0,73
464,319	0,73
464,774	0,73
465,228	0,73
465,682	0,73
466,136	0,73
466,59	0,74
467,044	0,74
467,499	0,74
467,953	0,74
468,407	0,74
468,861	0,74
469,315	0,74
469,768	0,74
470,222	0,74
470,676	0,74
471,13	0,74
471,584	0,74
472,038	0,74
472,491	0,75
472,945	0,75
473,399	0,75
473,852	0,75
474,306	0,75
474,76	0,75
475,213	0,75
475,667	0,75
476,12	0,75
476,574	0,76
477,027	0,76
477,481	0,76
477,934	0,76
478,388	0,76
478,841	0,76
479,294	0,77
479,748	0,77
480,201	0,77
480,654	0,77
481,107	0,77
481,561	0,78
482,014	0,78
482,467	0,78
482,92	0,78
483,373	0,78
483,826	0,78
484,279	0,79
484,732	0,79
485,185	0,79
485,638	0,79
486,091	0,79
486,544	0,8
486,997	0,8
487,449	0,8
487,902	0,8
488,355	0,81
488,808	0,81
489,26	0,81
489,713	0,81
490,166	0,82
490,618	0,82
491,071	0,82
491,523	0,82
491,976	0,83
492,429	0,83
492,881	0,83
493,333	0,84
493,786	0,84
494,238	0,84
494,691	0,85
495,143	0,85
495,595	0,85
496,048	0,86
496,5	0,86
496,952	0,86
497,404	0,87
497,856	0,87
498,309	0,87
498,761	0,88
499,213	0,88
499,665	0,89
500,117	0,89
500,569	0,89
501,021	0,9
501,473	0,9
501,925	0,91
502,377	0,91
502,828	0,91
503,28	0,92
503,732	0,92
504,184	0,93
504,636	0,93
505,087	0,93
505,539	0,94
505,991	0,94
506,442	0,95
506,894	0,95
507,345	0,95
507,797	0,96
508,249	0,96
508,7	0,97
509,151	0,97
509,603	0,98
510,054	0,98
510,506	0,98
510,957	0,99
511,408	0,99
511,86	0,99
512,311	1
512,762	1
513,213	1
513,665	1,01
514,116	1,01
514,567	1,01
515,018	1,02
515,469	1,02
515,92	1,02
516,371	1,03
516,822	1,03
517,273	1,03
517,724	1,04
518,175	1,04
518,626	1,04
519,076	1,04
519,527	1,05
519,978	1,05
520,429	1,05
520,88	1,05
521,33	1,06
521,781	1,06
522,232	1,06
522,682	1,06
523,133	1,06
523,583	1,07
524,034	1,07
524,484	1,07
524,935	1,07
525,385	1,07
525,836	1,07
526,286	1,07
526,736	1,07
527,187	1,07
527,637	1,07
528,087	1,07
528,538	1,07
528,988	1,07
529,438	1,06
529,888	1,06
530,338	1,06
530,788	1,06
531,238	1,06
531,688	1,06
532,139	1,06
532,589	1,06
533,038	1,05
533,488	1,05
533,938	1,05
534,388	1,05
534,838	1,04
535,288	1,04
535,738	1,04
536,187	1,03
536,637	1,03
537,087	1,03
537,537	1,02
537,986	1,02
538,436	1,02
538,885	1,01
539,335	1,01
539,785	1
540,234	1
540,684	0,99
541,133	0,99
541,582	0,98
542,032	0,98
542,481	0,97
542,931	0,97
543,38	0,96
543,829	0,96
544,278	0,95
544,728	0,95
545,177	0,95
545,626	0,94
546,075	0,94
546,524	0,93
546,973	0,93
547,422	0,92
547,871	0,92
548,32	0,92
548,769	0,91
549,218	0,91
549,667	0,9
550,116	0,9
550,565	0,9
551,014	0,89
551,463	0,89
551,911	0,88
552,36	0,88
552,809	0,87
553,258	0,87
553,706	0,86
554,155	0,86
554,603	0,85
555,052	0,85
555,501	0,85
555,949	0,84
556,398	0,84
556,846	0,83
557,294	0,83
557,743	0,82
558,191	0,82
558,64	0,81
559,088	0,8
559,536	0,8
559,985	0,79
560,433	0,79
560,881	0,78
561,329	0,78
561,777	0,78
562,225	0,77
562,674	0,77
563,122	0,76
563,57	0,76
564,018	0,76
564,466	0,75
564,914	0,75
565,362	0,74
565,809	0,74
566,257	0,73
566,705	0,73
567,153	0,73
567,601	0,72
568,048	0,72
568,496	0,71
568,944	0,71
569,392	0,71
569,839	0,7
570,287	0,7
570,734	0,69
571,182	0,69
571,63	0,69
572,077	0,68
572,525	0,68
572,972	0,68
573,419	0,67
573,867	0,67
574,314	0,67
574,761	0,66
575,209	0,66
575,656	0,65
576,103	0,65
576,551	0,65
576,998	0,65
577,445	0,64
577,892	0,64
578,339	0,64
578,786	0,63
579,233	0,63
579,68	0,63
580,127	0,62
580,574	0,62
581,021	0,62
581,468	0,61
581,915	0,61
582,362	0,61
582,809	0,61
583,255	0,61
583,702	0,6
584,149	0,6
584,596	0,6
585,042	0,6
585,489	0,59
585,936	0,59
586,382	0,59
586,829	0,59
587,275	0,59
587,722	0,58
588,168	0,58
588,615	0,58
589,061	0,57
589,508	0,57
589,954	0,57
590,4	0,57
590,847	0,57
591,293	0,56
591,739	0,56
592,185	0,56
592,632	0,56
593,078	0,56
593,524	0,56
593,97	0,56
594,416	0,55
594,862	0,55
595,308	0,55
595,754	0,55
596,2	0,55
596,646	0,55
597,092	0,54
597,538	0,54
597,984	0,54
598,43	0,54
598,876	0,54
599,321	0,54
599,767	0,54
600,213	0,53
600,659	0,53
601,104	0,53
601,55	0,53
601,995	0,53
602,441	0,53
602,887	0,53
603,332	0,52
603,778	0,52
604,223	0,52
604,668	0,52
605,114	0,52
605,559	0,52
606,005	0,52
606,45	0,52
606,895	0,51
607,341	0,51
607,786	0,51
608,231	0,51
608,676	0,51
609,121	0,5
609,566	0,5
610,012	0,49
610,457	0,49
610,902	0,49
611,347	0,48
611,792	0,48
612,237	0,48
612,682	0,48
613,127	0,48
613,571	0,48
614,016	0,48
614,461	0,48
614,906	0,48
615,351	0,48
615,795	0,49
616,24	0,49
616,685	0,49
617,129	0,49
617,574	0,49
618,019	0,49
618,463	0,49
618,908	0,48
619,352	0,48
619,797	0,48
620,241	0,48
620,686	0,48
621,13	0,48
621,574	0,48
622,019	0,48
622,463	0,48
622,907	0,48
623,352	0,47
623,796	0,47
624,24	0,47
624,684	0,47
625,128	0,47
625,572	0,47
626,016	0,47
626,461	0,47
626,905	0,47
627,349	0,47
627,793	0,47
628,236	0,47
628,68	0,47
629,124	0,47
629,568	0,47
630,012	0,47
630,456	0,47
630,9	0,47
631,343	0,47
631,787	0,47
632,231	0,47
632,674	0,47
633,118	0,47
633,562	0,47
634,005	0,47
634,449	0,47
634,892	0,46
635,336	0,46
635,779	0,46
636,223	0,46
636,666	0,46
637,109	0,46
637,553	0,46
637,996	0,46
638,439	0,46
638,883	0,46
639,326	0,46
639,769	0,46
640,212	0,46
640,655	0,46
641,099	0,46
641,542	0,46
641,985	0,45
642,428	0,45
642,871	0,45
643,314	0,45
643,757	0,45
644,2	0,45
644,643	0,45
645,085	0,45
645,528	0,45
645,971	0,45
646,414	0,45
646,857	0,45
647,299	0,45
647,742	0,45
648,185	0,45
648,627	0,45
649,07	0,45
649,513	0,45
649,955	0,45
650,398	0,45
650,84	0,45
651,283	0,45
651,725	0,45
652,168	0,45
652,61	0,45
653,052	0,45
653,495	0,45
653,937	0,36
654,379	0,3
654,821	0,31
655,264	0,31
655,706	0,31
656,148	0,31
656,59	0,31
657,032	0,31
657,474	0,31
657,916	0,31
658,358	0,3
658,8	0,36
659,242	0,44
659,684	0,44
660,126	0,44
660,568	0,44
661,01	0,44
661,452	0,44
661,894	0,44
662,335	0,44
662,777	0,44
663,219	0,44
663,661	0,44
664,102	0,44
664,544	0,44
664,985	0,44
665,427	0,44
665,869	0,44
666,31	0,44
666,752	0,44
667,193	0,44
667,634	0,44
668,076	0,44
668,517	0,44
668,959	0,44
669,4	0,44
669,841	0,44
670,282	0,44
670,724	0,44
671,165	0,44
671,606	0,44
672,047	0,44
672,488	0,44
672,929	0,44
673,37	0,43
673,811	0,43
674,252	0,43
674,693	0,43
675,134	0,43
675,575	0,43
676,016	0,43
676,457	0,43
676,898	0,43
677,339	0,43
677,78	0,43
678,22	0,42
678,661	0,42
679,102	0,42
679,542	0,42
679,983	0,43
680,424	0,43
680,864	0,43
681,305	0,43
681,745	0,43
682,186	0,43
682,626	0,43
683,067	0,43
683,507	0,43
683,948	0,43
684,388	0,43
684,828	0,43
685,269	0,43
685,709	0,43
686,149	0,42
686,589	0,42
687,029	0,42
687,47	0,42
687,91	0,42
688,35	0,42
688,79	0,42
689,23	0,42
689,67	0,42
690,11	0,42
690,55	0,42
690,99	0,42
691,43	0,42
691,87	0,42
692,31	0,42
692,749	0,41
693,189	0,41
693,629	0,41
694,069	0,41
694,508	0,41
694,948	0,41
695,388	0,41
695,827	0,41
696,267	0,41
696,706	0,41
697,146	0,41
697,586	0,41
698,025	0,41
698,464	0,42
698,904	0,42
699,343	0,42
699,783	0,42
700,222	0,42
700,661	0,42
701,101	0,42
701,54	0,42
701,979	0,42
702,418	0,42
702,857	0,42
703,297	0,42
703,736	0,42
704,175	0,42
704,614	0,42
705,053	0,42
705,492	0,42
705,931	0,41
706,37	0,41
706,809	0,41
707,248	0,41
707,687	0,41
708,125	0,41
708,564	0,41
709,003	0,41
709,442	0,41
709,88	0,41
710,319	0,41
710,758	0,41
711,196	0,41
711,635	0,41
712,074	0,41
712,512	0,41
712,951	0,4
713,389	0,4
713,828	0,4
714,266	0,4
714,705	0,4
715,143	0,4
715,581	0,4
716,02	0,4
716,458	0,4
716,896	0,4
717,334	0,4
717,773	0,4
718,211	0,4
718,649	0,4
719,087	0,4
719,525	0,4
719,963	0,4
720,401	0,41
720,839	0,41
721,277	0,41
721,715	0,41
722,153	0,41
722,591	0,41
723,029	0,41
723,467	0,4
723,905	0,4
724,342	0,4
724,78	0,4
725,218	0,4
725,656	0,4
726,093	0,4
726,531	0,4
726,969	0,41
727,406	0,41
727,844	0,41
728,281	0,41
728,719	0,41
729,156	0,4
729,594	0,4
730,031	0,4
730,469	0,4
730,906	0,4
731,343	0,4
731,781	0,4
732,218	0,4
732,655	0,4
733,092	0,4
733,53	0,4
733,967	0,4
734,404	0,39
734,841	0,39
735,278	0,39
735,715	0,39
736,152	0,39
736,589	0,39
737,026	0,39
737,463	0,39
737,9	0,39
738,337	0,39
738,774	0,39
739,211	0,39
739,647	0,39
740,084	0,39
740,521	0,39
740,958	0,39
741,394	0,39
741,831	0,39
742,268	0,39
742,704	0,39
743,141	0,39
743,577	0,39
744,014	0,39
744,45	0,39
744,887	0,39
745,323	0,39
745,76	0,39
746,196	0,38
746,632	0,38
747,069	0,38
747,505	0,38
747,941	0,38
748,378	0,38
748,814	0,38
749,25	0,38
749,686	0,38
750,122	0,38
750,558	0,39
750,994	0,39
751,43	0,39
751,866	0,39
752,302	0,39
752,738	0,39
753,174	0,39
753,61	0,4
754,046	0,4
754,482	0,4
754,918	0,4
755,354	0,39
755,789	0,39
756,225	0,39
756,661	0,39
757,096	0,39
757,532	0,39
757,968	0,39
758,403	0,38
758,839	0,38
759,274	0,38
759,71	0,38
760,145	0,37
760,581	0,37
761,016	0,36
761,452	0,36
761,887	0,35
762,322	0,35
762,758	0,35
763,193	0,34
763,628	0,33
764,063	0,33
764,499	0,32
764,934	0,32
765,369	0,31
765,804	0,3
766,239	0,3
766,674	0,29
767,109	0,29
767,544	0,28
767,979	0,27
768,414	0,27
768,849	0,25
769,284	0,25
769,719	0,24
770,154	0,23
770,588	0,22
771,023	0,21
771,458	0,2
771,893	0,19
772,327	0,18
772,762	0,17
773,197	0,16
773,631	0,15
774,066	0,15
774,5	0,14
774,935	0,13
775,369	0,12
775,804	0,11
776,238	0,1
776,673	0,09
777,107	0,08
777,541	0,08
777,976	0,07
778,41	0,06
778,844	0,05
779,279	0,04
779,713	0,03
780,147	0,02
780,581	0,01
781,015	-0
781,449	-0,01
781,883	-0,02
782,317	-0,03
782,751	-0,04
783,185	-0,05
783,619	-0,06
784,053	-0,07
784,487	-0,08
784,921	-0,08
785,355	-0,09
785,789	-0,09
786,223	-0,1
786,656	-0,11
787,09	-0,12
787,524	-0,13
787,957	-0,14
788,391	-0,15
788,825	-0,17
789,258	-0,18
789,692	-0,2
790,125	-0,21
790,559	-0,22
790,992	-0,25
791,426	-0,27
791,859	-0,28
792,293	-0,31
792,726	-0,33
793,159	-0,35
793,593	-0,37
794,026	-0,39
794,459	-0,42
794,892	-0,45
795,326	-0,47
795,759	-0,51
796,192	-0,55
796,625	-0,6
797,058	-0,62
797,491	-0,67
797,924	-0,71
798,357	-0,75
798,79	-0,8
799,223	-0,84
799,656	-0,89
800,089	-0,94
800,522	-0,98
800,955	-1,02
801,387	-1,08
801,82	-1,13
802,253	-1,19
802,686	-1,27
803,118	-1,33
803,551	-1,38
803,984	-1,42
804,416	-1,46
804,849	-1,49
805,281	-1,61
805,714	-1,97
806,146	-2,44
806,579	-2,7
807,011	-2,86
807,444	-2,96
807,876	-3,04
808,308	-3,07
808,741	-3,1
809,173	-3,15
809,605	-3,17
810,037	-3,25
810,47	-3,17
810,902	-2,97
811,334	-2,82
811,766	-2,65
812,198	-2,39
812,63	-1,97
813,062	-1,77
813,494	-1,67
813,926	-1,59
814,358	-1,53
814,79	-1,45
815,222	-1,39
815,654	-1,35
816,086	-1,28
816,518	-1,23
816,949	-1,17
817,381	-1,13
817,813	-1,11
818,245	-1,07
818,676	-1,03
819,108	-1
819,54	-0,99
819,971	-0,97
820,403	-0,92
820,834	-0,91
821,266	-0,86
821,697	-0,84
822,129	-0,83
822,56	-0,81
822,991	-0,79
823,423	-0,76
823,854	-0,75
824,286	-0,72
824,717	-0,71
825,148	-0,69
825,579	-0,68
826,01	-0,67
826,442	-0,66
826,873	-0,65
827,304	-0,61
827,735	-0,6
828,166	-0,61
828,597	-0,61
829,028	-0,6
829,459	-0,61
829,89	-0,61
830,321	-0,57
830,752	-0,58
831,183	-0,57
831,613	-0,56
832,044	-0,56
832,475	-0,55
832,906	-0,56
833,336	-0,56
833,767	-0,57
834,198	-0,55
834,628	-0,53
835,059	-0,57
835,49	-0,57
835,92	-0,54
836,351	-0,53
836,781	-0,54
837,212	-0,56
837,642	-0,55
838,072	-0,53
838,503	-0,54
838,933	-0,51
839,364	-0,52
839,794	-0,49
840,224	-0,49
840,654	-0,54
841,085	-0,55
841,515	-0,52
841,945	-0,51
842,375	-0,47
842,805	-0,46
843,235	-0,45
843,665	-0,46
844,095	-0,45
844,525	-0,48
844,955	-0,48
845,385	-0,46
845,815	-0,44
846,245	-0,47
846,675	-0,48
847,105	-0,5
847,534	-0,51
847,964	-0,49
848,394	-0,47
848,824	-0,5
849,253	-0,48
849,683	-0,48
850,112	-0,49
850,542	-0,52
850,972	-0,52
851,401	-0,5
851,831	-0,48
852,26	-0,48
852,69	-0,53
853,119	-0,52
853,548	-0,53
853,978	-0,53
854,407	-0,51
854,836	-0,52
855,266	-0,5
855,695	-0,52
856,124	-0,53
856,553	-0,54
856,983	-0,56
857,412	-0,55
857,841	-0,56
858,27	-0,57
858,699	-0,57
859,128	-0,61
859,557	-0,62
859,986	-0,63
860,415	-0,61
860,844	-0,59
861,273	-0,59
861,702	-0,59
862,13	-0,56
862,559	-0,59
862,988	-0,57
863,417	-0,56
863,845	-0,55
864,274	-0,55
864,703	-0,56
865,131	-0,55
865,56	-0,56
865,989	-0,59
866,417	-0,56
866,846	-0,57
867,274	-0,56
867,703	-0,57
868,131	-0,58
868,559	-0,58
868,988	-0,6
869,416	-0,59
869,844	-0,6
870,273	-0,63
870,701	-0,6
871,129	-0,64
871,557	-0,66
871,986	-0,67
872,414	-0,68
872,842	-0,64
873,27	-0,63
873,698	-0,6
874,126	-0,64
874,554	-0,63
874,982	-0,62
875,41	-0,65
875,838	-0,61
876,266	-0,59
876,694	-0,58
877,122	-0,58
877,549	-0,64
877,977	-0,61
878,405	-0,64
878,833	-0,6
879,26	-0,59
879,688	-0,59
880,116	-0,57
880,543	-0,55
880,971	-0,54
881,399	-0,56
881,826	-0,57
882,254	-0,55
882,681	-0,58
883,109	-0,54
883,536	-0,55
883,963	-0,57
884,391	-0,56
884,818	-0,53
885,245	-0,58
885,673	-0,6
886,1	-0,57
886,527	-0,56
886,954	-0,53
887,381	-0,55
887,809	-0,56
888,236	-0,57
888,663	-0,57
889,09	-0,61
889,517	-0,63
889,944	-0,62
890,371	-0,61
890,798	-0,62
891,225	-0,62
891,652	-0,65
892,078	-0,63
892,505	-0,66
892,932	-0,61
893,359	-0,62
893,786	-0,62
894,212	-0,59
894,639	-0,61
895,066	-0,63
895,492	-0,56
895,919	-0,57
896,346	-0,56
896,772	-0,57
897,199	-0,54
897,625	-0,57
898,052	-0,54
898,478	-0,52
898,904	-0,54
899,331	-0,54
899,757	-0,56
900,183	-0,58
900,61	-0,56
901,036	-0,56
901,462	-0,55
901,888	-0,54
902,315	-0,53
902,741	-0,58
903,167	-0,56
903,593	-0,59
904,019	-0,56
904,445	-0,52
904,871	-0,55
905,297	-0,57
905,723	-0,56
906,149	-0,55
906,575	-0,55
907,001	-0,55
907,427	-0,52
907,852	-0,52
908,278	-0,52
908,704	-0,51
909,13	-0,51
909,555	-0,51
909,981	-0,5
910,407	-0,51
910,832	-0,51
911,258	-0,52
911,684	-0,52
912,109	-0,52
912,535	-0,53
912,96	-0,49
913,386	-0,53
913,811	-0,52
914,236	-0,55
914,662	-0,53
915,087	-0,57
915,512	-0,56
915,938	-0,59
916,363	-0,58
916,788	-0,6
917,213	-0,58
917,639	-0,63
918,064	-0,6
918,489	-0,61
918,914	-0,61
919,339	-0,62
919,764	-0,59
920,189	-0,59
920,614	-0,61
921,039	-0,62
921,464	-0,57
921,889	-0,6
922,314	-0,61
922,738	-0,64
923,163	-0,66
923,588	-0,64
924,013	-0,63
924,437	-0,63
924,862	-0,65
925,287	-0,61
925,711	-0,62
926,136	-0,64
926,561	-0,61
926,985	-0,6
927,41	-0,57
927,834	-0,55
928,259	-0,52
928,683	-0,5
929,108	-0,47
929,532	-0,48
929,956	-0,47
930,381	-0,45
930,805	-0,46
931,229	-0,45
931,653	-0,43
932,078	-0,43
932,502	-0,44
932,926	-0,46
933,35	-0,46
933,774	-0,45
934,198	-0,43
934,622	-0,42
935,046	-0,44
935,47	-0,45
935,894	-0,44
936,318	-0,44
936,742	-0,44
937,166	-0,45
937,59	-0,44
938,014	-0,47
938,437	-0,48
938,861	-0,5
939,285	-0,51
939,709	-0,5
940,132	-0,5
940,556	-0,5
940,98	-0,5
941,403	-0,5
941,827	-0,49
942,25	-0,5
942,674	-0,49
943,097	-0,48
943,521	-0,47
943,944	-0,48
944,368	-0,47
944,791	-0,46
945,214	-0,48
945,638	-0,48
946,061	-0,51
946,484	-0,52
946,907	-0,5
947,331	-0,5
947,754	-0,55
948,177	-0,52
948,6	-0,52
949,023	-0,51
949,446	-0,51
949,869	-0,49
950,292	-0,49
950,715	-0,46
951,138	-0,43
951,561	-0,42
951,984	-0,42
952,407	-0,41
952,83	-0,4
953,252	-0,37
953,675	-0,36
954,098	-0,37
954,521	-0,35
954,943	-0,35
955,366	-0,36
955,789	-0,35
956,211	-0,37
956,634	-0,38
957,056	-0,35
957,479	-0,36
957,902	-0,38
958,324	-0,39
958,746	-0,37
959,169	-0,38
959,591	-0,38
960,014	-0,38
960,436	-0,38
960,858	-0,37
961,281	-0,36
961,703	-0,38
962,125	-0,37
962,547	-0,35
962,969	-0,36
963,391	-0,36
963,814	-0,37
964,236	-0,35
964,658	-0,33
965,08	-0,34
965,502	-0,33
965,924	-0,31
966,346	-0,3
966,768	-0,3
967,189	-0,31
967,611	-0,31
968,033	-0,3
968,455	-0,28
968,877	-0,29
969,298	-0,31
969,72	-0,31
970,142	-0,3
970,563	-0,31
970,985	-0,3
971,407	-0,29
971,828	-0,27
972,25	-0,26
972,671	-0,25
973,093	-0,26
973,514	-0,24
973,936	-0,23
974,357	-0,22
974,778	-0,23
975,2	-0,22
975,621	-0,21
976,042	-0,19
976,464	-0,19
976,885	-0,17
977,306	-0,17
977,727	-0,15
978,148	-0,15
978,57	-0,13
978,991	-0,12
979,412	-0,1
979,833	-0,09
980,254	-0,09
980,675	-0,1
981,096	-0,09
981,517	-0,07
981,937	-0,08
982,358	-0,06
982,779	-0,04
983,2	-0,04
983,621	-0,03
984,042	-0,01
984,462	-0
984,883	0,01
985,304	0,03
985,724	0,04
986,145	0,05
986,565	0,07
986,986	0,07
987,407	0,08
987,827	0,1
988,248	0,11
988,668	0,12
989,088	0,13
989,509	0,15
989,929	0,16
990,35	0,17
990,77	0,18
991,19	0,19
991,61	0,2
992,031	0,21
992,451	0,22
992,871	0,23
993,291	0,24
993,711	0,24
994,131	0,25
994,551	0,26
994,971	0,26
995,391	0,27
995,811	0,28
996,231	0,28
996,651	0,28
997,071	0,29
997,491	0,3
997,911	0,3
998,331	0,31
998,75	0,32
999,17	0,32
999,59	0,32
1000,009	0,33
1000,429	0,33
1000,849	0,34
1001,268	0,35
1001,688	0,35
1002,107	0,35
1002,527	0,36
1002,946	0,36
1003,366	0,36
1003,785	0,37
1004,205	0,37
1004,624	0,37
1005,044	0,37
1005,463	0,37
1005,882	0,38
1006,301	0,38
1006,721	0,38
1007,14	0,38
1007,559	0,38
1007,978	0,38
1008,397	0,38
1008,816	0,38
1009,235	0,38
1009,655	0,38
1010,074	0,38
1010,492	0,38
1010,911	0,38
1011,33	0,38
1011,749	0,38
1012,168	0,38
1012,587	0,38
1013,006	0,38
1013,425	0,38
1013,843	0,37
1014,262	0,37
1014,681	0,37
1015,099	0,37
1015,518	0,37
1015,937	0,37
1016,355	0,37
1016,774	0,37
1017,192	0,37
1017,611	0,37
1018,029	0,37
1018,448	0,37
1018,866	0,37
1019,285	0,37
1019,703	0,37
1020,121	0,37
1020,54	0,37
1020,958	0,37
1021,376	0,37
1021,794	0,37
1022,213	0,37
1022,631	0,37
1023,049	0,37
1023,467	0,36
1023,885	0,36
1024,303	0,36
1024,721	0,36
1025,139	0,36
1025,557	0,36
1025,975	0,36
1026,393	0,36
1026,811	0,36
1027,229	0,36
1027,647	0,36
1028,065	0,36
1028,482	0,36
1028,9	0,36
1029,318	0,36
1029,735	0,36
1030,153	0,36
1030,571	0,36
1030,988	0,36
1031,406	0,36
1031,823	0,36
1032,241	0,36
1032,659	0,36
1033,076	0,36
1033,493	0,36
1033,911	0,36
1034,328	0,36
1034,746	0,36
1035,163	0,36
1035,58	0,36
1035,997	0,36
1036,415	0,36
1036,832	0,36
1037,249	0,36
1037,666	0,36
1038,083	0,36
1038,501	0,36
1038,918	0,36
1039,335	0,36
1039,752	0,36
1040,169	0,36
1040,586	0,36
1041,003	0,36
1041,419	0,36
1041,836	0,36
1042,253	0,36
1042,67	0,36
1043,087	0,36
1043,504	0,36
1043,92	0,36
1044,337	0,36
1044,754	0,36
1045,17	0,36
1045,587	0,36
1046,004	0,36
1046,42	0,36
1046,837	0,36
1047,253	0,36
1047,67	0,36
1048,086	0,36
1048,503	0,36
1048,919	0,36
1049,335	0,36
1049,752	0,36
1050,168	0,36
1050,584	0,36
1051,001	0,36
1051,417	0,36
1051,833	0,36
1052,249	0,36
1052,665	0,36
1053,081	0,36
1053,497	0,36
1053,914	0,36
1054,33	0,37
1054,746	0,37
1055,162	0,37
1055,578	0,37
1055,993	0,37
1056,409	0,37
1056,825	0,37
1057,241	0,37
1057,657	0,37
1058,073	0,37
1058,488	0,37
1058,904	0,37
1059,32	0,37
1059,736	0,37
1060,151	0,37
1060,567	0,37
1060,982	0,37
1061,398	0,37
1061,813	0,37
1062,229	0,37
1062,644	0,37
1063,06	0,37
1063,475	0,37
1063,891	0,36
1064,306	0,36
1064,721	0,36
1065,137	0,36
1065,552	0,36
1065,967	0,36
1066,382	0,36
1066,798	0,36
1067,213	0,36
1067,628	0,36
1068,043	0,36
1068,458	0,36
1068,873	0,36
1069,288	0,36
1069,703	0,36
1070,118	0,36
1070,533	0,36
1070,948	0,36
1071,363	0,36
1071,778	0,36
1072,193	0,36
1072,607	0,36
1073,022	0,36
1073,437	0,36
1073,852	0,36
1074,266	0,36
1074,681	0,36
1075,096	0,36
1075,51	0,36
1075,925	0,36
1076,339	0,36
1076,754	0,36
1077,168	0,36
1077,583	0,36
1077,997	0,36
1078,412	0,36
1078,826	0,36
1079,24	0,36
1079,655	0,36
1080,069	0,36
1080,483	0,36
1080,897	0,36
1081,312	0,36
1081,726	0,36
1082,14	0,36
1082,554	0,36
1082,968	0,36
1083,382	0,36
1083,796	0,35
1084,21	0,35
1084,624	0,35
1085,038	0,35
1085,452	0,35
1085,866	0,35
1086,28	0,35
1086,694	0,35
1087,108	0,35
1087,521	0,34
1087,935	0,34
1088,349	0,34
1088,763	0,33
1089,176	0,33
1089,59	0,33
1090,004	0,33
1090,417	0,32
1090,831	0,32
1091,244	0,32
1091,658	0,31
1092,071	0,31
1092,485	0,31
1092,898	0,31
1093,312	0,31
1093,725	0,31
1094,138	0,3
1094,552	0,3
1094,965	0,3
1095,378	0,3
1095,791	0,3
1096,205	0,29
1096,618	0,29
1097,031	0,29
1097,444	0,29
1097,857	0,28
1098,27	0,28
1098,683	0,28
1099,096	0,27
1099,509	0,27
1099,922	0,26
1100,335	0,26
1100,748	0,25
1101,161	0,25
1101,574	0,25
1101,986	0,24
1102,399	0,24
1102,812	0,24
1103,225	0,23
1103,637	0,23
1104,05	0,23
1104,463	0,23
1104,875	0,23
1105,288	0,22
1105,7	0,22
1106,113	0,22
1106,525	0,22
1106,938	0,21
1107,35	0,21
1107,763	0,21
1108,175	0,21
1108,588	0,2
1109	0,2
1109,412	0,2
1109,824	0,2
1110,237	0,2
1110,649	0,21
1111,061	0,2
