Data from 18C-808nm-8A-cont_Absorbance__691__02120.txt Node

Date: Mon Jul 17 17:45:23 CEST 2023
User: Laser008
Spectrometer: MAYP115816
Trigger mode: 0
Integration Time (sec): 2,500000E-1
Scans to average: 10
Electric dark correction enabled: true
Nonlinearity correction enabled: true
Boxcar width: 5
XAxis mode: Wavelengths
Number of Pixels in Spectrum: 2068
>>>>>Begin Spectral Data<<<<<
198,914	-0,66
199,384	-0,46
199,855	-0,35
200,325	-0,25
200,796	-0,21
201,266	-0,15
201,737	-0,13
202,207	-0,12
202,677	-0,12
203,147	-0,1
203,618	-0,07
204,088	-0,05
204,558	-0,04
205,028	-0,02
205,498	-0,03
205,968	-0,03
206,439	-0,05
206,909	-0,05
207,379	-0,05
207,849	-0,04
208,319	-0,05
208,789	-0,06
209,258	-0,06
209,728	-0,08
210,198	-0,08
210,668	-0,08
211,138	-0,08
211,608	-0,08
212,077	-0,09
212,547	-0,09
213,017	-0,09
213,486	-0,09
213,956	-0,09
214,426	-0,1
214,895	-0,09
215,365	-0,1
215,834	-0,1
216,304	-0,1
216,773	-0,11
217,243	-0,13
217,712	-0,14
218,181	-0,14
218,651	-0,14
219,12	-0,14
219,589	-0,14
220,058	-0,12
220,528	-0,13
220,997	-0,14
221,466	-0,16
221,935	-0,16
222,404	-0,15
222,873	-0,14
223,342	-0,15
223,812	-0,15
224,281	-0,15
224,749	-0,15
225,218	-0,17
225,687	-0,17
226,156	-0,15
226,625	-0,14
227,094	-0,14
227,563	-0,14
228,031	-0,16
228,5	-0,15
228,969	-0,15
229,438	-0,15
229,906	-0,14
230,375	-0,13
230,844	-0,12
231,312	-0,13
231,781	-0,13
232,249	-0,12
232,718	-0,12
233,186	-0,1
233,655	-0,12
234,123	-0,11
234,591	-0,12
235,06	-0,12
235,528	-0,12
235,996	-0,12
236,465	-0,13
236,933	-0,12
237,401	-0,12
237,869	-0,12
238,337	-0,12
238,805	-0,1
239,274	-0,09
239,742	-0,08
240,21	-0,09
240,678	-0,08
241,146	-0,08
241,614	-0,08
242,081	-0,07
242,549	-0,07
243,017	-0,07
243,485	-0,06
243,953	-0,06
244,421	-0,06
244,888	-0,06
245,356	-0,05
245,824	-0,05
246,291	-0,05
246,759	-0,06
247,227	-0,06
247,694	-0,06
248,162	-0,06
248,629	-0,06
249,097	-0,06
249,564	-0,07
250,032	-0,08
250,499	-0,08
250,967	-0,09
251,434	-0,09
251,901	-0,09
252,369	-0,09
252,836	-0,09
253,303	-0,1
253,77	-0,11
254,237	-0,11
254,705	-0,11
255,172	-0,11
255,639	-0,11
256,106	-0,13
256,573	-0,12
257,04	-0,13
257,507	-0,14
257,974	-0,15
258,441	-0,13
258,908	-0,13
259,375	-0,15
259,841	-0,15
260,308	-0,16
260,775	-0,15
261,242	-0,14
261,709	-0,14
262,175	-0,15
262,642	-0,14
263,109	-0,13
263,575	-0,13
264,042	-0,12
264,508	-0,12
264,975	-0,13
265,441	-0,14
265,908	-0,14
266,374	-0,14
266,841	-0,15
267,307	-0,15
267,773	-0,14
268,24	-0,15
268,706	-0,15
269,172	-0,15
269,639	-0,16
270,105	-0,15
270,571	-0,15
271,037	-0,15
271,503	-0,18
271,969	-0,17
272,435	-0,17
272,902	-0,19
273,368	-0,21
273,834	-0,21
274,3	-0,22
274,765	-0,21
275,231	-0,21
275,697	-0,2
276,163	-0,2
276,629	-0,19
277,095	-0,2
277,56	-0,19
278,026	-0,19
278,492	-0,17
278,958	-0,16
279,423	-0,17
279,889	-0,17
280,354	-0,18
280,82	-0,18
281,286	-0,19
281,751	-0,2
282,217	-0,19
282,682	-0,2
283,147	-0,2
283,613	-0,2
284,078	-0,2
284,544	-0,21
285,009	-0,22
285,474	-0,21
285,939	-0,22
286,405	-0,21
286,87	-0,2
287,335	-0,2
287,8	-0,19
288,265	-0,19
288,73	-0,21
289,195	-0,23
289,66	-0,23
290,125	-0,21
290,59	-0,22
291,055	-0,21
291,52	-0,21
291,985	-0,22
292,45	-0,23
292,915	-0,22
293,38	-0,22
293,844	-0,2
294,309	-0,19
294,774	-0,17
295,239	-0,18
295,703	-0,18
296,168	-0,17
296,632	-0,17
297,097	-0,16
297,562	-0,14
298,026	-0,15
298,491	-0,15
298,955	-0,15
299,419	-0,15
299,884	-0,14
300,348	-0,13
300,813	-0,12
301,277	-0,13
301,741	-0,13
302,205	-0,13
302,67	-0,12
303,134	-0,11
303,598	-0,11
304,062	-0,1
304,526	-0,09
304,99	-0,09
305,454	-0,1
305,919	-0,09
306,383	-0,09
306,847	-0,08
307,31	-0,09
307,774	-0,11
308,238	-0,12
308,702	-0,11
309,166	-0,13
309,63	-0,13
310,094	-0,12
310,557	-0,12
311,021	-0,11
311,485	-0,11
311,948	-0,11
312,412	-0,1
312,876	-0,09
313,339	-0,09
313,803	-0,09
314,266	-0,09
314,73	-0,09
315,193	-0,09
315,657	-0,07
316,12	-0,08
316,584	-0,06
317,047	-0,06
317,51	-0,05
317,973	-0,04
318,437	-0,03
318,9	-0,03
319,363	-0,02
319,826	-0,01
320,29	-0,02
320,753	-0,03
321,216	-0,02
321,679	-0,02
322,142	-0,01
322,605	-0,03
323,068	-0,03
323,531	-0,03
323,994	-0,02
324,457	-0,02
324,92	-0,01
325,382	-0
325,845	0,01
326,308	0,01
326,771	0,01
327,233	0,02
327,696	0,03
328,159	0,04
328,622	0,05
329,084	0,04
329,547	0,05
330,009	0,06
330,472	0,07
330,934	0,08
331,397	0,08
331,859	0,09
332,322	0,09
332,784	0,09
333,246	0,1
333,709	0,1
334,171	0,1
334,633	0,1
335,096	0,1
335,558	0,09
336,02	0,09
336,482	0,1
336,944	0,1
337,406	0,11
337,868	0,13
338,331	0,12
338,793	0,14
339,255	0,15
339,717	0,15
340,178	0,16
340,64	0,17
341,102	0,18
341,564	0,19
342,026	0,21
342,488	0,21
342,949	0,23
343,411	0,26
343,873	0,29
344,335	0,32
344,796	0,36
345,258	0,41
345,719	0,46
346,181	0,52
346,643	0,57
347,104	0,61
347,566	0,65
348,027	0,68
348,488	0,72
348,95	0,75
349,411	0,78
349,873	0,81
350,334	0,84
350,795	0,87
351,256	0,88
351,718	0,89
352,179	0,9
352,64	0,91
353,101	0,91
353,562	0,92
354,023	0,92
354,484	0,93
354,945	0,93
355,406	0,93
355,867	0,94
356,328	0,94
356,789	0,94
357,25	0,95
357,711	0,95
358,172	0,95
358,633	0,95
359,093	0,96
359,554	0,96
360,015	0,96
360,476	0,96
360,936	0,97
361,397	0,97
361,858	0,97
362,318	0,97
362,779	0,97
363,239	0,97
363,7	0,97
364,16	0,98
364,621	0,98
365,081	0,98
365,541	0,98
366,002	0,98
366,462	0,97
366,922	0,97
367,383	0,97
367,843	0,97
368,303	0,98
368,763	0,98
369,223	0,98
369,684	0,98
370,144	0,98
370,604	0,98
371,064	0,98
371,524	0,98
371,984	0,98
372,444	0,98
372,904	0,98
373,363	0,97
373,823	0,97
374,283	0,97
374,743	0,97
375,203	0,97
375,663	0,97
376,122	0,97
376,582	0,97
377,042	0,97
377,501	0,97
377,961	0,97
378,42	0,97
378,88	0,97
379,34	0,97
379,799	0,97
380,259	0,97
380,718	0,97
381,177	0,97
381,637	0,97
382,096	0,97
382,555	0,97
383,015	0,97
383,474	0,97
383,933	0,97
384,393	0,97
384,852	0,97
385,311	0,97
385,77	0,97
386,229	0,97
386,688	0,97
387,147	0,97
387,606	0,97
388,065	0,97
388,524	0,97
388,983	0,97
389,442	0,97
389,901	0,97
390,36	0,97
390,819	0,96
391,277	0,96
391,736	0,96
392,195	0,96
392,654	0,96
393,112	0,96
393,571	0,96
394,03	0,96
394,488	0,96
394,947	0,96
395,405	0,96
395,864	0,96
396,322	0,96
396,781	0,96
397,239	0,96
397,698	0,96
398,156	0,96
398,614	0,96
399,073	0,96
399,531	0,96
399,989	0,96
400,447	0,96
400,905	0,96
401,364	0,96
401,822	0,96
402,28	0,96
402,738	0,96
403,196	0,96
403,654	0,96
404,112	0,96
404,57	0,96
405,028	0,96
405,486	0,96
405,944	0,96
406,402	0,96
406,859	0,96
407,317	0,96
407,775	0,96
408,233	0,96
408,691	0,96
409,148	0,96
409,606	0,96
410,064	0,95
410,521	0,95
410,979	0,95
411,436	0,96
411,894	0,95
412,351	0,95
412,809	0,95
413,266	0,95
413,724	0,95
414,181	0,95
414,638	0,95
415,096	0,95
415,553	0,95
416,01	0,95
416,467	0,95
416,925	0,95
417,382	0,95
417,839	0,95
418,296	0,95
418,753	0,95
419,21	0,95
419,667	0,95
420,124	0,95
420,581	0,95
421,038	0,95
421,495	0,95
421,952	0,95
422,409	0,95
422,866	0,95
423,322	0,95
423,779	0,95
424,236	0,95
424,693	0,95
425,149	0,95
425,606	0,95
426,063	0,95
426,519	0,95
426,976	0,95
427,433	0,95
427,889	0,95
428,346	0,95
428,802	0,95
429,258	0,95
429,715	0,95
430,171	0,95
430,628	0,95
431,084	0,95
431,54	0,95
431,997	0,95
432,453	0,95
432,909	0,95
433,365	0,95
433,821	0,94
434,277	0,94
434,734	0,94
435,19	0,94
435,646	0,94
436,102	0,94
436,558	0,94
437,014	0,94
437,47	0,94
437,925	0,94
438,381	0,95
438,837	0,95
439,293	0,95
439,749	0,95
440,205	0,95
440,66	0,95
441,116	0,95
441,572	0,95
442,027	0,95
442,483	0,95
442,939	0,95
443,394	0,95
443,85	0,95
444,305	0,95
444,761	0,95
445,216	0,95
445,672	0,95
446,127	0,95
446,582	0,95
447,038	0,95
447,493	0,95
447,948	0,95
448,403	0,96
448,859	0,96
449,314	0,96
449,769	0,96
450,224	0,96
450,679	0,96
451,134	0,96
451,589	0,96
452,044	0,96
452,499	0,96
452,954	0,96
453,409	0,96
453,864	0,96
454,319	0,96
454,774	0,96
455,229	0,96
455,684	0,96
456,138	0,96
456,593	0,96
457,048	0,96
457,503	0,96
457,957	0,96
458,412	0,96
458,866	0,96
459,321	0,96
459,776	0,96
460,23	0,97
460,685	0,97
461,139	0,97
461,593	0,97
462,048	0,97
462,502	0,97
462,957	0,97
463,411	0,97
463,865	0,98
464,319	0,98
464,774	0,98
465,228	0,98
465,682	0,98
466,136	0,98
466,59	0,98
467,044	0,98
467,499	0,98
467,953	0,98
468,407	0,98
468,861	0,98
469,315	0,98
469,768	0,98
470,222	0,99
470,676	0,99
471,13	0,99
471,584	0,99
472,038	0,99
472,491	0,99
472,945	0,99
473,399	0,99
473,852	0,99
474,306	1
474,76	1
475,213	1
475,667	1
476,12	1
476,574	1
477,027	1,01
477,481	1,01
477,934	1,01
478,388	1,01
478,841	1,01
479,294	1,02
479,748	1,02
480,201	1,02
480,654	1,02
481,107	1,02
481,561	1,03
482,014	1,03
482,467	1,03
482,92	1,03
483,373	1,03
483,826	1,03
484,279	1,04
484,732	1,04
485,185	1,04
485,638	1,04
486,091	1,05
486,544	1,05
486,997	1,05
487,449	1,05
487,902	1,06
488,355	1,06
488,808	1,06
489,26	1,06
489,713	1,07
490,166	1,07
490,618	1,07
491,071	1,08
491,523	1,08
491,976	1,08
492,429	1,08
492,881	1,09
493,333	1,09
493,786	1,1
494,238	1,1
494,691	1,1
495,143	1,11
495,595	1,11
496,048	1,12
496,5	1,12
496,952	1,12
497,404	1,13
497,856	1,13
498,309	1,14
498,761	1,14
499,213	1,15
499,665	1,15
500,117	1,15
500,569	1,16
501,021	1,16
501,473	1,17
501,925	1,17
502,377	1,18
502,828	1,18
503,28	1,19
503,732	1,19
504,184	1,19
504,636	1,2
505,087	1,2
505,539	1,21
505,991	1,21
506,442	1,22
506,894	1,22
507,345	1,22
507,797	1,23
508,249	1,23
508,7	1,24
509,151	1,24
509,603	1,25
510,054	1,25
510,506	1,26
510,957	1,26
511,408	1,26
511,86	1,27
512,311	1,27
512,762	1,27
513,213	1,28
513,665	1,28
514,116	1,29
514,567	1,29
515,018	1,29
515,469	1,3
515,92	1,3
516,371	1,3
516,822	1,31
517,273	1,31
517,724	1,31
518,175	1,32
518,626	1,32
519,076	1,32
519,527	1,32
519,978	1,32
520,429	1,33
520,88	1,33
521,33	1,33
521,781	1,33
522,232	1,34
522,682	1,34
523,133	1,34
523,583	1,34
524,034	1,34
524,484	1,34
524,935	1,34
525,385	1,34
525,836	1,35
526,286	1,34
526,736	1,35
527,187	1,35
527,637	1,34
528,087	1,34
528,538	1,34
528,988	1,34
529,438	1,34
529,888	1,34
530,338	1,34
530,788	1,34
531,238	1,33
531,688	1,33
532,139	1,33
532,589	1,33
533,038	1,33
533,488	1,33
533,938	1,32
534,388	1,32
534,838	1,32
535,288	1,31
535,738	1,31
536,187	1,31
536,637	1,3
537,087	1,3
537,537	1,29
537,986	1,29
538,436	1,28
538,885	1,28
539,335	1,27
539,785	1,26
540,234	1,26
540,684	1,25
541,133	1,25
541,582	1,24
542,032	1,24
542,481	1,23
542,931	1,22
543,38	1,22
543,829	1,21
544,278	1,2
544,728	1,2
545,177	1,19
545,626	1,18
546,075	1,18
546,524	1,17
546,973	1,17
547,422	1,16
547,871	1,16
548,32	1,16
548,769	1,16
549,218	1,15
549,667	1,15
550,116	1,15
550,565	1,15
551,014	1,14
551,463	1,14
551,911	1,13
552,36	1,13
552,809	1,12
553,258	1,12
553,706	1,11
554,155	1,11
554,603	1,1
555,052	1,1
555,501	1,09
555,949	1,09
556,398	1,08
556,846	1,08
557,294	1,07
557,743	1,07
558,191	1,06
558,64	1,05
559,088	1,05
559,536	1,04
559,985	1,04
560,433	1,03
560,881	1,03
561,329	1,02
561,777	1,02
562,225	1,01
562,674	1,01
563,122	1
563,57	1
564,018	0,99
564,466	0,99
564,914	0,99
565,362	0,98
565,809	0,97
566,257	0,97
566,705	0,96
567,153	0,96
567,601	0,95
568,048	0,95
568,496	0,95
568,944	0,94
569,392	0,94
569,839	0,93
570,287	0,93
570,734	0,93
571,182	0,92
571,63	0,92
572,077	0,91
572,525	0,91
572,972	0,91
573,419	0,9
573,867	0,9
574,314	0,89
574,761	0,89
575,209	0,88
575,656	0,88
576,103	0,88
576,551	0,87
576,998	0,87
577,445	0,87
577,892	0,86
578,339	0,86
578,786	0,85
579,233	0,85
579,68	0,85
580,127	0,84
580,574	0,84
581,021	0,84
581,468	0,83
581,915	0,83
582,362	0,83
582,809	0,83
583,255	0,82
583,702	0,82
584,149	0,82
584,596	0,81
585,042	0,81
585,489	0,8
585,936	0,8
586,382	0,8
586,829	0,8
587,275	0,79
587,722	0,79
588,168	0,79
588,615	0,79
589,061	0,78
589,508	0,78
589,954	0,78
590,4	0,78
590,847	0,78
591,293	0,77
591,739	0,77
592,185	0,77
592,632	0,77
593,078	0,77
593,524	0,76
593,97	0,76
594,416	0,76
594,862	0,76
595,308	0,76
595,754	0,76
596,2	0,76
596,646	0,75
597,092	0,75
597,538	0,75
597,984	0,75
598,43	0,74
598,876	0,74
599,321	0,74
599,767	0,74
600,213	0,74
600,659	0,74
601,104	0,73
601,55	0,73
601,995	0,73
602,441	0,73
602,887	0,73
603,332	0,73
603,778	0,73
604,223	0,73
604,668	0,72
605,114	0,72
605,559	0,72
606,005	0,72
606,45	0,72
606,895	0,72
607,341	0,72
607,786	0,72
608,231	0,71
608,676	0,71
609,121	0,7
609,566	0,69
610,012	0,68
610,457	0,67
610,902	0,67
611,347	0,67
611,792	0,66
612,237	0,66
612,682	0,66
613,127	0,66
613,571	0,66
614,016	0,67
614,461	0,67
614,906	0,68
615,351	0,68
615,795	0,68
616,24	0,68
616,685	0,68
617,129	0,68
617,574	0,68
618,019	0,68
618,463	0,68
618,908	0,68
619,352	0,68
619,797	0,68
620,241	0,68
620,686	0,68
621,13	0,68
621,574	0,68
622,019	0,68
622,463	0,67
622,907	0,67
623,352	0,67
623,796	0,67
624,24	0,67
624,684	0,67
625,128	0,67
625,572	0,67
626,016	0,67
626,461	0,67
626,905	0,67
627,349	0,67
627,793	0,67
628,236	0,67
628,68	0,66
629,124	0,66
629,568	0,66
630,012	0,66
630,456	0,66
630,9	0,66
631,343	0,66
631,787	0,66
632,231	0,66
632,674	0,66
633,118	0,66
633,562	0,66
634,005	0,66
634,449	0,66
634,892	0,66
635,336	0,66
635,779	0,66
636,223	0,66
636,666	0,66
637,109	0,66
637,553	0,66
637,996	0,66
638,439	0,66
638,883	0,66
639,326	0,66
639,769	0,66
640,212	0,66
640,655	0,66
641,099	0,66
641,542	0,66
641,985	0,66
642,428	0,66
642,871	0,66
643,314	0,65
643,757	0,65
644,2	0,65
644,643	0,65
645,085	0,65
645,528	0,65
645,971	0,65
646,414	0,65
646,857	0,65
647,299	0,64
647,742	0,64
648,185	0,64
648,627	0,64
649,07	0,64
649,513	0,64
649,955	0,64
650,398	0,64
650,84	0,64
651,283	0,64
651,725	0,64
652,168	0,64
652,61	0,64
653,052	0,64
653,495	0,64
653,937	0,55
654,379	0,49
654,821	0,5
655,264	0,5
655,706	0,5
656,148	0,5
656,59	0,5
657,032	0,5
657,474	0,5
657,916	0,5
658,358	0,49
658,8	0,56
659,242	0,64
659,684	0,64
660,126	0,64
660,568	0,64
661,01	0,64
661,452	0,64
661,894	0,64
662,335	0,64
662,777	0,64
663,219	0,64
663,661	0,64
664,102	0,64
664,544	0,64
664,985	0,64
665,427	0,64
665,869	0,64
666,31	0,64
666,752	0,64
667,193	0,64
667,634	0,64
668,076	0,64
668,517	0,63
668,959	0,63
669,4	0,63
669,841	0,63
670,282	0,63
670,724	0,63
671,165	0,63
671,606	0,63
672,047	0,63
672,488	0,63
672,929	0,63
673,37	0,63
673,811	0,63
674,252	0,63
674,693	0,63
675,134	0,63
675,575	0,63
676,016	0,63
676,457	0,63
676,898	0,63
677,339	0,63
677,78	0,63
678,22	0,63
678,661	0,63
679,102	0,63
679,542	0,63
679,983	0,63
680,424	0,63
680,864	0,63
681,305	0,63
681,745	0,63
682,186	0,63
682,626	0,63
683,067	0,63
683,507	0,63
683,948	0,63
684,388	0,63
684,828	0,63
685,269	0,63
685,709	0,63
686,149	0,63
686,589	0,63
687,029	0,63
687,47	0,62
687,91	0,62
688,35	0,62
688,79	0,62
689,23	0,62
689,67	0,62
690,11	0,62
690,55	0,62
690,99	0,62
691,43	0,62
691,87	0,62
692,31	0,62
692,749	0,62
693,189	0,62
693,629	0,62
694,069	0,61
694,508	0,61
694,948	0,61
695,388	0,61
695,827	0,61
696,267	0,62
696,706	0,62
697,146	0,62
697,586	0,62
698,025	0,62
698,464	0,62
698,904	0,62
699,343	0,62
699,783	0,62
700,222	0,62
700,661	0,62
701,101	0,62
701,54	0,62
701,979	0,62
702,418	0,62
702,857	0,62
703,297	0,62
703,736	0,62
704,175	0,62
704,614	0,62
705,053	0,62
705,492	0,62
705,931	0,62
706,37	0,62
706,809	0,62
707,248	0,62
707,687	0,61
708,125	0,61
708,564	0,61
709,003	0,61
709,442	0,61
709,88	0,61
710,319	0,61
710,758	0,61
711,196	0,61
711,635	0,61
712,074	0,61
712,512	0,61
712,951	0,61
713,389	0,61
713,828	0,61
714,266	0,61
714,705	0,61
715,143	0,61
715,581	0,61
716,02	0,61
716,458	0,61
716,896	0,61
717,334	0,61
717,773	0,61
718,211	0,61
718,649	0,61
719,087	0,61
719,525	0,61
719,963	0,61
720,401	0,61
720,839	0,61
721,277	0,61
721,715	0,61
722,153	0,61
722,591	0,61
723,029	0,61
723,467	0,61
723,905	0,61
724,342	0,61
724,78	0,61
725,218	0,6
725,656	0,6
726,093	0,6
726,531	0,6
726,969	0,6
727,406	0,6
727,844	0,6
728,281	0,6
728,719	0,6
729,156	0,6
729,594	0,6
730,031	0,6
730,469	0,6
730,906	0,6
731,343	0,6
731,781	0,6
732,218	0,6
732,655	0,6
733,092	0,6
733,53	0,6
733,967	0,6
734,404	0,6
734,841	0,6
735,278	0,6
735,715	0,6
736,152	0,6
736,589	0,6
737,026	0,6
737,463	0,6
737,9	0,6
738,337	0,6
738,774	0,59
739,211	0,59
739,647	0,59
740,084	0,59
740,521	0,6
740,958	0,6
741,394	0,6
741,831	0,6
742,268	0,6
742,704	0,6
743,141	0,6
743,577	0,59
744,014	0,59
744,45	0,59
744,887	0,59
745,323	0,59
745,76	0,59
746,196	0,59
746,632	0,59
747,069	0,58
747,505	0,58
747,941	0,58
748,378	0,58
748,814	0,58
749,25	0,58
749,686	0,59
750,122	0,59
750,558	0,59
750,994	0,59
751,43	0,59
751,866	0,59
752,302	0,58
752,738	0,58
753,174	0,58
753,61	0,58
754,046	0,58
754,482	0,58
754,918	0,57
755,354	0,57
755,789	0,57
756,225	0,57
756,661	0,57
757,096	0,57
757,532	0,57
757,968	0,56
758,403	0,56
758,839	0,56
759,274	0,56
759,71	0,55
760,145	0,54
760,581	0,53
761,016	0,53
761,452	0,52
761,887	0,52
762,322	0,51
762,758	0,5
763,193	0,5
763,628	0,49
764,063	0,48
764,499	0,47
764,934	0,46
765,369	0,45
765,804	0,44
766,239	0,44
766,674	0,43
767,109	0,42
767,544	0,41
767,979	0,4
768,414	0,39
768,849	0,37
769,284	0,36
769,719	0,36
770,154	0,35
770,588	0,34
771,023	0,32
771,458	0,31
771,893	0,29
772,327	0,27
772,762	0,26
773,197	0,25
773,631	0,24
774,066	0,23
774,5	0,22
774,935	0,2
775,369	0,19
775,804	0,18
776,238	0,17
776,673	0,16
777,107	0,15
777,541	0,14
777,976	0,12
778,41	0,11
778,844	0,1
779,279	0,09
779,713	0,09
780,147	0,08
780,581	0,07
781,015	0,06
781,449	0,04
781,883	0,03
782,317	0,02
782,751	0,01
783,185	-0
783,619	-0,01
784,053	-0,02
784,487	-0,04
784,921	-0,05
785,355	-0,05
785,789	-0,06
786,223	-0,07
786,656	-0,08
787,09	-0,09
787,524	-0,09
787,957	-0,1
788,391	-0,13
788,825	-0,14
789,258	-0,16
789,692	-0,17
790,125	-0,19
790,559	-0,21
790,992	-0,24
791,426	-0,26
791,859	-0,28
792,293	-0,31
792,726	-0,33
793,159	-0,35
793,593	-0,37
794,026	-0,39
794,459	-0,43
794,892	-0,46
795,326	-0,48
795,759	-0,52
796,192	-0,56
796,625	-0,61
797,058	-0,64
797,491	-0,68
797,924	-0,72
798,357	-0,77
798,79	-0,81
799,223	-0,85
799,656	-0,91
800,089	-0,96
800,522	-1
800,955	-1,04
801,387	-1,1
801,82	-1,15
802,253	-1,22
802,686	-1,3
803,118	-1,35
803,551	-1,4
803,984	-1,45
804,416	-1,49
804,849	-1,52
805,281	-1,66
805,714	-2,02
806,146	-2,46
806,579	-2,72
807,011	-2,88
807,444	-2,97
807,876	-3,07
808,308	-3,1
808,741	-3,13
809,173	-3,18
809,605	-3,21
810,037	-3,28
810,47	-3,2
810,902	-3
811,334	-2,86
811,766	-2,72
812,198	-2,5
812,63	-2,07
813,062	-1,82
813,494	-1,71
813,926	-1,62
814,358	-1,57
814,79	-1,49
815,222	-1,43
815,654	-1,38
816,086	-1,32
816,518	-1,26
816,949	-1,21
817,381	-1,16
817,813	-1,15
818,245	-1,1
818,676	-1,06
819,108	-1,03
819,54	-1,02
819,971	-0,99
820,403	-0,94
820,834	-0,93
821,266	-0,89
821,697	-0,86
822,129	-0,85
822,56	-0,81
822,991	-0,79
823,423	-0,77
823,854	-0,76
824,286	-0,73
824,717	-0,72
825,148	-0,71
825,579	-0,7
826,01	-0,68
826,442	-0,67
826,873	-0,66
827,304	-0,63
827,735	-0,62
828,166	-0,62
828,597	-0,61
829,028	-0,61
829,459	-0,61
829,89	-0,61
830,321	-0,57
830,752	-0,58
831,183	-0,58
831,613	-0,57
832,044	-0,56
832,475	-0,55
832,906	-0,55
833,336	-0,56
833,767	-0,56
834,198	-0,56
834,628	-0,53
835,059	-0,55
835,49	-0,56
835,92	-0,53
836,351	-0,52
836,781	-0,53
837,212	-0,54
837,642	-0,55
838,072	-0,52
838,503	-0,53
838,933	-0,51
839,364	-0,53
839,794	-0,51
840,224	-0,49
840,654	-0,54
841,085	-0,55
841,515	-0,52
841,945	-0,52
842,375	-0,48
842,805	-0,47
843,235	-0,46
843,665	-0,47
844,095	-0,46
844,525	-0,48
844,955	-0,49
845,385	-0,46
845,815	-0,46
846,245	-0,47
846,675	-0,48
847,105	-0,5
847,534	-0,5
847,964	-0,48
848,394	-0,48
848,824	-0,5
849,253	-0,49
849,683	-0,49
850,112	-0,51
850,542	-0,52
850,972	-0,53
851,401	-0,51
851,831	-0,49
852,26	-0,5
852,69	-0,53
853,119	-0,52
853,548	-0,53
853,978	-0,53
854,407	-0,52
854,836	-0,52
855,266	-0,53
855,695	-0,54
856,124	-0,55
856,553	-0,57
856,983	-0,58
857,412	-0,57
857,841	-0,58
858,27	-0,59
858,699	-0,59
859,128	-0,62
859,557	-0,63
859,986	-0,63
860,415	-0,6
860,844	-0,58
861,273	-0,57
861,702	-0,58
862,13	-0,56
862,559	-0,58
862,988	-0,55
863,417	-0,53
863,845	-0,53
864,274	-0,54
864,703	-0,54
865,131	-0,55
865,56	-0,55
865,989	-0,58
866,417	-0,56
866,846	-0,57
867,274	-0,56
867,703	-0,59
868,131	-0,61
868,559	-0,61
868,988	-0,62
869,416	-0,61
869,844	-0,62
870,273	-0,64
870,701	-0,63
871,129	-0,66
871,557	-0,67
871,986	-0,67
872,414	-0,68
872,842	-0,65
873,27	-0,63
873,698	-0,6
874,126	-0,64
874,554	-0,62
874,982	-0,63
875,41	-0,65
875,838	-0,6
876,266	-0,58
876,694	-0,58
877,122	-0,57
877,549	-0,62
877,977	-0,59
878,405	-0,62
878,833	-0,57
879,26	-0,56
879,688	-0,56
880,116	-0,54
880,543	-0,52
880,971	-0,52
881,399	-0,54
881,826	-0,55
882,254	-0,54
882,681	-0,58
883,109	-0,54
883,536	-0,56
883,963	-0,58
884,391	-0,56
884,818	-0,55
885,245	-0,58
885,673	-0,6
886,1	-0,57
886,527	-0,57
886,954	-0,52
887,381	-0,53
887,809	-0,54
888,236	-0,56
888,663	-0,56
889,09	-0,61
889,517	-0,63
889,944	-0,64
890,371	-0,63
890,798	-0,63
891,225	-0,64
891,652	-0,67
892,078	-0,64
892,505	-0,67
892,932	-0,62
893,359	-0,64
893,786	-0,64
894,212	-0,6
894,639	-0,61
895,066	-0,63
895,492	-0,57
895,919	-0,58
896,346	-0,58
896,772	-0,59
897,199	-0,56
897,625	-0,59
898,052	-0,55
898,478	-0,53
898,904	-0,54
899,331	-0,54
899,757	-0,56
900,183	-0,58
900,61	-0,55
901,036	-0,56
901,462	-0,55
901,888	-0,55
902,315	-0,53
902,741	-0,58
903,167	-0,57
903,593	-0,59
904,019	-0,57
904,445	-0,54
904,871	-0,57
905,297	-0,58
905,723	-0,58
906,149	-0,58
906,575	-0,58
907,001	-0,58
907,427	-0,55
907,852	-0,55
908,278	-0,56
908,704	-0,54
909,13	-0,53
909,555	-0,52
909,981	-0,52
910,407	-0,52
910,832	-0,5
911,258	-0,51
911,684	-0,51
912,109	-0,51
912,535	-0,53
912,96	-0,49
913,386	-0,52
913,811	-0,52
914,236	-0,54
914,662	-0,52
915,087	-0,55
915,512	-0,55
915,938	-0,56
916,363	-0,57
916,788	-0,58
917,213	-0,55
917,639	-0,6
918,064	-0,59
918,489	-0,59
918,914	-0,59
919,339	-0,6
919,764	-0,57
920,189	-0,57
920,614	-0,59
921,039	-0,59
921,464	-0,55
921,889	-0,57
922,314	-0,59
922,738	-0,61
923,163	-0,62
923,588	-0,63
924,013	-0,62
924,437	-0,62
924,862	-0,64
925,287	-0,6
925,711	-0,61
926,136	-0,63
926,561	-0,62
926,985	-0,6
927,41	-0,57
927,834	-0,55
928,259	-0,51
928,683	-0,49
929,108	-0,46
929,532	-0,47
929,956	-0,47
930,381	-0,47
930,805	-0,46
931,229	-0,44
931,653	-0,43
932,078	-0,43
932,502	-0,44
932,926	-0,45
933,35	-0,45
933,774	-0,45
934,198	-0,42
934,622	-0,4
935,046	-0,4
935,47	-0,41
935,894	-0,41
936,318	-0,41
936,742	-0,41
937,166	-0,41
937,59	-0,41
938,014	-0,43
938,437	-0,44
938,861	-0,47
939,285	-0,48
939,709	-0,47
940,132	-0,47
940,556	-0,47
940,98	-0,47
941,403	-0,46
941,827	-0,47
942,25	-0,49
942,674	-0,47
943,097	-0,46
943,521	-0,46
943,944	-0,47
944,368	-0,46
944,791	-0,45
945,214	-0,47
945,638	-0,49
946,061	-0,51
946,484	-0,52
946,907	-0,51
947,331	-0,5
947,754	-0,54
948,177	-0,52
948,6	-0,52
949,023	-0,52
949,446	-0,51
949,869	-0,49
950,292	-0,49
950,715	-0,46
951,138	-0,44
951,561	-0,41
951,984	-0,42
952,407	-0,4
952,83	-0,38
953,252	-0,34
953,675	-0,33
954,098	-0,35
954,521	-0,33
954,943	-0,32
955,366	-0,34
955,789	-0,31
956,211	-0,34
956,634	-0,35
957,056	-0,33
957,479	-0,34
957,902	-0,37
958,324	-0,37
958,746	-0,35
959,169	-0,37
959,591	-0,37
960,014	-0,38
960,436	-0,38
960,858	-0,37
961,281	-0,37
961,703	-0,38
962,125	-0,38
962,547	-0,35
962,969	-0,37
963,391	-0,37
963,814	-0,37
964,236	-0,36
964,658	-0,33
965,08	-0,34
965,502	-0,33
965,924	-0,3
966,346	-0,3
966,768	-0,29
967,189	-0,31
967,611	-0,3
968,033	-0,29
968,455	-0,28
968,877	-0,3
969,298	-0,31
969,72	-0,32
970,142	-0,31
970,563	-0,32
970,985	-0,31
971,407	-0,3
971,828	-0,28
972,25	-0,26
972,671	-0,25
973,093	-0,24
973,514	-0,22
973,936	-0,2
974,357	-0,19
974,778	-0,19
975,2	-0,18
975,621	-0,17
976,042	-0,15
976,464	-0,14
976,885	-0,13
977,306	-0,13
977,727	-0,12
978,148	-0,11
978,57	-0,1
978,991	-0,08
979,412	-0,07
979,833	-0,06
980,254	-0,05
980,675	-0,05
981,096	-0,04
981,517	-0,03
981,937	-0,02
982,358	-0
982,779	0,02
983,2	0,02
983,621	0,03
984,042	0,05
984,462	0,06
984,883	0,08
985,304	0,09
985,724	0,1
986,145	0,11
986,565	0,12
986,986	0,13
987,407	0,15
987,827	0,16
988,248	0,18
988,668	0,2
989,088	0,21
989,509	0,23
989,929	0,24
990,35	0,25
990,77	0,28
991,19	0,29
991,61	0,31
992,031	0,32
992,451	0,33
992,871	0,35
993,291	0,36
993,711	0,37
994,131	0,38
994,551	0,39
994,971	0,41
995,391	0,41
995,811	0,43
996,231	0,43
996,651	0,44
997,071	0,45
997,491	0,46
997,911	0,47
998,331	0,48
998,75	0,49
999,17	0,5
999,59	0,5
1000,009	0,51
1000,429	0,52
1000,849	0,52
1001,268	0,53
1001,688	0,53
1002,107	0,54
1002,527	0,54
1002,946	0,55
1003,366	0,55
1003,785	0,55
1004,205	0,56
1004,624	0,57
1005,044	0,57
1005,463	0,57
1005,882	0,58
1006,301	0,58
1006,721	0,58
1007,14	0,59
1007,559	0,59
1007,978	0,59
1008,397	0,59
1008,816	0,59
1009,235	0,59
1009,655	0,59
1010,074	0,59
1010,492	0,59
1010,911	0,59
1011,33	0,59
1011,749	0,59
1012,168	0,59
1012,587	0,59
1013,006	0,59
1013,425	0,59
1013,843	0,59
1014,262	0,59
1014,681	0,58
1015,099	0,58
1015,518	0,58
1015,937	0,58
1016,355	0,58
1016,774	0,58
1017,192	0,58
1017,611	0,58
1018,029	0,58
1018,448	0,58
1018,866	0,58
1019,285	0,58
1019,703	0,58
1020,121	0,58
1020,54	0,58
1020,958	0,58
1021,376	0,58
1021,794	0,58
1022,213	0,58
1022,631	0,58
1023,049	0,58
1023,467	0,58
1023,885	0,57
1024,303	0,57
1024,721	0,57
1025,139	0,57
1025,557	0,57
1025,975	0,57
1026,393	0,56
1026,811	0,56
1027,229	0,56
1027,647	0,56
1028,065	0,56
1028,482	0,56
1028,9	0,56
1029,318	0,56
1029,735	0,56
1030,153	0,56
1030,571	0,56
1030,988	0,56
1031,406	0,56
1031,823	0,56
1032,241	0,56
1032,659	0,56
1033,076	0,56
1033,493	0,56
1033,911	0,56
1034,328	0,56
1034,746	0,56
1035,163	0,56
1035,58	0,56
1035,997	0,56
1036,415	0,56
1036,832	0,56
1037,249	0,56
1037,666	0,56
1038,083	0,56
1038,501	0,56
1038,918	0,56
1039,335	0,56
1039,752	0,56
1040,169	0,56
1040,586	0,56
1041,003	0,56
1041,419	0,56
1041,836	0,56
1042,253	0,56
1042,67	0,56
1043,087	0,56
1043,504	0,56
1043,92	0,56
1044,337	0,56
1044,754	0,56
1045,17	0,56
1045,587	0,56
1046,004	0,55
1046,42	0,55
1046,837	0,56
1047,253	0,56
1047,67	0,56
1048,086	0,56
1048,503	0,56
1048,919	0,56
1049,335	0,56
1049,752	0,56
1050,168	0,56
1050,584	0,56
1051,001	0,56
1051,417	0,56
1051,833	0,56
1052,249	0,56
1052,665	0,56
1053,081	0,56
1053,497	0,57
1053,914	0,57
1054,33	0,57
1054,746	0,57
1055,162	0,57
1055,578	0,57
1055,993	0,58
1056,409	0,58
1056,825	0,58
1057,241	0,58
1057,657	0,58
1058,073	0,58
1058,488	0,58
1058,904	0,58
1059,32	0,58
1059,736	0,58
1060,151	0,58
1060,567	0,58
1060,982	0,58
1061,398	0,58
1061,813	0,58
1062,229	0,58
1062,644	0,58
1063,06	0,58
1063,475	0,57
1063,891	0,57
1064,306	0,57
1064,721	0,57
1065,137	0,57
1065,552	0,57
1065,967	0,57
1066,382	0,57
1066,798	0,57
1067,213	0,57
1067,628	0,57
1068,043	0,57
1068,458	0,57
1068,873	0,57
1069,288	0,57
1069,703	0,57
1070,118	0,57
1070,533	0,57
1070,948	0,57
1071,363	0,57
1071,778	0,57
1072,193	0,57
1072,607	0,57
1073,022	0,57
1073,437	0,57
1073,852	0,57
1074,266	0,57
1074,681	0,57
1075,096	0,57
1075,51	0,57
1075,925	0,57
1076,339	0,57
1076,754	0,56
1077,168	0,56
1077,583	0,56
1077,997	0,56
1078,412	0,56
1078,826	0,56
1079,24	0,56
1079,655	0,56
1080,069	0,56
1080,483	0,55
1080,897	0,55
1081,312	0,55
1081,726	0,55
1082,14	0,55
1082,554	0,55
1082,968	0,55
1083,382	0,54
1083,796	0,54
1084,21	0,54
1084,624	0,54
1085,038	0,53
1085,452	0,53
1085,866	0,53
1086,28	0,53
1086,694	0,53
1087,108	0,53
1087,521	0,52
1087,935	0,52
1088,349	0,52
1088,763	0,52
1089,176	0,52
1089,59	0,51
1090,004	0,51
1090,417	0,51
1090,831	0,5
1091,244	0,5
1091,658	0,5
1092,071	0,49
1092,485	0,49
1092,898	0,48
1093,312	0,48
1093,725	0,48
1094,138	0,48
1094,552	0,47
1094,965	0,47
1095,378	0,47
1095,791	0,46
1096,205	0,46
1096,618	0,46
1097,031	0,45
1097,444	0,45
1097,857	0,44
1098,27	0,44
1098,683	0,44
1099,096	0,43
1099,509	0,43
1099,922	0,43
1100,335	0,42
1100,748	0,41
1101,161	0,41
1101,574	0,4
1101,986	0,4
1102,399	0,4
1102,812	0,39
1103,225	0,38
1103,637	0,38
1104,05	0,37
1104,463	0,37
1104,875	0,37
1105,288	0,36
1105,7	0,36
1106,113	0,35
1106,525	0,35
1106,938	0,34
1107,35	0,34
1107,763	0,33
1108,175	0,32
1108,588	0,32
1109	0,31
1109,412	0,31
1109,824	0,31
1110,237	0,31
1110,649	0,32
1111,061	0,32
