Data from 18C-808nm-8A-cont_Absorbance__236__01665.txt Node

Date: Mon Jul 17 17:26:25 CEST 2023
User: Laser008
Spectrometer: MAYP115816
Trigger mode: 0
Integration Time (sec): 2,500000E-1
Scans to average: 10
Electric dark correction enabled: true
Nonlinearity correction enabled: true
Boxcar width: 5
XAxis mode: Wavelengths
Number of Pixels in Spectrum: 2068
>>>>>Begin Spectral Data<<<<<
198,914	-0,62
199,384	-0,45
199,855	-0,34
200,325	-0,26
200,796	-0,22
201,266	-0,18
201,737	-0,16
202,207	-0,14
202,677	-0,13
203,147	-0,12
203,618	-0,09
204,088	-0,07
204,558	-0,07
205,028	-0,06
205,498	-0,07
205,968	-0,08
206,439	-0,1
206,909	-0,1
207,379	-0,11
207,849	-0,12
208,319	-0,13
208,789	-0,14
209,258	-0,13
209,728	-0,13
210,198	-0,13
210,668	-0,12
211,138	-0,11
211,608	-0,1
212,077	-0,09
212,547	-0,09
213,017	-0,09
213,486	-0,08
213,956	-0,08
214,426	-0,09
214,895	-0,09
215,365	-0,11
215,834	-0,12
216,304	-0,13
216,773	-0,14
217,243	-0,15
217,712	-0,16
218,181	-0,16
218,651	-0,16
219,12	-0,16
219,589	-0,16
220,058	-0,14
220,528	-0,14
220,997	-0,15
221,466	-0,16
221,935	-0,16
222,404	-0,17
222,873	-0,15
223,342	-0,15
223,812	-0,16
224,281	-0,16
224,749	-0,16
225,218	-0,18
225,687	-0,18
226,156	-0,17
226,625	-0,15
227,094	-0,15
227,563	-0,15
228,031	-0,17
228,5	-0,17
228,969	-0,18
229,438	-0,17
229,906	-0,16
230,375	-0,15
230,844	-0,14
231,312	-0,14
231,781	-0,15
232,249	-0,14
232,718	-0,14
233,186	-0,12
233,655	-0,13
234,123	-0,11
234,591	-0,12
235,06	-0,13
235,528	-0,13
235,996	-0,14
236,465	-0,14
236,933	-0,12
237,401	-0,13
237,869	-0,12
238,337	-0,12
238,805	-0,11
239,274	-0,11
239,742	-0,1
240,21	-0,1
240,678	-0,09
241,146	-0,08
241,614	-0,08
242,081	-0,08
242,549	-0,07
243,017	-0,08
243,485	-0,08
243,953	-0,08
244,421	-0,09
244,888	-0,1
245,356	-0,09
245,824	-0,09
246,291	-0,1
246,759	-0,11
247,227	-0,11
247,694	-0,1
248,162	-0,1
248,629	-0,09
249,097	-0,09
249,564	-0,09
250,032	-0,09
250,499	-0,09
250,967	-0,1
251,434	-0,1
251,901	-0,09
252,369	-0,1
252,836	-0,11
253,303	-0,13
253,77	-0,14
254,237	-0,13
254,705	-0,14
255,172	-0,13
255,639	-0,13
256,106	-0,15
256,573	-0,15
257,04	-0,15
257,507	-0,15
257,974	-0,16
258,441	-0,14
258,908	-0,14
259,375	-0,16
259,841	-0,16
260,308	-0,17
260,775	-0,16
261,242	-0,16
261,709	-0,17
262,175	-0,18
262,642	-0,17
263,109	-0,16
263,575	-0,17
264,042	-0,16
264,508	-0,16
264,975	-0,17
265,441	-0,18
265,908	-0,19
266,374	-0,18
266,841	-0,17
267,307	-0,17
267,773	-0,16
268,24	-0,17
268,706	-0,16
269,172	-0,17
269,639	-0,18
270,105	-0,17
270,571	-0,18
271,037	-0,18
271,503	-0,18
271,969	-0,19
272,435	-0,19
272,902	-0,21
273,368	-0,23
273,834	-0,23
274,3	-0,23
274,765	-0,23
275,231	-0,24
275,697	-0,22
276,163	-0,22
276,629	-0,23
277,095	-0,23
277,56	-0,22
278,026	-0,22
278,492	-0,2
278,958	-0,2
279,423	-0,21
279,889	-0,2
280,354	-0,2
280,82	-0,2
281,286	-0,21
281,751	-0,2
282,217	-0,19
282,682	-0,19
283,147	-0,19
283,613	-0,2
284,078	-0,2
284,544	-0,21
285,009	-0,22
285,474	-0,21
285,939	-0,23
286,405	-0,22
286,87	-0,22
287,335	-0,22
287,8	-0,21
288,265	-0,21
288,73	-0,22
289,195	-0,24
289,66	-0,23
290,125	-0,22
290,59	-0,22
291,055	-0,2
291,52	-0,2
291,985	-0,2
292,45	-0,22
292,915	-0,21
293,38	-0,21
293,844	-0,19
294,309	-0,18
294,774	-0,17
295,239	-0,17
295,703	-0,18
296,168	-0,17
296,632	-0,17
297,097	-0,16
297,562	-0,14
298,026	-0,15
298,491	-0,15
298,955	-0,14
299,419	-0,14
299,884	-0,14
300,348	-0,13
300,813	-0,12
301,277	-0,13
301,741	-0,13
302,205	-0,13
302,67	-0,13
303,134	-0,12
303,598	-0,13
304,062	-0,12
304,526	-0,11
304,99	-0,13
305,454	-0,13
305,919	-0,12
306,383	-0,11
306,847	-0,11
307,31	-0,12
307,774	-0,13
308,238	-0,13
308,702	-0,12
309,166	-0,13
309,63	-0,13
310,094	-0,11
310,557	-0,11
311,021	-0,12
311,485	-0,12
311,948	-0,12
312,412	-0,1
312,876	-0,09
313,339	-0,09
313,803	-0,1
314,266	-0,09
314,73	-0,09
315,193	-0,09
315,657	-0,08
316,12	-0,07
316,584	-0,06
317,047	-0,07
317,51	-0,06
317,973	-0,06
318,437	-0,04
318,9	-0,04
319,363	-0,03
319,826	-0,02
320,29	-0,02
320,753	-0,02
321,216	-0,03
321,679	-0,03
322,142	-0,03
322,605	-0,04
323,068	-0,03
323,531	-0,03
323,994	-0,02
324,457	-0,03
324,92	-0,01
325,382	-0,01
325,845	-0,01
326,308	-0
326,771	0,01
327,233	0,02
327,696	0,03
328,159	0,02
328,622	0,03
329,084	0,03
329,547	0,03
330,009	0,03
330,472	0,04
330,934	0,04
331,397	0,04
331,859	0,04
332,322	0,04
332,784	0,05
333,246	0,06
333,709	0,06
334,171	0,07
334,633	0,08
335,096	0,07
335,558	0,08
336,02	0,08
336,482	0,09
336,944	0,1
337,406	0,11
337,868	0,11
338,331	0,11
338,793	0,12
339,255	0,12
339,717	0,13
340,178	0,15
340,64	0,16
341,102	0,17
341,564	0,18
342,026	0,18
342,488	0,18
342,949	0,2
343,411	0,22
343,873	0,24
344,335	0,27
344,796	0,3
345,258	0,34
345,719	0,38
346,181	0,42
346,643	0,46
347,104	0,49
347,566	0,52
348,027	0,55
348,488	0,57
348,95	0,59
349,411	0,61
349,873	0,63
350,334	0,65
350,795	0,67
351,256	0,68
351,718	0,68
352,179	0,69
352,64	0,69
353,101	0,7
353,562	0,7
354,023	0,7
354,484	0,7
354,945	0,71
355,406	0,71
355,867	0,71
356,328	0,71
356,789	0,71
357,25	0,71
357,711	0,72
358,172	0,72
358,633	0,72
359,093	0,72
359,554	0,72
360,015	0,72
360,476	0,72
360,936	0,73
361,397	0,73
361,858	0,73
362,318	0,73
362,779	0,73
363,239	0,73
363,7	0,73
364,16	0,73
364,621	0,73
365,081	0,73
365,541	0,73
366,002	0,73
366,462	0,73
366,922	0,73
367,383	0,73
367,843	0,73
368,303	0,73
368,763	0,73
369,223	0,73
369,684	0,73
370,144	0,73
370,604	0,73
371,064	0,73
371,524	0,73
371,984	0,73
372,444	0,73
372,904	0,73
373,363	0,73
373,823	0,73
374,283	0,73
374,743	0,73
375,203	0,73
375,663	0,73
376,122	0,73
376,582	0,73
377,042	0,73
377,501	0,73
377,961	0,73
378,42	0,73
378,88	0,73
379,34	0,73
379,799	0,73
380,259	0,73
380,718	0,72
381,177	0,72
381,637	0,72
382,096	0,72
382,555	0,72
383,015	0,72
383,474	0,72
383,933	0,72
384,393	0,72
384,852	0,72
385,311	0,72
385,77	0,72
386,229	0,72
386,688	0,72
387,147	0,72
387,606	0,72
388,065	0,72
388,524	0,72
388,983	0,72
389,442	0,72
389,901	0,72
390,36	0,72
390,819	0,72
391,277	0,72
391,736	0,72
392,195	0,72
392,654	0,72
393,112	0,72
393,571	0,72
394,03	0,72
394,488	0,72
394,947	0,72
395,405	0,72
395,864	0,72
396,322	0,72
396,781	0,71
397,239	0,71
397,698	0,71
398,156	0,71
398,614	0,71
399,073	0,71
399,531	0,71
399,989	0,71
400,447	0,71
400,905	0,71
401,364	0,71
401,822	0,71
402,28	0,71
402,738	0,71
403,196	0,71
403,654	0,71
404,112	0,71
404,57	0,71
405,028	0,71
405,486	0,71
405,944	0,71
406,402	0,71
406,859	0,71
407,317	0,71
407,775	0,71
408,233	0,71
408,691	0,71
409,148	0,71
409,606	0,71
410,064	0,71
410,521	0,71
410,979	0,71
411,436	0,71
411,894	0,71
412,351	0,71
412,809	0,71
413,266	0,71
413,724	0,7
414,181	0,7
414,638	0,7
415,096	0,7
415,553	0,7
416,01	0,7
416,467	0,7
416,925	0,7
417,382	0,7
417,839	0,7
418,296	0,7
418,753	0,7
419,21	0,7
419,667	0,7
420,124	0,7
420,581	0,7
421,038	0,7
421,495	0,7
421,952	0,7
422,409	0,7
422,866	0,7
423,322	0,7
423,779	0,7
424,236	0,7
424,693	0,7
425,149	0,7
425,606	0,7
426,063	0,7
426,519	0,7
426,976	0,7
427,433	0,7
427,889	0,7
428,346	0,7
428,802	0,7
429,258	0,7
429,715	0,7
430,171	0,7
430,628	0,7
431,084	0,7
431,54	0,7
431,997	0,7
432,453	0,7
432,909	0,7
433,365	0,7
433,821	0,7
434,277	0,7
434,734	0,7
435,19	0,7
435,646	0,7
436,102	0,7
436,558	0,7
437,014	0,7
437,47	0,7
437,925	0,7
438,381	0,7
438,837	0,7
439,293	0,7
439,749	0,7
440,205	0,7
440,66	0,7
441,116	0,7
441,572	0,7
442,027	0,7
442,483	0,7
442,939	0,7
443,394	0,7
443,85	0,7
444,305	0,7
444,761	0,7
445,216	0,7
445,672	0,7
446,127	0,7
446,582	0,7
447,038	0,7
447,493	0,7
447,948	0,7
448,403	0,7
448,859	0,7
449,314	0,7
449,769	0,7
450,224	0,7
450,679	0,71
451,134	0,71
451,589	0,71
452,044	0,71
452,499	0,71
452,954	0,71
453,409	0,71
453,864	0,71
454,319	0,71
454,774	0,71
455,229	0,71
455,684	0,71
456,138	0,71
456,593	0,71
457,048	0,71
457,503	0,71
457,957	0,71
458,412	0,71
458,866	0,71
459,321	0,71
459,776	0,71
460,23	0,71
460,685	0,71
461,139	0,71
461,593	0,71
462,048	0,71
462,502	0,71
462,957	0,71
463,411	0,72
463,865	0,72
464,319	0,72
464,774	0,72
465,228	0,72
465,682	0,72
466,136	0,72
466,59	0,72
467,044	0,72
467,499	0,72
467,953	0,72
468,407	0,72
468,861	0,72
469,315	0,72
469,768	0,73
470,222	0,73
470,676	0,73
471,13	0,73
471,584	0,73
472,038	0,73
472,491	0,73
472,945	0,73
473,399	0,73
473,852	0,73
474,306	0,73
474,76	0,73
475,213	0,74
475,667	0,74
476,12	0,74
476,574	0,74
477,027	0,74
477,481	0,74
477,934	0,74
478,388	0,74
478,841	0,75
479,294	0,75
479,748	0,75
480,201	0,75
480,654	0,75
481,107	0,75
481,561	0,76
482,014	0,76
482,467	0,76
482,92	0,76
483,373	0,76
483,826	0,76
484,279	0,76
484,732	0,77
485,185	0,77
485,638	0,77
486,091	0,77
486,544	0,77
486,997	0,77
487,449	0,78
487,902	0,78
488,355	0,78
488,808	0,78
489,26	0,79
489,713	0,79
490,166	0,79
490,618	0,79
491,071	0,8
491,523	0,8
491,976	0,8
492,429	0,8
492,881	0,81
493,333	0,81
493,786	0,81
494,238	0,82
494,691	0,82
495,143	0,82
495,595	0,82
496,048	0,83
496,5	0,83
496,952	0,83
497,404	0,84
497,856	0,84
498,309	0,84
498,761	0,85
499,213	0,85
499,665	0,85
500,117	0,86
500,569	0,86
501,021	0,86
501,473	0,87
501,925	0,87
502,377	0,88
502,828	0,88
503,28	0,88
503,732	0,88
504,184	0,89
504,636	0,89
505,087	0,9
505,539	0,9
505,991	0,9
506,442	0,91
506,894	0,91
507,345	0,91
507,797	0,92
508,249	0,92
508,7	0,92
509,151	0,93
509,603	0,93
510,054	0,93
510,506	0,94
510,957	0,94
511,408	0,95
511,86	0,95
512,311	0,95
512,762	0,95
513,213	0,96
513,665	0,96
514,116	0,96
514,567	0,97
515,018	0,97
515,469	0,97
515,92	0,98
516,371	0,98
516,822	0,98
517,273	0,98
517,724	0,99
518,175	0,99
518,626	0,99
519,076	0,99
519,527	0,99
519,978	1
520,429	1
520,88	1
521,33	1
521,781	1
522,232	1,01
522,682	1,01
523,133	1,01
523,583	1,01
524,034	1,01
524,484	1,01
524,935	1,01
525,385	1,01
525,836	1,01
526,286	1,01
526,736	1,02
527,187	1,02
527,637	1,02
528,087	1,02
528,538	1,01
528,988	1,01
529,438	1,01
529,888	1,01
530,338	1,01
530,788	1,01
531,238	1,01
531,688	1,01
532,139	1,01
532,589	1,01
533,038	1
533,488	1
533,938	1
534,388	1
534,838	1
535,288	0,99
535,738	0,99
536,187	0,99
536,637	0,98
537,087	0,98
537,537	0,98
537,986	0,97
538,436	0,97
538,885	0,97
539,335	0,96
539,785	0,96
540,234	0,95
540,684	0,95
541,133	0,95
541,582	0,94
542,032	0,94
542,481	0,93
542,931	0,93
543,38	0,92
543,829	0,92
544,278	0,92
544,728	0,91
545,177	0,91
545,626	0,9
546,075	0,9
546,524	0,9
546,973	0,89
547,422	0,89
547,871	0,89
548,32	0,88
548,769	0,88
549,218	0,88
549,667	0,88
550,116	0,87
550,565	0,87
551,014	0,87
551,463	0,86
551,911	0,86
552,36	0,85
552,809	0,85
553,258	0,85
553,706	0,84
554,155	0,84
554,603	0,84
555,052	0,83
555,501	0,83
555,949	0,82
556,398	0,82
556,846	0,82
557,294	0,81
557,743	0,81
558,191	0,8
558,64	0,8
559,088	0,79
559,536	0,79
559,985	0,78
560,433	0,78
560,881	0,78
561,329	0,77
561,777	0,77
562,225	0,77
562,674	0,76
563,122	0,76
563,57	0,76
564,018	0,75
564,466	0,75
564,914	0,74
565,362	0,74
565,809	0,74
566,257	0,73
566,705	0,73
567,153	0,73
567,601	0,72
568,048	0,72
568,496	0,72
568,944	0,71
569,392	0,71
569,839	0,71
570,287	0,7
570,734	0,7
571,182	0,7
571,63	0,7
572,077	0,69
572,525	0,69
572,972	0,69
573,419	0,68
573,867	0,68
574,314	0,68
574,761	0,67
575,209	0,67
575,656	0,67
576,103	0,66
576,551	0,66
576,998	0,66
577,445	0,66
577,892	0,65
578,339	0,65
578,786	0,65
579,233	0,64
579,68	0,64
580,127	0,64
580,574	0,64
581,021	0,63
581,468	0,63
581,915	0,63
582,362	0,63
582,809	0,63
583,255	0,62
583,702	0,62
584,149	0,62
584,596	0,62
585,042	0,62
585,489	0,61
585,936	0,61
586,382	0,61
586,829	0,61
587,275	0,61
587,722	0,6
588,168	0,6
588,615	0,6
589,061	0,6
589,508	0,6
589,954	0,6
590,4	0,59
590,847	0,59
591,293	0,59
591,739	0,59
592,185	0,59
592,632	0,59
593,078	0,58
593,524	0,58
593,97	0,58
594,416	0,58
594,862	0,58
595,308	0,58
595,754	0,58
596,2	0,58
596,646	0,57
597,092	0,57
597,538	0,57
597,984	0,57
598,43	0,57
598,876	0,57
599,321	0,57
599,767	0,57
600,213	0,57
600,659	0,56
601,104	0,56
601,55	0,56
601,995	0,56
602,441	0,56
602,887	0,56
603,332	0,56
603,778	0,55
604,223	0,55
604,668	0,55
605,114	0,55
605,559	0,55
606,005	0,55
606,45	0,55
606,895	0,55
607,341	0,55
607,786	0,55
608,231	0,54
608,676	0,54
609,121	0,53
609,566	0,53
610,012	0,52
610,457	0,52
610,902	0,52
611,347	0,52
611,792	0,51
612,237	0,51
612,682	0,51
613,127	0,51
613,571	0,51
614,016	0,51
614,461	0,52
614,906	0,52
615,351	0,52
615,795	0,52
616,24	0,52
616,685	0,52
617,129	0,52
617,574	0,52
618,019	0,52
618,463	0,52
618,908	0,52
619,352	0,52
619,797	0,52
620,241	0,52
620,686	0,52
621,13	0,52
621,574	0,52
622,019	0,52
622,463	0,51
622,907	0,51
623,352	0,51
623,796	0,51
624,24	0,51
624,684	0,51
625,128	0,51
625,572	0,51
626,016	0,51
626,461	0,51
626,905	0,51
627,349	0,51
627,793	0,51
628,236	0,51
628,68	0,51
629,124	0,51
629,568	0,51
630,012	0,51
630,456	0,51
630,9	0,51
631,343	0,51
631,787	0,51
632,231	0,51
632,674	0,51
633,118	0,51
633,562	0,51
634,005	0,51
634,449	0,51
634,892	0,51
635,336	0,51
635,779	0,51
636,223	0,51
636,666	0,5
637,109	0,5
637,553	0,5
637,996	0,5
638,439	0,5
638,883	0,5
639,326	0,5
639,769	0,5
640,212	0,5
640,655	0,5
641,099	0,5
641,542	0,5
641,985	0,5
642,428	0,5
642,871	0,5
643,314	0,49
643,757	0,49
644,2	0,49
644,643	0,49
645,085	0,49
645,528	0,49
645,971	0,49
646,414	0,49
646,857	0,49
647,299	0,49
647,742	0,49
648,185	0,49
648,627	0,49
649,07	0,49
649,513	0,49
649,955	0,49
650,398	0,49
650,84	0,49
651,283	0,49
651,725	0,49
652,168	0,49
652,61	0,49
653,052	0,49
653,495	0,49
653,937	0,41
654,379	0,35
654,821	0,35
655,264	0,36
655,706	0,36
656,148	0,36
656,59	0,36
657,032	0,36
657,474	0,36
657,916	0,35
658,358	0,35
658,8	0,41
659,242	0,49
659,684	0,49
660,126	0,49
660,568	0,49
661,01	0,49
661,452	0,49
661,894	0,49
662,335	0,49
662,777	0,48
663,219	0,48
663,661	0,48
664,102	0,48
664,544	0,48
664,985	0,48
665,427	0,48
665,869	0,48
666,31	0,48
666,752	0,48
667,193	0,48
667,634	0,48
668,076	0,48
668,517	0,48
668,959	0,48
669,4	0,48
669,841	0,48
670,282	0,49
670,724	0,49
671,165	0,49
671,606	0,49
672,047	0,49
672,488	0,48
672,929	0,48
673,37	0,48
673,811	0,48
674,252	0,48
674,693	0,48
675,134	0,48
675,575	0,48
676,016	0,47
676,457	0,47
676,898	0,47
677,339	0,47
677,78	0,47
678,22	0,47
678,661	0,47
679,102	0,47
679,542	0,47
679,983	0,47
680,424	0,47
680,864	0,47
681,305	0,47
681,745	0,47
682,186	0,47
682,626	0,47
683,067	0,47
683,507	0,48
683,948	0,47
684,388	0,47
684,828	0,47
685,269	0,47
685,709	0,47
686,149	0,47
686,589	0,47
687,029	0,47
687,47	0,47
687,91	0,47
688,35	0,47
688,79	0,47
689,23	0,47
689,67	0,47
690,11	0,47
690,55	0,47
690,99	0,47
691,43	0,47
691,87	0,46
692,31	0,46
692,749	0,46
693,189	0,46
693,629	0,46
694,069	0,46
694,508	0,46
694,948	0,46
695,388	0,46
695,827	0,46
696,267	0,46
696,706	0,46
697,146	0,46
697,586	0,46
698,025	0,46
698,464	0,46
698,904	0,46
699,343	0,46
699,783	0,46
700,222	0,46
700,661	0,47
701,101	0,47
701,54	0,47
701,979	0,47
702,418	0,47
702,857	0,47
703,297	0,47
703,736	0,47
704,175	0,47
704,614	0,47
705,053	0,47
705,492	0,46
705,931	0,46
706,37	0,46
706,809	0,46
707,248	0,46
707,687	0,46
708,125	0,46
708,564	0,46
709,003	0,46
709,442	0,46
709,88	0,46
710,319	0,46
710,758	0,46
711,196	0,45
711,635	0,45
712,074	0,45
712,512	0,45
712,951	0,45
713,389	0,45
713,828	0,45
714,266	0,45
714,705	0,45
715,143	0,45
715,581	0,45
716,02	0,45
716,458	0,45
716,896	0,45
717,334	0,45
717,773	0,45
718,211	0,45
718,649	0,45
719,087	0,45
719,525	0,45
719,963	0,45
720,401	0,45
720,839	0,45
721,277	0,45
721,715	0,45
722,153	0,45
722,591	0,45
723,029	0,45
723,467	0,45
723,905	0,45
724,342	0,45
724,78	0,45
725,218	0,45
725,656	0,45
726,093	0,45
726,531	0,45
726,969	0,45
727,406	0,45
727,844	0,45
728,281	0,45
728,719	0,45
729,156	0,45
729,594	0,45
730,031	0,45
730,469	0,45
730,906	0,45
731,343	0,45
731,781	0,45
732,218	0,45
732,655	0,44
733,092	0,44
733,53	0,44
733,967	0,44
734,404	0,44
734,841	0,44
735,278	0,44
735,715	0,44
736,152	0,44
736,589	0,44
737,026	0,44
737,463	0,44
737,9	0,43
738,337	0,43
738,774	0,43
739,211	0,43
739,647	0,43
740,084	0,43
740,521	0,44
740,958	0,44
741,394	0,44
741,831	0,44
742,268	0,44
742,704	0,44
743,141	0,43
743,577	0,43
744,014	0,43
744,45	0,43
744,887	0,43
745,323	0,43
745,76	0,43
746,196	0,43
746,632	0,43
747,069	0,43
747,505	0,43
747,941	0,43
748,378	0,43
748,814	0,43
749,25	0,43
749,686	0,43
750,122	0,43
750,558	0,43
750,994	0,43
751,43	0,43
751,866	0,43
752,302	0,43
752,738	0,44
753,174	0,44
753,61	0,44
754,046	0,44
754,482	0,44
754,918	0,44
755,354	0,43
755,789	0,43
756,225	0,43
756,661	0,43
757,096	0,43
757,532	0,43
757,968	0,43
758,403	0,42
758,839	0,42
759,274	0,42
759,71	0,41
760,145	0,41
760,581	0,4
761,016	0,4
761,452	0,39
761,887	0,39
762,322	0,39
762,758	0,38
763,193	0,38
763,628	0,37
764,063	0,36
764,499	0,35
764,934	0,35
765,369	0,34
765,804	0,33
766,239	0,33
766,674	0,32
767,109	0,31
767,544	0,3
767,979	0,29
768,414	0,29
768,849	0,28
769,284	0,27
769,719	0,26
770,154	0,26
770,588	0,25
771,023	0,24
771,458	0,22
771,893	0,22
772,327	0,2
772,762	0,19
773,197	0,19
773,631	0,17
774,066	0,16
774,5	0,15
774,935	0,14
775,369	0,13
775,804	0,12
776,238	0,11
776,673	0,1
777,107	0,09
777,541	0,08
777,976	0,07
778,41	0,07
778,844	0,06
779,279	0,05
779,713	0,04
780,147	0,03
780,581	0,03
781,015	0,01
781,449	0,01
781,883	0,01
782,317	-0,01
782,751	-0,02
783,185	-0,04
783,619	-0,05
784,053	-0,06
784,487	-0,06
784,921	-0,07
785,355	-0,08
785,789	-0,08
786,223	-0,09
786,656	-0,11
787,09	-0,12
787,524	-0,13
787,957	-0,14
788,391	-0,16
788,825	-0,17
789,258	-0,19
789,692	-0,2
790,125	-0,21
790,559	-0,23
790,992	-0,26
791,426	-0,28
791,859	-0,29
792,293	-0,32
792,726	-0,34
793,159	-0,36
793,593	-0,38
794,026	-0,4
794,459	-0,44
794,892	-0,47
795,326	-0,49
795,759	-0,53
796,192	-0,57
796,625	-0,62
797,058	-0,64
797,491	-0,68
797,924	-0,72
798,357	-0,77
798,79	-0,82
799,223	-0,86
799,656	-0,91
800,089	-0,96
800,522	-1
800,955	-1,04
801,387	-1,1
801,82	-1,15
802,253	-1,22
802,686	-1,3
803,118	-1,35
803,551	-1,41
803,984	-1,45
804,416	-1,49
804,849	-1,52
805,281	-1,63
805,714	-2
806,146	-2,46
806,579	-2,71
807,011	-2,87
807,444	-2,97
807,876	-3,06
808,308	-3,09
808,741	-3,12
809,173	-3,17
809,605	-3,19
810,037	-3,27
810,47	-3,19
810,902	-2,99
811,334	-2,85
811,766	-2,69
812,198	-2,46
812,63	-2,03
813,062	-1,81
813,494	-1,71
813,926	-1,62
814,358	-1,57
814,79	-1,48
815,222	-1,43
815,654	-1,38
816,086	-1,31
816,518	-1,25
816,949	-1,2
817,381	-1,16
817,813	-1,14
818,245	-1,09
818,676	-1,05
819,108	-1,02
819,54	-1
819,971	-0,98
820,403	-0,93
820,834	-0,92
821,266	-0,87
821,697	-0,85
822,129	-0,84
822,56	-0,81
822,991	-0,8
823,423	-0,77
823,854	-0,76
824,286	-0,74
824,717	-0,72
825,148	-0,71
825,579	-0,7
826,01	-0,69
826,442	-0,68
826,873	-0,66
827,304	-0,62
827,735	-0,61
828,166	-0,61
828,597	-0,6
829,028	-0,6
829,459	-0,6
829,89	-0,61
830,321	-0,57
830,752	-0,57
831,183	-0,56
831,613	-0,56
832,044	-0,56
832,475	-0,55
832,906	-0,56
833,336	-0,57
833,767	-0,57
834,198	-0,56
834,628	-0,53
835,059	-0,57
835,49	-0,57
835,92	-0,54
836,351	-0,54
836,781	-0,53
837,212	-0,54
837,642	-0,55
838,072	-0,52
838,503	-0,53
838,933	-0,51
839,364	-0,53
839,794	-0,5
840,224	-0,5
840,654	-0,54
841,085	-0,54
841,515	-0,52
841,945	-0,52
842,375	-0,48
842,805	-0,47
843,235	-0,45
843,665	-0,47
844,095	-0,45
844,525	-0,47
844,955	-0,47
845,385	-0,45
845,815	-0,44
846,245	-0,46
846,675	-0,46
847,105	-0,47
847,534	-0,48
847,964	-0,46
848,394	-0,44
848,824	-0,48
849,253	-0,48
849,683	-0,47
850,112	-0,47
850,542	-0,51
850,972	-0,52
851,401	-0,5
851,831	-0,48
852,26	-0,49
852,69	-0,52
853,119	-0,52
853,548	-0,52
853,978	-0,52
854,407	-0,5
854,836	-0,51
855,266	-0,49
855,695	-0,51
856,124	-0,52
856,553	-0,53
856,983	-0,55
857,412	-0,54
857,841	-0,55
858,27	-0,55
858,699	-0,56
859,128	-0,6
859,557	-0,61
859,986	-0,62
860,415	-0,59
860,844	-0,57
861,273	-0,57
861,702	-0,57
862,13	-0,56
862,559	-0,57
862,988	-0,55
863,417	-0,54
863,845	-0,53
864,274	-0,54
864,703	-0,54
865,131	-0,55
865,56	-0,56
865,989	-0,58
866,417	-0,55
866,846	-0,56
867,274	-0,55
867,703	-0,57
868,131	-0,58
868,559	-0,58
868,988	-0,61
869,416	-0,6
869,844	-0,61
870,273	-0,63
870,701	-0,61
871,129	-0,65
871,557	-0,67
871,986	-0,67
872,414	-0,68
872,842	-0,65
873,27	-0,64
873,698	-0,6
874,126	-0,64
874,554	-0,62
874,982	-0,63
875,41	-0,66
875,838	-0,61
876,266	-0,58
876,694	-0,58
877,122	-0,58
877,549	-0,63
877,977	-0,6
878,405	-0,62
878,833	-0,59
879,26	-0,58
879,688	-0,58
880,116	-0,55
880,543	-0,54
880,971	-0,53
881,399	-0,56
881,826	-0,57
882,254	-0,55
882,681	-0,59
883,109	-0,55
883,536	-0,55
883,963	-0,57
884,391	-0,55
884,818	-0,54
885,245	-0,57
885,673	-0,59
886,1	-0,56
886,527	-0,56
886,954	-0,53
887,381	-0,54
887,809	-0,55
888,236	-0,56
888,663	-0,57
889,09	-0,6
889,517	-0,61
889,944	-0,61
890,371	-0,6
890,798	-0,61
891,225	-0,61
891,652	-0,64
892,078	-0,61
892,505	-0,65
892,932	-0,61
893,359	-0,62
893,786	-0,62
894,212	-0,58
894,639	-0,59
895,066	-0,61
895,492	-0,55
895,919	-0,57
896,346	-0,56
896,772	-0,56
897,199	-0,53
897,625	-0,56
898,052	-0,53
898,478	-0,53
898,904	-0,54
899,331	-0,53
899,757	-0,55
900,183	-0,58
900,61	-0,54
901,036	-0,56
901,462	-0,56
901,888	-0,55
902,315	-0,53
902,741	-0,58
903,167	-0,56
903,593	-0,59
904,019	-0,57
904,445	-0,54
904,871	-0,57
905,297	-0,59
905,723	-0,58
906,149	-0,57
906,575	-0,57
907,001	-0,58
907,427	-0,55
907,852	-0,54
908,278	-0,55
908,704	-0,55
909,13	-0,54
909,555	-0,53
909,981	-0,52
910,407	-0,53
910,832	-0,53
911,258	-0,53
911,684	-0,53
912,109	-0,53
912,535	-0,55
912,96	-0,51
913,386	-0,54
913,811	-0,54
914,236	-0,56
914,662	-0,54
915,087	-0,56
915,512	-0,56
915,938	-0,57
916,363	-0,57
916,788	-0,58
917,213	-0,56
917,639	-0,61
918,064	-0,59
918,489	-0,58
918,914	-0,59
919,339	-0,6
919,764	-0,58
920,189	-0,58
920,614	-0,61
921,039	-0,61
921,464	-0,58
921,889	-0,6
922,314	-0,6
922,738	-0,64
923,163	-0,65
923,588	-0,64
924,013	-0,63
924,437	-0,64
924,862	-0,65
925,287	-0,61
925,711	-0,62
926,136	-0,63
926,561	-0,61
926,985	-0,6
927,41	-0,57
927,834	-0,54
928,259	-0,51
928,683	-0,49
929,108	-0,46
929,532	-0,48
929,956	-0,47
930,381	-0,46
930,805	-0,45
931,229	-0,46
931,653	-0,44
932,078	-0,44
932,502	-0,46
932,926	-0,46
933,35	-0,47
933,774	-0,46
934,198	-0,44
934,622	-0,42
935,046	-0,42
935,47	-0,42
935,894	-0,42
936,318	-0,42
936,742	-0,42
937,166	-0,42
937,59	-0,41
938,014	-0,43
938,437	-0,43
938,861	-0,45
939,285	-0,46
939,709	-0,46
940,132	-0,47
940,556	-0,47
940,98	-0,47
941,403	-0,46
941,827	-0,46
942,25	-0,48
942,674	-0,47
943,097	-0,47
943,521	-0,47
943,944	-0,49
944,368	-0,48
944,791	-0,47
945,214	-0,49
945,638	-0,49
946,061	-0,52
946,484	-0,52
946,907	-0,51
947,331	-0,51
947,754	-0,54
948,177	-0,51
948,6	-0,51
949,023	-0,51
949,446	-0,51
949,869	-0,49
950,292	-0,49
950,715	-0,45
951,138	-0,44
951,561	-0,43
951,984	-0,43
952,407	-0,42
952,83	-0,39
953,252	-0,36
953,675	-0,36
954,098	-0,36
954,521	-0,35
954,943	-0,34
955,366	-0,35
955,789	-0,33
956,211	-0,35
956,634	-0,35
957,056	-0,32
957,479	-0,34
957,902	-0,36
958,324	-0,37
958,746	-0,35
959,169	-0,36
959,591	-0,36
960,014	-0,37
960,436	-0,37
960,858	-0,36
961,281	-0,37
961,703	-0,38
962,125	-0,38
962,547	-0,36
962,969	-0,36
963,391	-0,38
963,814	-0,39
964,236	-0,38
964,658	-0,35
965,08	-0,36
965,502	-0,35
965,924	-0,33
966,346	-0,33
966,768	-0,33
967,189	-0,35
967,611	-0,34
968,033	-0,34
968,455	-0,31
968,877	-0,32
969,298	-0,33
969,72	-0,34
970,142	-0,33
970,563	-0,33
970,985	-0,31
971,407	-0,3
971,828	-0,28
972,25	-0,27
972,671	-0,26
973,093	-0,26
973,514	-0,23
973,936	-0,22
974,357	-0,2
974,778	-0,2
975,2	-0,2
975,621	-0,19
976,042	-0,17
976,464	-0,16
976,885	-0,15
977,306	-0,14
977,727	-0,13
978,148	-0,13
978,57	-0,11
978,991	-0,1
979,412	-0,08
979,833	-0,07
980,254	-0,06
980,675	-0,07
981,096	-0,06
981,517	-0,05
981,937	-0,04
982,358	-0,03
982,779	-0,01
983,2	-0,01
983,621	-0,01
984,042	0,01
984,462	0,02
984,883	0,03
985,304	0,05
985,724	0,07
986,145	0,08
986,565	0,1
986,986	0,11
987,407	0,12
987,827	0,13
988,248	0,14
988,668	0,15
989,088	0,16
989,509	0,17
989,929	0,19
990,35	0,19
990,77	0,2
991,19	0,21
991,61	0,22
992,031	0,22
992,451	0,24
992,871	0,25
993,291	0,26
993,711	0,26
994,131	0,27
994,551	0,28
994,971	0,28
995,391	0,29
995,811	0,3
996,231	0,3
996,651	0,31
997,071	0,32
997,491	0,33
997,911	0,33
998,331	0,34
998,75	0,35
999,17	0,36
999,59	0,36
1000,009	0,36
1000,429	0,37
1000,849	0,38
1001,268	0,38
1001,688	0,38
1002,107	0,39
1002,527	0,39
1002,946	0,39
1003,366	0,4
1003,785	0,4
1004,205	0,4
1004,624	0,41
1005,044	0,41
1005,463	0,41
1005,882	0,41
1006,301	0,41
1006,721	0,42
1007,14	0,42
1007,559	0,42
1007,978	0,42
1008,397	0,42
1008,816	0,42
1009,235	0,42
1009,655	0,42
1010,074	0,42
1010,492	0,42
1010,911	0,42
1011,33	0,42
1011,749	0,42
1012,168	0,42
1012,587	0,42
1013,006	0,42
1013,425	0,42
1013,843	0,41
1014,262	0,41
1014,681	0,41
1015,099	0,41
1015,518	0,41
1015,937	0,41
1016,355	0,41
1016,774	0,41
1017,192	0,41
1017,611	0,41
1018,029	0,41
1018,448	0,41
1018,866	0,41
1019,285	0,41
1019,703	0,41
1020,121	0,41
1020,54	0,41
1020,958	0,41
1021,376	0,41
1021,794	0,41
1022,213	0,4
1022,631	0,4
1023,049	0,4
1023,467	0,4
1023,885	0,4
1024,303	0,4
1024,721	0,4
1025,139	0,4
1025,557	0,4
1025,975	0,4
1026,393	0,4
1026,811	0,4
1027,229	0,4
1027,647	0,4
1028,065	0,39
1028,482	0,39
1028,9	0,39
1029,318	0,39
1029,735	0,39
1030,153	0,39
1030,571	0,39
1030,988	0,39
1031,406	0,39
1031,823	0,39
1032,241	0,39
1032,659	0,39
1033,076	0,39
1033,493	0,39
1033,911	0,39
1034,328	0,4
1034,746	0,4
1035,163	0,4
1035,58	0,4
1035,997	0,4
1036,415	0,4
1036,832	0,4
1037,249	0,4
1037,666	0,4
1038,083	0,4
1038,501	0,4
1038,918	0,4
1039,335	0,4
1039,752	0,4
1040,169	0,4
1040,586	0,4
1041,003	0,4
1041,419	0,4
1041,836	0,4
1042,253	0,4
1042,67	0,4
1043,087	0,4
1043,504	0,4
1043,92	0,4
1044,337	0,4
1044,754	0,4
1045,17	0,39
1045,587	0,39
1046,004	0,39
1046,42	0,39
1046,837	0,4
1047,253	0,4
1047,67	0,39
1048,086	0,4
1048,503	0,4
1048,919	0,4
1049,335	0,4
1049,752	0,4
1050,168	0,4
1050,584	0,4
1051,001	0,4
1051,417	0,4
1051,833	0,4
1052,249	0,4
1052,665	0,4
1053,081	0,4
1053,497	0,4
1053,914	0,4
1054,33	0,4
1054,746	0,4
1055,162	0,41
1055,578	0,41
1055,993	0,41
1056,409	0,41
1056,825	0,41
1057,241	0,41
1057,657	0,41
1058,073	0,41
1058,488	0,41
1058,904	0,4
1059,32	0,4
1059,736	0,4
1060,151	0,4
1060,567	0,4
1060,982	0,4
1061,398	0,4
1061,813	0,4
1062,229	0,4
1062,644	0,4
1063,06	0,4
1063,475	0,4
1063,891	0,4
1064,306	0,4
1064,721	0,4
1065,137	0,4
1065,552	0,4
1065,967	0,4
1066,382	0,4
1066,798	0,4
1067,213	0,4
1067,628	0,4
1068,043	0,4
1068,458	0,4
1068,873	0,4
1069,288	0,4
1069,703	0,4
1070,118	0,4
1070,533	0,4
1070,948	0,4
1071,363	0,4
1071,778	0,4
1072,193	0,4
1072,607	0,4
1073,022	0,4
1073,437	0,4
1073,852	0,4
1074,266	0,4
1074,681	0,4
1075,096	0,4
1075,51	0,4
1075,925	0,4
1076,339	0,4
1076,754	0,39
1077,168	0,39
1077,583	0,39
1077,997	0,39
1078,412	0,39
1078,826	0,39
1079,24	0,39
1079,655	0,39
1080,069	0,39
1080,483	0,39
1080,897	0,39
1081,312	0,39
1081,726	0,39
1082,14	0,39
1082,554	0,39
1082,968	0,39
1083,382	0,39
1083,796	0,39
1084,21	0,39
1084,624	0,39
1085,038	0,39
1085,452	0,38
1085,866	0,38
1086,28	0,38
1086,694	0,38
1087,108	0,38
1087,521	0,38
1087,935	0,37
1088,349	0,37
1088,763	0,37
1089,176	0,37
1089,59	0,36
1090,004	0,36
1090,417	0,36
1090,831	0,36
1091,244	0,35
1091,658	0,35
1092,071	0,35
1092,485	0,35
1092,898	0,34
1093,312	0,34
1093,725	0,34
1094,138	0,34
1094,552	0,33
1094,965	0,33
1095,378	0,33
1095,791	0,33
1096,205	0,33
1096,618	0,32
1097,031	0,32
1097,444	0,32
1097,857	0,31
1098,27	0,31
1098,683	0,31
1099,096	0,3
1099,509	0,3
1099,922	0,29
1100,335	0,29
1100,748	0,29
1101,161	0,28
1101,574	0,28
1101,986	0,27
1102,399	0,27
1102,812	0,27
1103,225	0,27
1103,637	0,26
1104,05	0,26
1104,463	0,26
1104,875	0,25
1105,288	0,25
1105,7	0,24
1106,113	0,24
1106,525	0,24
1106,938	0,24
1107,35	0,23
1107,763	0,23
1108,175	0,23
1108,588	0,22
1109	0,21
1109,412	0,21
1109,824	0,22
1110,237	0,22
1110,649	0,21
1111,061	0,19
