Data from 18C-808nm-8A-cont_Absorbance__350__01779.txt Node

Date: Mon Jul 17 17:31:10 CEST 2023
User: Laser008
Spectrometer: MAYP115816
Trigger mode: 0
Integration Time (sec): 2,500000E-1
Scans to average: 10
Electric dark correction enabled: true
Nonlinearity correction enabled: true
Boxcar width: 5
XAxis mode: Wavelengths
Number of Pixels in Spectrum: 2068
>>>>>Begin Spectral Data<<<<<
198,914	-0,69
199,384	-0,48
199,855	-0,37
200,325	-0,28
200,796	-0,24
201,266	-0,2
201,737	-0,19
202,207	-0,18
202,677	-0,17
203,147	-0,15
203,618	-0,11
204,088	-0,1
204,558	-0,09
205,028	-0,08
205,498	-0,09
205,968	-0,08
206,439	-0,1
206,909	-0,09
207,379	-0,09
207,849	-0,09
208,319	-0,11
208,789	-0,11
209,258	-0,11
209,728	-0,12
210,198	-0,11
210,668	-0,11
211,138	-0,11
211,608	-0,11
212,077	-0,11
212,547	-0,11
213,017	-0,11
213,486	-0,1
213,956	-0,11
214,426	-0,12
214,895	-0,12
215,365	-0,12
215,834	-0,13
216,304	-0,13
216,773	-0,13
217,243	-0,14
217,712	-0,15
218,181	-0,16
218,651	-0,16
219,12	-0,16
219,589	-0,15
220,058	-0,15
220,528	-0,16
220,997	-0,16
221,466	-0,18
221,935	-0,19
222,404	-0,18
222,873	-0,17
223,342	-0,16
223,812	-0,17
224,281	-0,17
224,749	-0,17
225,218	-0,19
225,687	-0,19
226,156	-0,18
226,625	-0,16
227,094	-0,16
227,563	-0,16
228,031	-0,18
228,5	-0,17
228,969	-0,17
229,438	-0,16
229,906	-0,15
230,375	-0,14
230,844	-0,13
231,312	-0,13
231,781	-0,14
232,249	-0,14
232,718	-0,14
233,186	-0,11
233,655	-0,12
234,123	-0,12
234,591	-0,12
235,06	-0,12
235,528	-0,13
235,996	-0,13
236,465	-0,13
236,933	-0,13
237,401	-0,12
237,869	-0,12
238,337	-0,12
238,805	-0,11
239,274	-0,11
239,742	-0,1
240,21	-0,11
240,678	-0,1
241,146	-0,09
241,614	-0,09
242,081	-0,08
242,549	-0,08
243,017	-0,09
243,485	-0,09
243,953	-0,1
244,421	-0,09
244,888	-0,1
245,356	-0,1
245,824	-0,09
246,291	-0,09
246,759	-0,11
247,227	-0,11
247,694	-0,1
248,162	-0,1
248,629	-0,09
249,097	-0,09
249,564	-0,1
250,032	-0,11
250,499	-0,1
250,967	-0,11
251,434	-0,11
251,901	-0,1
252,369	-0,1
252,836	-0,12
253,303	-0,14
253,77	-0,16
254,237	-0,15
254,705	-0,14
255,172	-0,14
255,639	-0,15
256,106	-0,17
256,573	-0,16
257,04	-0,16
257,507	-0,17
257,974	-0,16
258,441	-0,13
258,908	-0,14
259,375	-0,15
259,841	-0,16
260,308	-0,17
260,775	-0,16
261,242	-0,15
261,709	-0,16
262,175	-0,18
262,642	-0,17
263,109	-0,17
263,575	-0,19
264,042	-0,18
264,508	-0,17
264,975	-0,18
265,441	-0,19
265,908	-0,2
266,374	-0,19
266,841	-0,19
267,307	-0,19
267,773	-0,19
268,24	-0,19
268,706	-0,19
269,172	-0,2
269,639	-0,2
270,105	-0,18
270,571	-0,18
271,037	-0,17
271,503	-0,19
271,969	-0,18
272,435	-0,18
272,902	-0,2
273,368	-0,21
273,834	-0,21
274,3	-0,2
274,765	-0,21
275,231	-0,22
275,697	-0,2
276,163	-0,21
276,629	-0,2
277,095	-0,21
277,56	-0,2
278,026	-0,2
278,492	-0,18
278,958	-0,18
279,423	-0,19
279,889	-0,18
280,354	-0,19
280,82	-0,19
281,286	-0,2
281,751	-0,2
282,217	-0,18
282,682	-0,19
283,147	-0,19
283,613	-0,2
284,078	-0,19
284,544	-0,21
285,009	-0,22
285,474	-0,22
285,939	-0,23
286,405	-0,22
286,87	-0,22
287,335	-0,22
287,8	-0,21
288,265	-0,19
288,73	-0,21
289,195	-0,23
289,66	-0,22
290,125	-0,2
290,59	-0,2
291,055	-0,18
291,52	-0,19
291,985	-0,19
292,45	-0,21
292,915	-0,21
293,38	-0,22
293,844	-0,2
294,309	-0,19
294,774	-0,18
295,239	-0,18
295,703	-0,19
296,168	-0,19
296,632	-0,18
297,097	-0,17
297,562	-0,15
298,026	-0,15
298,491	-0,15
298,955	-0,14
299,419	-0,14
299,884	-0,14
300,348	-0,13
300,813	-0,13
301,277	-0,13
301,741	-0,13
302,205	-0,13
302,67	-0,12
303,134	-0,12
303,598	-0,11
304,062	-0,11
304,526	-0,11
304,99	-0,11
305,454	-0,12
305,919	-0,12
306,383	-0,12
306,847	-0,11
307,31	-0,12
307,774	-0,13
308,238	-0,13
308,702	-0,13
309,166	-0,15
309,63	-0,14
310,094	-0,12
310,557	-0,11
311,021	-0,11
311,485	-0,11
311,948	-0,1
312,412	-0,1
312,876	-0,09
313,339	-0,09
313,803	-0,1
314,266	-0,09
314,73	-0,09
315,193	-0,1
315,657	-0,08
316,12	-0,08
316,584	-0,08
317,047	-0,07
317,51	-0,06
317,973	-0,07
318,437	-0,06
318,9	-0,04
319,363	-0,03
319,826	-0,02
320,29	-0,02
320,753	-0,03
321,216	-0,03
321,679	-0,03
322,142	-0,02
322,605	-0,04
323,068	-0,03
323,531	-0,03
323,994	-0,03
324,457	-0,03
324,92	-0,02
325,382	-0,02
325,845	-0,02
326,308	-0,01
326,771	-0,01
327,233	-0
327,696	0,01
328,159	0,01
328,622	0,01
329,084	0,01
329,547	0,02
330,009	0,02
330,472	0,04
330,934	0,05
331,397	0,04
331,859	0,06
332,322	0,06
332,784	0,06
333,246	0,07
333,709	0,07
334,171	0,07
334,633	0,07
335,096	0,07
335,558	0,06
336,02	0,06
336,482	0,06
336,944	0,08
337,406	0,08
337,868	0,08
338,331	0,08
338,793	0,1
339,255	0,11
339,717	0,11
340,178	0,13
340,64	0,14
341,102	0,14
341,564	0,15
342,026	0,16
342,488	0,17
342,949	0,18
343,411	0,21
343,873	0,23
344,335	0,26
344,796	0,3
345,258	0,34
345,719	0,39
346,181	0,43
346,643	0,47
347,104	0,51
347,566	0,54
348,027	0,58
348,488	0,6
348,95	0,62
349,411	0,65
349,873	0,67
350,334	0,69
350,795	0,71
351,256	0,72
351,718	0,72
352,179	0,73
352,64	0,73
353,101	0,74
353,562	0,74
354,023	0,74
354,484	0,74
354,945	0,75
355,406	0,75
355,867	0,75
356,328	0,76
356,789	0,76
357,25	0,76
357,711	0,76
358,172	0,76
358,633	0,77
359,093	0,77
359,554	0,77
360,015	0,77
360,476	0,77
360,936	0,77
361,397	0,77
361,858	0,77
362,318	0,77
362,779	0,78
363,239	0,78
363,7	0,78
364,16	0,78
364,621	0,78
365,081	0,78
365,541	0,78
366,002	0,78
366,462	0,78
366,922	0,78
367,383	0,77
367,843	0,77
368,303	0,78
368,763	0,78
369,223	0,78
369,684	0,78
370,144	0,78
370,604	0,78
371,064	0,78
371,524	0,78
371,984	0,78
372,444	0,78
372,904	0,78
373,363	0,77
373,823	0,77
374,283	0,77
374,743	0,77
375,203	0,77
375,663	0,77
376,122	0,77
376,582	0,77
377,042	0,77
377,501	0,77
377,961	0,77
378,42	0,77
378,88	0,77
379,34	0,77
379,799	0,77
380,259	0,77
380,718	0,77
381,177	0,77
381,637	0,77
382,096	0,77
382,555	0,77
383,015	0,77
383,474	0,77
383,933	0,77
384,393	0,77
384,852	0,77
385,311	0,77
385,77	0,77
386,229	0,77
386,688	0,76
387,147	0,76
387,606	0,76
388,065	0,76
388,524	0,76
388,983	0,76
389,442	0,76
389,901	0,76
390,36	0,76
390,819	0,76
391,277	0,76
391,736	0,76
392,195	0,76
392,654	0,76
393,112	0,76
393,571	0,76
394,03	0,76
394,488	0,76
394,947	0,76
395,405	0,76
395,864	0,76
396,322	0,76
396,781	0,76
397,239	0,76
397,698	0,76
398,156	0,76
398,614	0,76
399,073	0,76
399,531	0,76
399,989	0,76
400,447	0,76
400,905	0,76
401,364	0,75
401,822	0,75
402,28	0,75
402,738	0,75
403,196	0,75
403,654	0,75
404,112	0,75
404,57	0,75
405,028	0,75
405,486	0,75
405,944	0,75
406,402	0,75
406,859	0,75
407,317	0,75
407,775	0,75
408,233	0,75
408,691	0,75
409,148	0,75
409,606	0,75
410,064	0,75
410,521	0,75
410,979	0,75
411,436	0,75
411,894	0,75
412,351	0,75
412,809	0,75
413,266	0,75
413,724	0,75
414,181	0,75
414,638	0,75
415,096	0,75
415,553	0,75
416,01	0,74
416,467	0,74
416,925	0,74
417,382	0,74
417,839	0,74
418,296	0,75
418,753	0,74
419,21	0,74
419,667	0,74
420,124	0,74
420,581	0,74
421,038	0,74
421,495	0,74
421,952	0,74
422,409	0,74
422,866	0,74
423,322	0,74
423,779	0,74
424,236	0,74
424,693	0,74
425,149	0,74
425,606	0,74
426,063	0,74
426,519	0,74
426,976	0,74
427,433	0,74
427,889	0,74
428,346	0,74
428,802	0,74
429,258	0,74
429,715	0,74
430,171	0,74
430,628	0,74
431,084	0,74
431,54	0,74
431,997	0,74
432,453	0,74
432,909	0,74
433,365	0,74
433,821	0,74
434,277	0,74
434,734	0,74
435,19	0,74
435,646	0,74
436,102	0,74
436,558	0,74
437,014	0,74
437,47	0,74
437,925	0,74
438,381	0,74
438,837	0,74
439,293	0,74
439,749	0,74
440,205	0,74
440,66	0,74
441,116	0,74
441,572	0,74
442,027	0,74
442,483	0,74
442,939	0,74
443,394	0,74
443,85	0,74
444,305	0,74
444,761	0,74
445,216	0,74
445,672	0,74
446,127	0,74
446,582	0,74
447,038	0,74
447,493	0,74
447,948	0,74
448,403	0,74
448,859	0,74
449,314	0,75
449,769	0,75
450,224	0,75
450,679	0,75
451,134	0,75
451,589	0,75
452,044	0,75
452,499	0,75
452,954	0,75
453,409	0,75
453,864	0,75
454,319	0,75
454,774	0,75
455,229	0,75
455,684	0,75
456,138	0,75
456,593	0,75
457,048	0,75
457,503	0,75
457,957	0,75
458,412	0,75
458,866	0,75
459,321	0,75
459,776	0,75
460,23	0,75
460,685	0,75
461,139	0,75
461,593	0,75
462,048	0,76
462,502	0,76
462,957	0,76
463,411	0,76
463,865	0,76
464,319	0,76
464,774	0,76
465,228	0,76
465,682	0,76
466,136	0,76
466,59	0,76
467,044	0,76
467,499	0,77
467,953	0,77
468,407	0,77
468,861	0,77
469,315	0,77
469,768	0,77
470,222	0,77
470,676	0,77
471,13	0,77
471,584	0,77
472,038	0,77
472,491	0,77
472,945	0,78
473,399	0,78
473,852	0,78
474,306	0,78
474,76	0,78
475,213	0,78
475,667	0,78
476,12	0,78
476,574	0,79
477,027	0,79
477,481	0,79
477,934	0,79
478,388	0,79
478,841	0,79
479,294	0,79
479,748	0,8
480,201	0,8
480,654	0,8
481,107	0,8
481,561	0,8
482,014	0,81
482,467	0,81
482,92	0,81
483,373	0,81
483,826	0,81
484,279	0,81
484,732	0,82
485,185	0,82
485,638	0,82
486,091	0,82
486,544	0,82
486,997	0,83
487,449	0,83
487,902	0,83
488,355	0,83
488,808	0,84
489,26	0,84
489,713	0,84
490,166	0,85
490,618	0,85
491,071	0,85
491,523	0,85
491,976	0,86
492,429	0,86
492,881	0,86
493,333	0,87
493,786	0,87
494,238	0,87
494,691	0,88
495,143	0,88
495,595	0,88
496,048	0,89
496,5	0,89
496,952	0,89
497,404	0,9
497,856	0,9
498,309	0,9
498,761	0,91
499,213	0,91
499,665	0,92
500,117	0,92
500,569	0,92
501,021	0,93
501,473	0,93
501,925	0,94
502,377	0,94
502,828	0,94
503,28	0,95
503,732	0,95
504,184	0,96
504,636	0,96
505,087	0,96
505,539	0,97
505,991	0,97
506,442	0,98
506,894	0,98
507,345	0,98
507,797	0,99
508,249	0,99
508,7	1
509,151	1
509,603	1
510,054	1,01
510,506	1,01
510,957	1,02
511,408	1,02
511,86	1,02
512,311	1,03
512,762	1,03
513,213	1,03
513,665	1,04
514,116	1,04
514,567	1,04
515,018	1,05
515,469	1,05
515,92	1,05
516,371	1,06
516,822	1,06
517,273	1,06
517,724	1,07
518,175	1,07
518,626	1,07
519,076	1,07
519,527	1,08
519,978	1,08
520,429	1,08
520,88	1,08
521,33	1,09
521,781	1,09
522,232	1,09
522,682	1,09
523,133	1,09
523,583	1,09
524,034	1,1
524,484	1,1
524,935	1,1
525,385	1,1
525,836	1,1
526,286	1,1
526,736	1,1
527,187	1,1
527,637	1,1
528,087	1,1
528,538	1,09
528,988	1,09
529,438	1,09
529,888	1,09
530,338	1,09
530,788	1,09
531,238	1,09
531,688	1,09
532,139	1,08
532,589	1,08
533,038	1,08
533,488	1,08
533,938	1,08
534,388	1,07
534,838	1,07
535,288	1,07
535,738	1,07
536,187	1,06
536,637	1,06
537,087	1,06
537,537	1,05
537,986	1,05
538,436	1,04
538,885	1,04
539,335	1,03
539,785	1,03
540,234	1,03
540,684	1,02
541,133	1,02
541,582	1,01
542,032	1,01
542,481	1
542,931	1
543,38	0,99
543,829	0,99
544,278	0,98
544,728	0,98
545,177	0,97
545,626	0,97
546,075	0,96
546,524	0,96
546,973	0,96
547,422	0,95
547,871	0,95
548,32	0,94
548,769	0,94
549,218	0,94
549,667	0,93
550,116	0,93
550,565	0,93
551,014	0,92
551,463	0,92
551,911	0,91
552,36	0,91
552,809	0,9
553,258	0,9
553,706	0,89
554,155	0,89
554,603	0,88
555,052	0,88
555,501	0,87
555,949	0,87
556,398	0,86
556,846	0,86
557,294	0,85
557,743	0,85
558,191	0,85
558,64	0,84
559,088	0,83
559,536	0,83
559,985	0,82
560,433	0,82
560,881	0,82
561,329	0,81
561,777	0,81
562,225	0,8
562,674	0,8
563,122	0,79
563,57	0,79
564,018	0,79
564,466	0,78
564,914	0,78
565,362	0,77
565,809	0,77
566,257	0,76
566,705	0,76
567,153	0,76
567,601	0,75
568,048	0,75
568,496	0,74
568,944	0,74
569,392	0,74
569,839	0,73
570,287	0,73
570,734	0,73
571,182	0,72
571,63	0,72
572,077	0,71
572,525	0,71
572,972	0,71
573,419	0,7
573,867	0,7
574,314	0,7
574,761	0,69
575,209	0,69
575,656	0,68
576,103	0,68
576,551	0,68
576,998	0,68
577,445	0,67
577,892	0,67
578,339	0,67
578,786	0,66
579,233	0,66
579,68	0,66
580,127	0,65
580,574	0,65
581,021	0,65
581,468	0,64
581,915	0,64
582,362	0,64
582,809	0,64
583,255	0,64
583,702	0,63
584,149	0,63
584,596	0,63
585,042	0,63
585,489	0,62
585,936	0,62
586,382	0,62
586,829	0,62
587,275	0,61
587,722	0,61
588,168	0,61
588,615	0,61
589,061	0,6
589,508	0,6
589,954	0,6
590,4	0,6
590,847	0,6
591,293	0,59
591,739	0,59
592,185	0,59
592,632	0,59
593,078	0,59
593,524	0,59
593,97	0,59
594,416	0,58
594,862	0,58
595,308	0,58
595,754	0,58
596,2	0,58
596,646	0,58
597,092	0,57
597,538	0,57
597,984	0,57
598,43	0,57
598,876	0,57
599,321	0,57
599,767	0,57
600,213	0,56
600,659	0,56
601,104	0,56
601,55	0,56
601,995	0,56
602,441	0,56
602,887	0,56
603,332	0,55
603,778	0,55
604,223	0,55
604,668	0,55
605,114	0,55
605,559	0,55
606,005	0,55
606,45	0,55
606,895	0,54
607,341	0,54
607,786	0,54
608,231	0,54
608,676	0,54
609,121	0,53
609,566	0,52
610,012	0,52
610,457	0,52
610,902	0,51
611,347	0,51
611,792	0,51
612,237	0,51
612,682	0,51
613,127	0,51
613,571	0,51
614,016	0,51
614,461	0,51
614,906	0,51
615,351	0,51
615,795	0,52
616,24	0,52
616,685	0,52
617,129	0,52
617,574	0,52
618,019	0,52
618,463	0,52
618,908	0,51
619,352	0,51
619,797	0,51
620,241	0,51
620,686	0,51
621,13	0,51
621,574	0,51
622,019	0,51
622,463	0,51
622,907	0,5
623,352	0,5
623,796	0,5
624,24	0,5
624,684	0,5
625,128	0,5
625,572	0,5
626,016	0,5
626,461	0,5
626,905	0,5
627,349	0,5
627,793	0,5
628,236	0,5
628,68	0,5
629,124	0,5
629,568	0,5
630,012	0,5
630,456	0,5
630,9	0,5
631,343	0,5
631,787	0,5
632,231	0,5
632,674	0,5
633,118	0,5
633,562	0,5
634,005	0,5
634,449	0,5
634,892	0,49
635,336	0,49
635,779	0,49
636,223	0,49
636,666	0,49
637,109	0,49
637,553	0,49
637,996	0,49
638,439	0,49
638,883	0,49
639,326	0,49
639,769	0,49
640,212	0,49
640,655	0,49
641,099	0,49
641,542	0,49
641,985	0,48
642,428	0,48
642,871	0,48
643,314	0,48
643,757	0,48
644,2	0,48
644,643	0,48
645,085	0,48
645,528	0,48
645,971	0,48
646,414	0,48
646,857	0,48
647,299	0,48
647,742	0,48
648,185	0,48
648,627	0,48
649,07	0,48
649,513	0,48
649,955	0,48
650,398	0,48
650,84	0,48
651,283	0,48
651,725	0,48
652,168	0,48
652,61	0,48
653,052	0,48
653,495	0,48
653,937	0,39
654,379	0,33
654,821	0,34
655,264	0,34
655,706	0,34
656,148	0,34
656,59	0,34
657,032	0,34
657,474	0,34
657,916	0,34
658,358	0,33
658,8	0,39
659,242	0,47
659,684	0,48
660,126	0,47
660,568	0,47
661,01	0,47
661,452	0,47
661,894	0,47
662,335	0,47
662,777	0,47
663,219	0,47
663,661	0,47
664,102	0,47
664,544	0,47
664,985	0,47
665,427	0,47
665,869	0,47
666,31	0,47
666,752	0,47
667,193	0,47
667,634	0,47
668,076	0,47
668,517	0,47
668,959	0,47
669,4	0,47
669,841	0,47
670,282	0,47
670,724	0,47
671,165	0,47
671,606	0,47
672,047	0,47
672,488	0,47
672,929	0,47
673,37	0,47
673,811	0,47
674,252	0,46
674,693	0,46
675,134	0,46
675,575	0,46
676,016	0,46
676,457	0,46
676,898	0,46
677,339	0,46
677,78	0,46
678,22	0,46
678,661	0,45
679,102	0,45
679,542	0,46
679,983	0,46
680,424	0,46
680,864	0,46
681,305	0,46
681,745	0,46
682,186	0,46
682,626	0,46
683,067	0,46
683,507	0,46
683,948	0,46
684,388	0,46
684,828	0,46
685,269	0,46
685,709	0,46
686,149	0,46
686,589	0,45
687,029	0,45
687,47	0,45
687,91	0,45
688,35	0,45
688,79	0,45
689,23	0,45
689,67	0,45
690,11	0,45
690,55	0,45
690,99	0,45
691,43	0,45
691,87	0,45
692,31	0,45
692,749	0,45
693,189	0,44
693,629	0,44
694,069	0,44
694,508	0,44
694,948	0,44
695,388	0,44
695,827	0,44
696,267	0,44
696,706	0,44
697,146	0,44
697,586	0,44
698,025	0,45
698,464	0,45
698,904	0,45
699,343	0,45
699,783	0,45
700,222	0,45
700,661	0,45
701,101	0,45
701,54	0,45
701,979	0,45
702,418	0,45
702,857	0,45
703,297	0,45
703,736	0,45
704,175	0,45
704,614	0,45
705,053	0,45
705,492	0,45
705,931	0,45
706,37	0,45
706,809	0,44
707,248	0,44
707,687	0,44
708,125	0,44
708,564	0,44
709,003	0,44
709,442	0,44
709,88	0,44
710,319	0,44
710,758	0,44
711,196	0,44
711,635	0,44
712,074	0,44
712,512	0,44
712,951	0,43
713,389	0,43
713,828	0,43
714,266	0,43
714,705	0,43
715,143	0,43
715,581	0,43
716,02	0,43
716,458	0,43
716,896	0,43
717,334	0,43
717,773	0,43
718,211	0,43
718,649	0,43
719,087	0,44
719,525	0,44
719,963	0,44
720,401	0,44
720,839	0,44
721,277	0,44
721,715	0,44
722,153	0,44
722,591	0,44
723,029	0,44
723,467	0,44
723,905	0,44
724,342	0,44
724,78	0,44
725,218	0,44
725,656	0,44
726,093	0,44
726,531	0,44
726,969	0,44
727,406	0,44
727,844	0,44
728,281	0,44
728,719	0,44
729,156	0,44
729,594	0,44
730,031	0,43
730,469	0,43
730,906	0,43
731,343	0,43
731,781	0,43
732,218	0,43
732,655	0,43
733,092	0,43
733,53	0,43
733,967	0,43
734,404	0,42
734,841	0,42
735,278	0,42
735,715	0,42
736,152	0,42
736,589	0,42
737,026	0,42
737,463	0,42
737,9	0,42
738,337	0,42
738,774	0,42
739,211	0,42
739,647	0,42
740,084	0,42
740,521	0,42
740,958	0,42
741,394	0,42
741,831	0,42
742,268	0,42
742,704	0,42
743,141	0,42
743,577	0,42
744,014	0,42
744,45	0,42
744,887	0,42
745,323	0,42
745,76	0,42
746,196	0,41
746,632	0,41
747,069	0,41
747,505	0,41
747,941	0,41
748,378	0,41
748,814	0,41
749,25	0,41
749,686	0,41
750,122	0,41
750,558	0,42
750,994	0,42
751,43	0,42
751,866	0,42
752,302	0,42
752,738	0,42
753,174	0,42
753,61	0,42
754,046	0,42
754,482	0,42
754,918	0,42
755,354	0,42
755,789	0,42
756,225	0,42
756,661	0,42
757,096	0,42
757,532	0,42
757,968	0,42
758,403	0,41
758,839	0,41
759,274	0,41
759,71	0,41
760,145	0,4
760,581	0,39
761,016	0,39
761,452	0,38
761,887	0,38
762,322	0,38
762,758	0,37
763,193	0,37
763,628	0,36
764,063	0,35
764,499	0,35
764,934	0,34
765,369	0,34
765,804	0,33
766,239	0,33
766,674	0,32
767,109	0,31
767,544	0,3
767,979	0,29
768,414	0,28
768,849	0,27
769,284	0,26
769,719	0,25
770,154	0,25
770,588	0,24
771,023	0,23
771,458	0,22
771,893	0,21
772,327	0,19
772,762	0,19
773,197	0,17
773,631	0,16
774,066	0,16
774,5	0,15
774,935	0,14
775,369	0,12
775,804	0,11
776,238	0,1
776,673	0,09
777,107	0,08
777,541	0,07
777,976	0,06
778,41	0,05
778,844	0,05
779,279	0,04
779,713	0,03
780,147	0,02
780,581	0,02
781,015	0,01
781,449	0
781,883	-0
782,317	-0,02
782,751	-0,03
783,185	-0,05
783,619	-0,06
784,053	-0,06
784,487	-0,07
784,921	-0,07
785,355	-0,08
785,789	-0,1
786,223	-0,11
786,656	-0,12
787,09	-0,13
787,524	-0,13
787,957	-0,13
788,391	-0,15
788,825	-0,17
789,258	-0,18
789,692	-0,19
790,125	-0,21
790,559	-0,22
790,992	-0,24
791,426	-0,26
791,859	-0,28
792,293	-0,31
792,726	-0,32
793,159	-0,34
793,593	-0,36
794,026	-0,38
794,459	-0,42
794,892	-0,44
795,326	-0,47
795,759	-0,5
796,192	-0,55
796,625	-0,59
797,058	-0,62
797,491	-0,66
797,924	-0,7
798,357	-0,75
798,79	-0,79
799,223	-0,83
799,656	-0,89
800,089	-0,94
800,522	-0,98
800,955	-1,02
801,387	-1,08
801,82	-1,13
802,253	-1,2
802,686	-1,27
803,118	-1,33
803,551	-1,38
803,984	-1,43
804,416	-1,46
804,849	-1,49
805,281	-1,6
805,714	-1,96
806,146	-2,43
806,579	-2,7
807,011	-2,86
807,444	-2,96
807,876	-3,04
808,308	-3,07
808,741	-3,1
809,173	-3,15
809,605	-3,17
810,037	-3,25
810,47	-3,17
810,902	-2,97
811,334	-2,82
811,766	-2,65
812,198	-2,4
812,63	-1,97
813,062	-1,77
813,494	-1,68
813,926	-1,59
814,358	-1,54
814,79	-1,46
815,222	-1,4
815,654	-1,35
816,086	-1,28
816,518	-1,23
816,949	-1,18
817,381	-1,13
817,813	-1,11
818,245	-1,07
818,676	-1,03
819,108	-1
819,54	-0,99
819,971	-0,96
820,403	-0,91
820,834	-0,9
821,266	-0,86
821,697	-0,84
822,129	-0,82
822,56	-0,8
822,991	-0,78
823,423	-0,75
823,854	-0,74
824,286	-0,72
824,717	-0,7
825,148	-0,69
825,579	-0,68
826,01	-0,66
826,442	-0,65
826,873	-0,64
827,304	-0,6
827,735	-0,59
828,166	-0,6
828,597	-0,59
829,028	-0,58
829,459	-0,59
829,89	-0,59
830,321	-0,55
830,752	-0,55
831,183	-0,54
831,613	-0,53
832,044	-0,53
832,475	-0,52
832,906	-0,53
833,336	-0,53
833,767	-0,54
834,198	-0,53
834,628	-0,5
835,059	-0,54
835,49	-0,55
835,92	-0,52
836,351	-0,52
836,781	-0,53
837,212	-0,54
837,642	-0,55
838,072	-0,53
838,503	-0,54
838,933	-0,52
839,364	-0,53
839,794	-0,5
840,224	-0,5
840,654	-0,54
841,085	-0,55
841,515	-0,52
841,945	-0,52
842,375	-0,46
842,805	-0,45
843,235	-0,44
843,665	-0,46
844,095	-0,44
844,525	-0,46
844,955	-0,47
845,385	-0,44
845,815	-0,43
846,245	-0,45
846,675	-0,46
847,105	-0,48
847,534	-0,48
847,964	-0,47
848,394	-0,45
848,824	-0,49
849,253	-0,48
849,683	-0,48
850,112	-0,49
850,542	-0,52
850,972	-0,52
851,401	-0,51
851,831	-0,49
852,26	-0,5
852,69	-0,54
853,119	-0,53
853,548	-0,53
853,978	-0,54
854,407	-0,52
854,836	-0,52
855,266	-0,52
855,695	-0,53
856,124	-0,54
856,553	-0,55
856,983	-0,57
857,412	-0,57
857,841	-0,58
858,27	-0,58
858,699	-0,59
859,128	-0,63
859,557	-0,63
859,986	-0,64
860,415	-0,62
860,844	-0,59
861,273	-0,59
861,702	-0,6
862,13	-0,59
862,559	-0,6
862,988	-0,57
863,417	-0,55
863,845	-0,55
864,274	-0,56
864,703	-0,56
865,131	-0,56
865,56	-0,57
865,989	-0,6
866,417	-0,57
866,846	-0,57
867,274	-0,56
867,703	-0,58
868,131	-0,59
868,559	-0,58
868,988	-0,6
869,416	-0,59
869,844	-0,61
870,273	-0,64
870,701	-0,62
871,129	-0,65
871,557	-0,68
871,986	-0,68
872,414	-0,69
872,842	-0,67
873,27	-0,66
873,698	-0,63
874,126	-0,67
874,554	-0,64
874,982	-0,63
875,41	-0,65
875,838	-0,61
876,266	-0,58
876,694	-0,59
877,122	-0,58
877,549	-0,62
877,977	-0,58
878,405	-0,61
878,833	-0,58
879,26	-0,57
879,688	-0,57
880,116	-0,55
880,543	-0,53
880,971	-0,52
881,399	-0,55
881,826	-0,56
882,254	-0,54
882,681	-0,58
883,109	-0,53
883,536	-0,54
883,963	-0,56
884,391	-0,54
884,818	-0,52
885,245	-0,56
885,673	-0,58
886,1	-0,55
886,527	-0,54
886,954	-0,51
887,381	-0,53
887,809	-0,54
888,236	-0,56
888,663	-0,56
889,09	-0,61
889,517	-0,62
889,944	-0,62
890,371	-0,61
890,798	-0,61
891,225	-0,61
891,652	-0,64
892,078	-0,62
892,505	-0,65
892,932	-0,61
893,359	-0,62
893,786	-0,61
894,212	-0,58
894,639	-0,6
895,066	-0,62
895,492	-0,57
895,919	-0,57
896,346	-0,57
896,772	-0,57
897,199	-0,53
897,625	-0,57
898,052	-0,53
898,478	-0,53
898,904	-0,54
899,331	-0,53
899,757	-0,55
900,183	-0,57
900,61	-0,55
901,036	-0,56
901,462	-0,55
901,888	-0,54
902,315	-0,53
902,741	-0,58
903,167	-0,56
903,593	-0,59
904,019	-0,58
904,445	-0,55
904,871	-0,58
905,297	-0,6
905,723	-0,59
906,149	-0,59
906,575	-0,59
907,001	-0,59
907,427	-0,56
907,852	-0,55
908,278	-0,56
908,704	-0,54
909,13	-0,53
909,555	-0,52
909,981	-0,52
910,407	-0,52
910,832	-0,52
911,258	-0,52
911,684	-0,52
912,109	-0,52
912,535	-0,55
912,96	-0,51
913,386	-0,55
913,811	-0,54
914,236	-0,56
914,662	-0,53
915,087	-0,57
915,512	-0,57
915,938	-0,59
916,363	-0,59
916,788	-0,6
917,213	-0,57
917,639	-0,63
918,064	-0,6
918,489	-0,59
918,914	-0,59
919,339	-0,61
919,764	-0,58
920,189	-0,59
920,614	-0,61
921,039	-0,61
921,464	-0,56
921,889	-0,59
922,314	-0,6
922,738	-0,62
923,163	-0,64
923,588	-0,64
924,013	-0,64
924,437	-0,63
924,862	-0,63
925,287	-0,6
925,711	-0,61
926,136	-0,63
926,561	-0,6
926,985	-0,59
927,41	-0,56
927,834	-0,55
928,259	-0,51
928,683	-0,5
929,108	-0,47
929,532	-0,48
929,956	-0,48
930,381	-0,47
930,805	-0,46
931,229	-0,47
931,653	-0,44
932,078	-0,43
932,502	-0,45
932,926	-0,45
933,35	-0,45
933,774	-0,45
934,198	-0,43
934,622	-0,42
935,046	-0,43
935,47	-0,44
935,894	-0,44
936,318	-0,44
936,742	-0,44
937,166	-0,44
937,59	-0,45
938,014	-0,47
938,437	-0,48
938,861	-0,49
939,285	-0,5
939,709	-0,49
940,132	-0,49
940,556	-0,49
940,98	-0,5
941,403	-0,49
941,827	-0,49
942,25	-0,49
942,674	-0,47
943,097	-0,47
943,521	-0,47
943,944	-0,49
944,368	-0,48
944,791	-0,46
945,214	-0,49
945,638	-0,49
946,061	-0,52
946,484	-0,54
946,907	-0,53
947,331	-0,53
947,754	-0,56
948,177	-0,54
948,6	-0,53
949,023	-0,52
949,446	-0,52
949,869	-0,49
950,292	-0,5
950,715	-0,46
951,138	-0,44
951,561	-0,41
951,984	-0,42
952,407	-0,41
952,83	-0,4
953,252	-0,35
953,675	-0,36
954,098	-0,37
954,521	-0,35
954,943	-0,34
955,366	-0,35
955,789	-0,33
956,211	-0,35
956,634	-0,35
957,056	-0,33
957,479	-0,33
957,902	-0,36
958,324	-0,36
958,746	-0,35
959,169	-0,36
959,591	-0,37
960,014	-0,38
960,436	-0,37
960,858	-0,37
961,281	-0,37
961,703	-0,38
962,125	-0,37
962,547	-0,36
962,969	-0,36
963,391	-0,37
963,814	-0,38
964,236	-0,37
964,658	-0,34
965,08	-0,35
965,502	-0,34
965,924	-0,3
966,346	-0,31
966,768	-0,3
967,189	-0,32
967,611	-0,31
968,033	-0,31
968,455	-0,29
968,877	-0,3
969,298	-0,31
969,72	-0,32
970,142	-0,31
970,563	-0,32
970,985	-0,3
971,407	-0,3
971,828	-0,28
972,25	-0,27
972,671	-0,25
973,093	-0,25
973,514	-0,24
973,936	-0,22
974,357	-0,2
974,778	-0,2
975,2	-0,2
975,621	-0,2
976,042	-0,18
976,464	-0,17
976,885	-0,16
977,306	-0,16
977,727	-0,15
978,148	-0,14
978,57	-0,13
978,991	-0,11
979,412	-0,1
979,833	-0,09
980,254	-0,09
980,675	-0,09
981,096	-0,08
981,517	-0,06
981,937	-0,06
982,358	-0,05
982,779	-0,03
983,2	-0,03
983,621	-0,03
984,042	-0,01
984,462	0
984,883	0,02
985,304	0,04
985,724	0,04
986,145	0,05
986,565	0,06
986,986	0,08
987,407	0,09
987,827	0,11
988,248	0,13
988,668	0,14
989,088	0,15
989,509	0,16
989,929	0,17
990,35	0,18
990,77	0,19
991,19	0,2
991,61	0,21
992,031	0,23
992,451	0,24
992,871	0,25
993,291	0,26
993,711	0,26
994,131	0,27
994,551	0,28
994,971	0,29
995,391	0,29
995,811	0,3
996,231	0,31
996,651	0,31
997,071	0,32
997,491	0,32
997,911	0,33
998,331	0,34
998,75	0,35
999,17	0,35
999,59	0,35
1000,009	0,36
1000,429	0,36
1000,849	0,37
1001,268	0,37
1001,688	0,38
1002,107	0,38
1002,527	0,38
1002,946	0,39
1003,366	0,39
1003,785	0,39
1004,205	0,4
1004,624	0,4
1005,044	0,4
1005,463	0,4
1005,882	0,4
1006,301	0,41
1006,721	0,41
1007,14	0,41
1007,559	0,41
1007,978	0,41
1008,397	0,41
1008,816	0,41
1009,235	0,41
1009,655	0,41
1010,074	0,41
1010,492	0,41
1010,911	0,41
1011,33	0,41
1011,749	0,41
1012,168	0,41
1012,587	0,41
1013,006	0,41
1013,425	0,41
1013,843	0,41
1014,262	0,41
1014,681	0,41
1015,099	0,41
1015,518	0,4
1015,937	0,4
1016,355	0,4
1016,774	0,4
1017,192	0,4
1017,611	0,4
1018,029	0,4
1018,448	0,4
1018,866	0,4
1019,285	0,4
1019,703	0,4
1020,121	0,4
1020,54	0,4
1020,958	0,4
1021,376	0,4
1021,794	0,4
1022,213	0,4
1022,631	0,4
1023,049	0,4
1023,467	0,4
1023,885	0,39
1024,303	0,39
1024,721	0,39
1025,139	0,39
1025,557	0,39
1025,975	0,39
1026,393	0,39
1026,811	0,39
1027,229	0,39
1027,647	0,39
1028,065	0,39
1028,482	0,39
1028,9	0,39
1029,318	0,39
1029,735	0,39
1030,153	0,39
1030,571	0,39
1030,988	0,39
1031,406	0,39
1031,823	0,39
1032,241	0,39
1032,659	0,39
1033,076	0,39
1033,493	0,39
1033,911	0,39
1034,328	0,39
1034,746	0,39
1035,163	0,39
1035,58	0,39
1035,997	0,39
1036,415	0,39
1036,832	0,39
1037,249	0,39
1037,666	0,39
1038,083	0,39
1038,501	0,39
1038,918	0,39
1039,335	0,39
1039,752	0,39
1040,169	0,39
1040,586	0,39
1041,003	0,39
1041,419	0,39
1041,836	0,39
1042,253	0,39
1042,67	0,39
1043,087	0,39
1043,504	0,39
1043,92	0,39
1044,337	0,39
1044,754	0,39
1045,17	0,39
1045,587	0,39
1046,004	0,39
1046,42	0,39
1046,837	0,39
1047,253	0,39
1047,67	0,39
1048,086	0,39
1048,503	0,39
1048,919	0,39
1049,335	0,39
1049,752	0,39
1050,168	0,39
1050,584	0,39
1051,001	0,39
1051,417	0,39
1051,833	0,39
1052,249	0,39
1052,665	0,39
1053,081	0,39
1053,497	0,4
1053,914	0,4
1054,33	0,4
1054,746	0,4
1055,162	0,4
1055,578	0,4
1055,993	0,4
1056,409	0,4
1056,825	0,4
1057,241	0,4
1057,657	0,4
1058,073	0,4
1058,488	0,4
1058,904	0,4
1059,32	0,4
1059,736	0,4
1060,151	0,4
1060,567	0,4
1060,982	0,4
1061,398	0,4
1061,813	0,4
1062,229	0,4
1062,644	0,4
1063,06	0,4
1063,475	0,39
1063,891	0,39
1064,306	0,39
1064,721	0,39
1065,137	0,39
1065,552	0,39
1065,967	0,39
1066,382	0,39
1066,798	0,39
1067,213	0,39
1067,628	0,39
1068,043	0,39
1068,458	0,39
1068,873	0,39
1069,288	0,39
1069,703	0,39
1070,118	0,39
1070,533	0,39
1070,948	0,39
1071,363	0,39
1071,778	0,39
1072,193	0,39
1072,607	0,39
1073,022	0,39
1073,437	0,39
1073,852	0,39
1074,266	0,39
1074,681	0,39
1075,096	0,39
1075,51	0,39
1075,925	0,39
1076,339	0,39
1076,754	0,39
1077,168	0,39
1077,583	0,39
1077,997	0,39
1078,412	0,39
1078,826	0,39
1079,24	0,39
1079,655	0,39
1080,069	0,39
1080,483	0,39
1080,897	0,39
1081,312	0,39
1081,726	0,39
1082,14	0,39
1082,554	0,39
1082,968	0,39
1083,382	0,38
1083,796	0,38
1084,21	0,38
1084,624	0,38
1085,038	0,38
1085,452	0,38
1085,866	0,38
1086,28	0,38
1086,694	0,38
1087,108	0,37
1087,521	0,37
1087,935	0,37
1088,349	0,37
1088,763	0,36
1089,176	0,36
1089,59	0,36
1090,004	0,36
1090,417	0,35
1090,831	0,35
1091,244	0,35
1091,658	0,34
1092,071	0,34
1092,485	0,34
1092,898	0,34
1093,312	0,34
1093,725	0,33
1094,138	0,33
1094,552	0,33
1094,965	0,33
1095,378	0,33
1095,791	0,32
1096,205	0,32
1096,618	0,32
1097,031	0,32
1097,444	0,32
1097,857	0,31
1098,27	0,31
1098,683	0,31
1099,096	0,3
1099,509	0,3
1099,922	0,3
1100,335	0,29
1100,748	0,29
1101,161	0,28
1101,574	0,28
1101,986	0,28
1102,399	0,27
1102,812	0,27
1103,225	0,26
1103,637	0,26
1104,05	0,25
1104,463	0,25
1104,875	0,25
1105,288	0,24
1105,7	0,24
1106,113	0,23
1106,525	0,23
1106,938	0,22
1107,35	0,22
1107,763	0,22
1108,175	0,22
1108,588	0,21
1109	0,2
1109,412	0,19
1109,824	0,19
1110,237	0,2
1110,649	0,2
1111,061	0,18
