Data from 18C-808nm-8A-cont_Absorbance__77__01506.txt Node

Date: Mon Jul 17 17:19:48 CEST 2023
User: Laser008
Spectrometer: MAYP115816
Trigger mode: 0
Integration Time (sec): 2,500000E-1
Scans to average: 10
Electric dark correction enabled: true
Nonlinearity correction enabled: true
Boxcar width: 5
XAxis mode: Wavelengths
Number of Pixels in Spectrum: 2068
>>>>>Begin Spectral Data<<<<<
198,914	-0,65
199,384	-0,44
199,855	-0,34
200,325	-0,26
200,796	-0,22
201,266	-0,18
201,737	-0,17
202,207	-0,16
202,677	-0,15
203,147	-0,14
203,618	-0,1
204,088	-0,09
204,558	-0,08
205,028	-0,07
205,498	-0,09
205,968	-0,09
206,439	-0,1
206,909	-0,09
207,379	-0,09
207,849	-0,09
208,319	-0,1
208,789	-0,11
209,258	-0,1
209,728	-0,11
210,198	-0,11
210,668	-0,1
211,138	-0,1
211,608	-0,1
212,077	-0,11
212,547	-0,11
213,017	-0,11
213,486	-0,11
213,956	-0,13
214,426	-0,14
214,895	-0,13
215,365	-0,14
215,834	-0,15
216,304	-0,15
216,773	-0,15
217,243	-0,17
217,712	-0,17
218,181	-0,17
218,651	-0,16
219,12	-0,15
219,589	-0,16
220,058	-0,15
220,528	-0,15
220,997	-0,16
221,466	-0,17
221,935	-0,18
222,404	-0,17
222,873	-0,16
223,342	-0,16
223,812	-0,17
224,281	-0,17
224,749	-0,18
225,218	-0,2
225,687	-0,19
226,156	-0,18
226,625	-0,16
227,094	-0,16
227,563	-0,16
228,031	-0,18
228,5	-0,19
228,969	-0,19
229,438	-0,18
229,906	-0,17
230,375	-0,16
230,844	-0,16
231,312	-0,16
231,781	-0,17
232,249	-0,15
232,718	-0,16
233,186	-0,13
233,655	-0,14
234,123	-0,13
234,591	-0,14
235,06	-0,13
235,528	-0,14
235,996	-0,14
236,465	-0,14
236,933	-0,13
237,401	-0,14
237,869	-0,13
238,337	-0,13
238,805	-0,12
239,274	-0,12
239,742	-0,12
240,21	-0,11
240,678	-0,1
241,146	-0,1
241,614	-0,09
242,081	-0,1
242,549	-0,1
243,017	-0,1
243,485	-0,1
243,953	-0,1
244,421	-0,1
244,888	-0,09
245,356	-0,1
245,824	-0,09
246,291	-0,09
246,759	-0,1
247,227	-0,1
247,694	-0,09
248,162	-0,09
248,629	-0,08
249,097	-0,09
249,564	-0,1
250,032	-0,11
250,499	-0,11
250,967	-0,12
251,434	-0,13
251,901	-0,13
252,369	-0,13
252,836	-0,14
253,303	-0,15
253,77	-0,17
254,237	-0,16
254,705	-0,16
255,172	-0,15
255,639	-0,15
256,106	-0,17
256,573	-0,17
257,04	-0,17
257,507	-0,17
257,974	-0,18
258,441	-0,16
258,908	-0,17
259,375	-0,18
259,841	-0,18
260,308	-0,19
260,775	-0,18
261,242	-0,16
261,709	-0,17
262,175	-0,17
262,642	-0,17
263,109	-0,15
263,575	-0,16
264,042	-0,14
264,508	-0,14
264,975	-0,16
265,441	-0,17
265,908	-0,18
266,374	-0,18
266,841	-0,18
267,307	-0,18
267,773	-0,18
268,24	-0,19
268,706	-0,19
269,172	-0,2
269,639	-0,2
270,105	-0,18
270,571	-0,18
271,037	-0,18
271,503	-0,2
271,969	-0,19
272,435	-0,19
272,902	-0,21
273,368	-0,21
273,834	-0,21
274,3	-0,22
274,765	-0,22
275,231	-0,23
275,697	-0,22
276,163	-0,21
276,629	-0,21
277,095	-0,22
277,56	-0,22
278,026	-0,22
278,492	-0,2
278,958	-0,19
279,423	-0,19
279,889	-0,18
280,354	-0,18
280,82	-0,19
281,286	-0,21
281,751	-0,21
282,217	-0,2
282,682	-0,2
283,147	-0,2
283,613	-0,21
284,078	-0,21
284,544	-0,22
285,009	-0,23
285,474	-0,22
285,939	-0,23
286,405	-0,22
286,87	-0,21
287,335	-0,21
287,8	-0,21
288,265	-0,19
288,73	-0,2
289,195	-0,23
289,66	-0,23
290,125	-0,21
290,59	-0,21
291,055	-0,2
291,52	-0,2
291,985	-0,22
292,45	-0,23
292,915	-0,23
293,38	-0,24
293,844	-0,22
294,309	-0,21
294,774	-0,2
295,239	-0,21
295,703	-0,22
296,168	-0,21
296,632	-0,2
297,097	-0,18
297,562	-0,16
298,026	-0,17
298,491	-0,16
298,955	-0,16
299,419	-0,15
299,884	-0,15
300,348	-0,14
300,813	-0,12
301,277	-0,13
301,741	-0,14
302,205	-0,14
302,67	-0,14
303,134	-0,13
303,598	-0,13
304,062	-0,13
304,526	-0,13
304,99	-0,14
305,454	-0,14
305,919	-0,15
306,383	-0,15
306,847	-0,14
307,31	-0,14
307,774	-0,15
308,238	-0,15
308,702	-0,14
309,166	-0,15
309,63	-0,15
310,094	-0,12
310,557	-0,11
311,021	-0,11
311,485	-0,1
311,948	-0,1
312,412	-0,09
312,876	-0,09
313,339	-0,09
313,803	-0,1
314,266	-0,09
314,73	-0,09
315,193	-0,1
315,657	-0,09
316,12	-0,09
316,584	-0,09
317,047	-0,08
317,51	-0,08
317,973	-0,07
318,437	-0,06
318,9	-0,06
319,363	-0,05
319,826	-0,05
320,29	-0,05
320,753	-0,05
321,216	-0,05
321,679	-0,05
322,142	-0,05
322,605	-0,06
323,068	-0,06
323,531	-0,06
323,994	-0,06
324,457	-0,06
324,92	-0,05
325,382	-0,06
325,845	-0,05
326,308	-0,04
326,771	-0,04
327,233	-0,04
327,696	-0,03
328,159	-0,02
328,622	-0,01
329,084	-0,01
329,547	0
330,009	0,01
330,472	0,02
330,934	0,03
331,397	0,03
331,859	0,04
332,322	0,04
332,784	0,05
333,246	0,05
333,709	0,05
334,171	0,06
334,633	0,06
335,096	0,06
335,558	0,06
336,02	0,05
336,482	0,05
336,944	0,06
337,406	0,06
337,868	0,07
338,331	0,07
338,793	0,07
339,255	0,08
339,717	0,09
340,178	0,1
340,64	0,11
341,102	0,12
341,564	0,13
342,026	0,14
342,488	0,14
342,949	0,15
343,411	0,17
343,873	0,2
344,335	0,22
344,796	0,25
345,258	0,28
345,719	0,32
346,181	0,35
346,643	0,38
347,104	0,4
347,566	0,43
348,027	0,45
348,488	0,47
348,95	0,48
349,411	0,5
349,873	0,51
350,334	0,53
350,795	0,54
351,256	0,55
351,718	0,55
352,179	0,56
352,64	0,56
353,101	0,56
353,562	0,56
354,023	0,56
354,484	0,57
354,945	0,57
355,406	0,57
355,867	0,57
356,328	0,57
356,789	0,57
357,25	0,57
357,711	0,57
358,172	0,58
358,633	0,58
359,093	0,58
359,554	0,58
360,015	0,58
360,476	0,58
360,936	0,58
361,397	0,58
361,858	0,58
362,318	0,58
362,779	0,58
363,239	0,58
363,7	0,58
364,16	0,58
364,621	0,59
365,081	0,59
365,541	0,59
366,002	0,58
366,462	0,58
366,922	0,58
367,383	0,58
367,843	0,58
368,303	0,58
368,763	0,58
369,223	0,58
369,684	0,58
370,144	0,58
370,604	0,58
371,064	0,58
371,524	0,58
371,984	0,58
372,444	0,58
372,904	0,58
373,363	0,58
373,823	0,58
374,283	0,58
374,743	0,58
375,203	0,58
375,663	0,58
376,122	0,58
376,582	0,58
377,042	0,58
377,501	0,58
377,961	0,58
378,42	0,58
378,88	0,58
379,34	0,58
379,799	0,58
380,259	0,58
380,718	0,58
381,177	0,58
381,637	0,58
382,096	0,58
382,555	0,57
383,015	0,57
383,474	0,57
383,933	0,57
384,393	0,57
384,852	0,57
385,311	0,57
385,77	0,57
386,229	0,57
386,688	0,57
387,147	0,57
387,606	0,57
388,065	0,57
388,524	0,57
388,983	0,57
389,442	0,57
389,901	0,57
390,36	0,57
390,819	0,57
391,277	0,57
391,736	0,57
392,195	0,57
392,654	0,57
393,112	0,57
393,571	0,57
394,03	0,57
394,488	0,57
394,947	0,57
395,405	0,57
395,864	0,57
396,322	0,57
396,781	0,57
397,239	0,57
397,698	0,56
398,156	0,56
398,614	0,56
399,073	0,56
399,531	0,56
399,989	0,56
400,447	0,56
400,905	0,56
401,364	0,56
401,822	0,56
402,28	0,56
402,738	0,56
403,196	0,56
403,654	0,56
404,112	0,56
404,57	0,56
405,028	0,56
405,486	0,56
405,944	0,56
406,402	0,56
406,859	0,56
407,317	0,56
407,775	0,56
408,233	0,56
408,691	0,56
409,148	0,56
409,606	0,56
410,064	0,56
410,521	0,56
410,979	0,56
411,436	0,56
411,894	0,56
412,351	0,56
412,809	0,56
413,266	0,56
413,724	0,56
414,181	0,56
414,638	0,56
415,096	0,55
415,553	0,56
416,01	0,55
416,467	0,55
416,925	0,55
417,382	0,55
417,839	0,55
418,296	0,55
418,753	0,55
419,21	0,55
419,667	0,55
420,124	0,55
420,581	0,55
421,038	0,55
421,495	0,55
421,952	0,55
422,409	0,55
422,866	0,55
423,322	0,55
423,779	0,55
424,236	0,55
424,693	0,55
425,149	0,55
425,606	0,55
426,063	0,55
426,519	0,55
426,976	0,55
427,433	0,55
427,889	0,55
428,346	0,55
428,802	0,55
429,258	0,55
429,715	0,55
430,171	0,55
430,628	0,55
431,084	0,55
431,54	0,55
431,997	0,55
432,453	0,55
432,909	0,55
433,365	0,55
433,821	0,55
434,277	0,55
434,734	0,55
435,19	0,55
435,646	0,55
436,102	0,55
436,558	0,55
437,014	0,55
437,47	0,55
437,925	0,55
438,381	0,55
438,837	0,55
439,293	0,55
439,749	0,55
440,205	0,55
440,66	0,55
441,116	0,55
441,572	0,55
442,027	0,55
442,483	0,55
442,939	0,55
443,394	0,55
443,85	0,55
444,305	0,55
444,761	0,55
445,216	0,55
445,672	0,55
446,127	0,55
446,582	0,55
447,038	0,55
447,493	0,55
447,948	0,55
448,403	0,55
448,859	0,55
449,314	0,55
449,769	0,55
450,224	0,55
450,679	0,55
451,134	0,55
451,589	0,55
452,044	0,55
452,499	0,55
452,954	0,55
453,409	0,55
453,864	0,55
454,319	0,55
454,774	0,55
455,229	0,55
455,684	0,55
456,138	0,55
456,593	0,55
457,048	0,55
457,503	0,55
457,957	0,55
458,412	0,55
458,866	0,55
459,321	0,55
459,776	0,55
460,23	0,56
460,685	0,56
461,139	0,56
461,593	0,56
462,048	0,56
462,502	0,56
462,957	0,56
463,411	0,56
463,865	0,56
464,319	0,56
464,774	0,56
465,228	0,56
465,682	0,56
466,136	0,56
466,59	0,56
467,044	0,56
467,499	0,57
467,953	0,57
468,407	0,57
468,861	0,57
469,315	0,57
469,768	0,57
470,222	0,57
470,676	0,57
471,13	0,57
471,584	0,57
472,038	0,57
472,491	0,57
472,945	0,57
473,399	0,57
473,852	0,57
474,306	0,57
474,76	0,58
475,213	0,58
475,667	0,58
476,12	0,58
476,574	0,58
477,027	0,58
477,481	0,58
477,934	0,58
478,388	0,58
478,841	0,58
479,294	0,59
479,748	0,59
480,201	0,59
480,654	0,59
481,107	0,59
481,561	0,59
482,014	0,59
482,467	0,6
482,92	0,6
483,373	0,6
483,826	0,6
484,279	0,6
484,732	0,6
485,185	0,6
485,638	0,61
486,091	0,61
486,544	0,61
486,997	0,61
487,449	0,61
487,902	0,61
488,355	0,62
488,808	0,62
489,26	0,62
489,713	0,62
490,166	0,62
490,618	0,63
491,071	0,63
491,523	0,63
491,976	0,63
492,429	0,63
492,881	0,64
493,333	0,64
493,786	0,64
494,238	0,64
494,691	0,65
495,143	0,65
495,595	0,65
496,048	0,66
496,5	0,66
496,952	0,66
497,404	0,66
497,856	0,67
498,309	0,67
498,761	0,67
499,213	0,67
499,665	0,68
500,117	0,68
500,569	0,68
501,021	0,69
501,473	0,69
501,925	0,69
502,377	0,7
502,828	0,7
503,28	0,7
503,732	0,71
504,184	0,71
504,636	0,71
505,087	0,72
505,539	0,72
505,991	0,72
506,442	0,72
506,894	0,73
507,345	0,73
507,797	0,73
508,249	0,74
508,7	0,74
509,151	0,74
509,603	0,75
510,054	0,75
510,506	0,75
510,957	0,76
511,408	0,76
511,86	0,76
512,311	0,77
512,762	0,77
513,213	0,77
513,665	0,77
514,116	0,78
514,567	0,78
515,018	0,78
515,469	0,78
515,92	0,79
516,371	0,79
516,822	0,79
517,273	0,8
517,724	0,8
518,175	0,8
518,626	0,8
519,076	0,8
519,527	0,81
519,978	0,81
520,429	0,81
520,88	0,81
521,33	0,81
521,781	0,81
522,232	0,82
522,682	0,82
523,133	0,82
523,583	0,82
524,034	0,82
524,484	0,82
524,935	0,82
525,385	0,82
525,836	0,82
526,286	0,82
526,736	0,82
527,187	0,82
527,637	0,82
528,087	0,82
528,538	0,82
528,988	0,82
529,438	0,82
529,888	0,82
530,338	0,82
530,788	0,82
531,238	0,82
531,688	0,82
532,139	0,82
532,589	0,82
533,038	0,81
533,488	0,81
533,938	0,81
534,388	0,81
534,838	0,81
535,288	0,8
535,738	0,8
536,187	0,8
536,637	0,8
537,087	0,79
537,537	0,79
537,986	0,79
538,436	0,79
538,885	0,78
539,335	0,78
539,785	0,77
540,234	0,77
540,684	0,77
541,133	0,77
541,582	0,76
542,032	0,76
542,481	0,75
542,931	0,75
543,38	0,75
543,829	0,74
544,278	0,74
544,728	0,74
545,177	0,73
545,626	0,73
546,075	0,73
546,524	0,72
546,973	0,72
547,422	0,72
547,871	0,71
548,32	0,71
548,769	0,71
549,218	0,71
549,667	0,71
550,116	0,7
550,565	0,7
551,014	0,7
551,463	0,69
551,911	0,69
552,36	0,69
552,809	0,68
553,258	0,68
553,706	0,68
554,155	0,67
554,603	0,67
555,052	0,67
555,501	0,66
555,949	0,66
556,398	0,66
556,846	0,65
557,294	0,65
557,743	0,65
558,191	0,64
558,64	0,64
559,088	0,64
559,536	0,63
559,985	0,63
560,433	0,62
560,881	0,62
561,329	0,62
561,777	0,62
562,225	0,61
562,674	0,61
563,122	0,61
563,57	0,6
564,018	0,6
564,466	0,6
564,914	0,59
565,362	0,59
565,809	0,59
566,257	0,59
566,705	0,58
567,153	0,58
567,601	0,58
568,048	0,57
568,496	0,57
568,944	0,57
569,392	0,57
569,839	0,56
570,287	0,56
570,734	0,56
571,182	0,55
571,63	0,55
572,077	0,55
572,525	0,55
572,972	0,54
573,419	0,54
573,867	0,54
574,314	0,53
574,761	0,53
575,209	0,53
575,656	0,53
576,103	0,53
576,551	0,52
576,998	0,52
577,445	0,52
577,892	0,52
578,339	0,52
578,786	0,51
579,233	0,51
579,68	0,51
580,127	0,51
580,574	0,5
581,021	0,5
581,468	0,5
581,915	0,5
582,362	0,5
582,809	0,49
583,255	0,49
583,702	0,49
584,149	0,49
584,596	0,49
585,042	0,49
585,489	0,48
585,936	0,48
586,382	0,48
586,829	0,48
587,275	0,48
587,722	0,48
588,168	0,48
588,615	0,47
589,061	0,47
589,508	0,47
589,954	0,47
590,4	0,47
590,847	0,47
591,293	0,46
591,739	0,46
592,185	0,46
592,632	0,46
593,078	0,46
593,524	0,46
593,97	0,46
594,416	0,46
594,862	0,46
595,308	0,46
595,754	0,45
596,2	0,45
596,646	0,45
597,092	0,45
597,538	0,45
597,984	0,45
598,43	0,45
598,876	0,45
599,321	0,45
599,767	0,44
600,213	0,44
600,659	0,44
601,104	0,44
601,55	0,44
601,995	0,44
602,441	0,44
602,887	0,44
603,332	0,44
603,778	0,43
604,223	0,43
604,668	0,43
605,114	0,43
605,559	0,43
606,005	0,43
606,45	0,43
606,895	0,43
607,341	0,43
607,786	0,43
608,231	0,43
608,676	0,42
609,121	0,42
609,566	0,41
610,012	0,41
610,457	0,41
610,902	0,41
611,347	0,4
611,792	0,4
612,237	0,4
612,682	0,4
613,127	0,4
613,571	0,4
614,016	0,4
614,461	0,4
614,906	0,41
615,351	0,41
615,795	0,41
616,24	0,41
616,685	0,41
617,129	0,41
617,574	0,41
618,019	0,41
618,463	0,41
618,908	0,41
619,352	0,41
619,797	0,41
620,241	0,41
620,686	0,41
621,13	0,4
621,574	0,4
622,019	0,4
622,463	0,4
622,907	0,4
623,352	0,4
623,796	0,4
624,24	0,4
624,684	0,4
625,128	0,4
625,572	0,4
626,016	0,4
626,461	0,4
626,905	0,4
627,349	0,4
627,793	0,4
628,236	0,4
628,68	0,4
629,124	0,4
629,568	0,4
630,012	0,4
630,456	0,4
630,9	0,39
631,343	0,39
631,787	0,39
632,231	0,39
632,674	0,39
633,118	0,39
633,562	0,39
634,005	0,39
634,449	0,39
634,892	0,39
635,336	0,39
635,779	0,39
636,223	0,39
636,666	0,39
637,109	0,39
637,553	0,39
637,996	0,39
638,439	0,39
638,883	0,39
639,326	0,39
639,769	0,39
640,212	0,39
640,655	0,39
641,099	0,39
641,542	0,38
641,985	0,38
642,428	0,38
642,871	0,38
643,314	0,38
643,757	0,38
644,2	0,38
644,643	0,38
645,085	0,38
645,528	0,38
645,971	0,38
646,414	0,38
646,857	0,38
647,299	0,38
647,742	0,38
648,185	0,38
648,627	0,38
649,07	0,38
649,513	0,38
649,955	0,38
650,398	0,38
650,84	0,38
651,283	0,38
651,725	0,38
652,168	0,38
652,61	0,38
653,052	0,38
653,495	0,38
653,937	0,3
654,379	0,24
654,821	0,24
655,264	0,25
655,706	0,25
656,148	0,25
656,59	0,25
657,032	0,25
657,474	0,25
657,916	0,25
658,358	0,24
658,8	0,3
659,242	0,37
659,684	0,38
660,126	0,38
660,568	0,38
661,01	0,37
661,452	0,37
661,894	0,37
662,335	0,37
662,777	0,37
663,219	0,37
663,661	0,37
664,102	0,37
664,544	0,37
664,985	0,37
665,427	0,37
665,869	0,37
666,31	0,37
666,752	0,37
667,193	0,37
667,634	0,37
668,076	0,37
668,517	0,37
668,959	0,37
669,4	0,37
669,841	0,37
670,282	0,37
670,724	0,37
671,165	0,37
671,606	0,37
672,047	0,37
672,488	0,37
672,929	0,37
673,37	0,37
673,811	0,37
674,252	0,37
674,693	0,37
675,134	0,37
675,575	0,36
676,016	0,36
676,457	0,36
676,898	0,36
677,339	0,36
677,78	0,36
678,22	0,36
678,661	0,36
679,102	0,36
679,542	0,36
679,983	0,36
680,424	0,36
680,864	0,36
681,305	0,36
681,745	0,36
682,186	0,36
682,626	0,36
683,067	0,36
683,507	0,36
683,948	0,36
684,388	0,36
684,828	0,36
685,269	0,36
685,709	0,36
686,149	0,36
686,589	0,36
687,029	0,36
687,47	0,36
687,91	0,36
688,35	0,36
688,79	0,36
689,23	0,36
689,67	0,36
690,11	0,36
690,55	0,36
690,99	0,36
691,43	0,36
691,87	0,35
692,31	0,35
692,749	0,35
693,189	0,35
693,629	0,35
694,069	0,35
694,508	0,35
694,948	0,35
695,388	0,35
695,827	0,35
696,267	0,35
696,706	0,35
697,146	0,35
697,586	0,35
698,025	0,35
698,464	0,36
698,904	0,36
699,343	0,36
699,783	0,36
700,222	0,36
700,661	0,36
701,101	0,36
701,54	0,36
701,979	0,36
702,418	0,36
702,857	0,36
703,297	0,36
703,736	0,36
704,175	0,36
704,614	0,36
705,053	0,36
705,492	0,35
705,931	0,35
706,37	0,35
706,809	0,35
707,248	0,35
707,687	0,35
708,125	0,35
708,564	0,35
709,003	0,35
709,442	0,35
709,88	0,35
710,319	0,35
710,758	0,35
711,196	0,35
711,635	0,35
712,074	0,35
712,512	0,35
712,951	0,35
713,389	0,34
713,828	0,34
714,266	0,34
714,705	0,34
715,143	0,34
715,581	0,34
716,02	0,34
716,458	0,34
716,896	0,34
717,334	0,34
717,773	0,34
718,211	0,34
718,649	0,34
719,087	0,34
719,525	0,34
719,963	0,34
720,401	0,34
720,839	0,34
721,277	0,34
721,715	0,34
722,153	0,34
722,591	0,34
723,029	0,34
723,467	0,34
723,905	0,34
724,342	0,34
724,78	0,34
725,218	0,34
725,656	0,34
726,093	0,34
726,531	0,34
726,969	0,34
727,406	0,34
727,844	0,34
728,281	0,34
728,719	0,34
729,156	0,34
729,594	0,34
730,031	0,34
730,469	0,34
730,906	0,34
731,343	0,34
731,781	0,34
732,218	0,34
732,655	0,34
733,092	0,34
733,53	0,34
733,967	0,34
734,404	0,34
734,841	0,34
735,278	0,34
735,715	0,33
736,152	0,33
736,589	0,33
737,026	0,33
737,463	0,33
737,9	0,33
738,337	0,33
738,774	0,33
739,211	0,33
739,647	0,33
740,084	0,33
740,521	0,33
740,958	0,33
741,394	0,33
741,831	0,33
742,268	0,33
742,704	0,33
743,141	0,33
743,577	0,32
744,014	0,32
744,45	0,32
744,887	0,32
745,323	0,32
745,76	0,32
746,196	0,32
746,632	0,32
747,069	0,32
747,505	0,32
747,941	0,32
748,378	0,32
748,814	0,32
749,25	0,32
749,686	0,32
750,122	0,32
750,558	0,32
750,994	0,33
751,43	0,33
751,866	0,33
752,302	0,33
752,738	0,33
753,174	0,33
753,61	0,33
754,046	0,33
754,482	0,33
754,918	0,33
755,354	0,33
755,789	0,33
756,225	0,33
756,661	0,33
757,096	0,33
757,532	0,33
757,968	0,33
758,403	0,32
758,839	0,32
759,274	0,32
759,71	0,32
760,145	0,31
760,581	0,31
761,016	0,31
761,452	0,3
761,887	0,3
762,322	0,29
762,758	0,29
763,193	0,29
763,628	0,28
764,063	0,28
764,499	0,27
764,934	0,27
765,369	0,26
765,804	0,25
766,239	0,25
766,674	0,25
767,109	0,24
767,544	0,24
767,979	0,23
768,414	0,22
768,849	0,21
769,284	0,2
769,719	0,19
770,154	0,19
770,588	0,18
771,023	0,17
771,458	0,16
771,893	0,15
772,327	0,14
772,762	0,13
773,197	0,13
773,631	0,12
774,066	0,12
774,5	0,11
774,935	0,11
775,369	0,09
775,804	0,09
776,238	0,08
776,673	0,07
777,107	0,06
777,541	0,05
777,976	0,04
778,41	0,04
778,844	0,03
779,279	0,02
779,713	0,01
780,147	-0
780,581	-0,01
781,015	-0,02
781,449	-0,03
781,883	-0,03
782,317	-0,05
782,751	-0,06
783,185	-0,06
783,619	-0,07
784,053	-0,08
784,487	-0,08
784,921	-0,08
785,355	-0,09
785,789	-0,1
786,223	-0,1
786,656	-0,11
787,09	-0,13
787,524	-0,14
787,957	-0,15
788,391	-0,17
788,825	-0,18
789,258	-0,19
789,692	-0,21
790,125	-0,22
790,559	-0,24
790,992	-0,26
791,426	-0,28
791,859	-0,29
792,293	-0,32
792,726	-0,33
793,159	-0,35
793,593	-0,37
794,026	-0,4
794,459	-0,43
794,892	-0,46
795,326	-0,48
795,759	-0,52
796,192	-0,57
796,625	-0,61
797,058	-0,63
797,491	-0,68
797,924	-0,71
798,357	-0,76
798,79	-0,8
799,223	-0,84
799,656	-0,9
800,089	-0,95
800,522	-0,99
800,955	-1,03
801,387	-1,09
801,82	-1,14
802,253	-1,2
802,686	-1,28
803,118	-1,34
803,551	-1,39
803,984	-1,43
804,416	-1,47
804,849	-1,51
805,281	-1,62
805,714	-1,95
806,146	-2,41
806,579	-2,69
807,011	-2,85
807,444	-2,95
807,876	-3,04
808,308	-3,08
808,741	-3,11
809,173	-3,16
809,605	-3,18
810,037	-3,26
810,47	-3,18
810,902	-2,99
811,334	-2,84
811,766	-2,69
812,198	-2,45
812,63	-2,02
813,062	-1,8
813,494	-1,7
813,926	-1,61
814,358	-1,56
814,79	-1,47
815,222	-1,41
815,654	-1,36
816,086	-1,3
816,518	-1,25
816,949	-1,19
817,381	-1,15
817,813	-1,13
818,245	-1,09
818,676	-1,05
819,108	-1,02
819,54	-1
819,971	-0,98
820,403	-0,93
820,834	-0,91
821,266	-0,87
821,697	-0,84
822,129	-0,83
822,56	-0,8
822,991	-0,78
823,423	-0,75
823,854	-0,73
824,286	-0,7
824,717	-0,69
825,148	-0,67
825,579	-0,67
826,01	-0,66
826,442	-0,65
826,873	-0,63
827,304	-0,59
827,735	-0,59
828,166	-0,6
828,597	-0,6
829,028	-0,59
829,459	-0,6
829,89	-0,6
830,321	-0,56
830,752	-0,57
831,183	-0,56
831,613	-0,55
832,044	-0,55
832,475	-0,53
832,906	-0,53
833,336	-0,54
833,767	-0,55
834,198	-0,54
834,628	-0,52
835,059	-0,55
835,49	-0,56
835,92	-0,53
836,351	-0,54
836,781	-0,54
837,212	-0,56
837,642	-0,55
838,072	-0,53
838,503	-0,54
838,933	-0,51
839,364	-0,52
839,794	-0,49
840,224	-0,47
840,654	-0,51
841,085	-0,52
841,515	-0,49
841,945	-0,5
842,375	-0,46
842,805	-0,45
843,235	-0,44
843,665	-0,45
844,095	-0,43
844,525	-0,46
844,955	-0,46
845,385	-0,45
845,815	-0,43
846,245	-0,45
846,675	-0,46
847,105	-0,47
847,534	-0,47
847,964	-0,46
848,394	-0,44
848,824	-0,48
849,253	-0,47
849,683	-0,47
850,112	-0,48
850,542	-0,52
850,972	-0,52
851,401	-0,5
851,831	-0,49
852,26	-0,49
852,69	-0,53
853,119	-0,53
853,548	-0,53
853,978	-0,53
854,407	-0,52
854,836	-0,51
855,266	-0,5
855,695	-0,52
856,124	-0,53
856,553	-0,53
856,983	-0,55
857,412	-0,54
857,841	-0,54
858,27	-0,53
858,699	-0,54
859,128	-0,58
859,557	-0,58
859,986	-0,59
860,415	-0,58
860,844	-0,55
861,273	-0,56
861,702	-0,57
862,13	-0,55
862,559	-0,57
862,988	-0,55
863,417	-0,54
863,845	-0,53
864,274	-0,54
864,703	-0,53
865,131	-0,53
865,56	-0,54
865,989	-0,56
866,417	-0,54
866,846	-0,55
867,274	-0,54
867,703	-0,56
868,131	-0,57
868,559	-0,58
868,988	-0,59
869,416	-0,59
869,844	-0,6
870,273	-0,62
870,701	-0,59
871,129	-0,62
871,557	-0,65
871,986	-0,65
872,414	-0,67
872,842	-0,64
873,27	-0,62
873,698	-0,59
874,126	-0,62
874,554	-0,6
874,982	-0,6
875,41	-0,63
875,838	-0,58
876,266	-0,55
876,694	-0,55
877,122	-0,54
877,549	-0,59
877,977	-0,56
878,405	-0,6
878,833	-0,58
879,26	-0,57
879,688	-0,58
880,116	-0,56
880,543	-0,54
880,971	-0,54
881,399	-0,57
881,826	-0,58
882,254	-0,56
882,681	-0,6
883,109	-0,56
883,536	-0,56
883,963	-0,58
884,391	-0,56
884,818	-0,55
885,245	-0,58
885,673	-0,59
886,1	-0,56
886,527	-0,55
886,954	-0,52
887,381	-0,53
887,809	-0,54
888,236	-0,55
888,663	-0,56
889,09	-0,59
889,517	-0,61
889,944	-0,61
890,371	-0,61
890,798	-0,62
891,225	-0,62
891,652	-0,65
892,078	-0,63
892,505	-0,65
892,932	-0,61
893,359	-0,61
893,786	-0,62
894,212	-0,59
894,639	-0,61
895,066	-0,63
895,492	-0,57
895,919	-0,57
896,346	-0,56
896,772	-0,56
897,199	-0,53
897,625	-0,56
898,052	-0,53
898,478	-0,51
898,904	-0,52
899,331	-0,51
899,757	-0,52
900,183	-0,54
900,61	-0,52
901,036	-0,52
901,462	-0,53
901,888	-0,52
902,315	-0,5
902,741	-0,55
903,167	-0,54
903,593	-0,57
904,019	-0,56
904,445	-0,53
904,871	-0,57
905,297	-0,59
905,723	-0,58
906,149	-0,57
906,575	-0,59
907,001	-0,59
907,427	-0,56
907,852	-0,55
908,278	-0,55
908,704	-0,53
909,13	-0,52
909,555	-0,51
909,981	-0,5
910,407	-0,51
910,832	-0,5
911,258	-0,51
911,684	-0,51
912,109	-0,51
912,535	-0,53
912,96	-0,49
913,386	-0,53
913,811	-0,52
914,236	-0,54
914,662	-0,53
915,087	-0,56
915,512	-0,56
915,938	-0,57
916,363	-0,57
916,788	-0,59
917,213	-0,56
917,639	-0,61
918,064	-0,59
918,489	-0,59
918,914	-0,6
919,339	-0,61
919,764	-0,58
920,189	-0,58
920,614	-0,6
921,039	-0,6
921,464	-0,55
921,889	-0,58
922,314	-0,59
922,738	-0,61
923,163	-0,64
923,588	-0,63
924,013	-0,62
924,437	-0,62
924,862	-0,63
925,287	-0,58
925,711	-0,6
926,136	-0,62
926,561	-0,6
926,985	-0,6
927,41	-0,58
927,834	-0,55
928,259	-0,52
928,683	-0,51
929,108	-0,48
929,532	-0,5
929,956	-0,5
930,381	-0,49
930,805	-0,48
931,229	-0,48
931,653	-0,45
932,078	-0,44
932,502	-0,45
932,926	-0,47
933,35	-0,47
933,774	-0,46
934,198	-0,44
934,622	-0,43
935,046	-0,43
935,47	-0,44
935,894	-0,44
936,318	-0,43
936,742	-0,44
937,166	-0,44
937,59	-0,44
938,014	-0,46
938,437	-0,47
938,861	-0,48
939,285	-0,49
939,709	-0,48
940,132	-0,48
940,556	-0,49
940,98	-0,49
941,403	-0,47
941,827	-0,48
942,25	-0,49
942,674	-0,48
943,097	-0,48
943,521	-0,48
943,944	-0,49
944,368	-0,48
944,791	-0,46
945,214	-0,48
945,638	-0,49
946,061	-0,52
946,484	-0,52
946,907	-0,5
947,331	-0,51
947,754	-0,55
948,177	-0,52
948,6	-0,51
949,023	-0,52
949,446	-0,52
949,869	-0,5
950,292	-0,49
950,715	-0,46
951,138	-0,45
951,561	-0,43
951,984	-0,42
952,407	-0,4
952,83	-0,39
953,252	-0,35
953,675	-0,35
954,098	-0,35
954,521	-0,35
954,943	-0,34
955,366	-0,34
955,789	-0,32
956,211	-0,33
956,634	-0,35
957,056	-0,32
957,479	-0,33
957,902	-0,36
958,324	-0,36
958,746	-0,35
959,169	-0,35
959,591	-0,36
960,014	-0,37
960,436	-0,37
960,858	-0,36
961,281	-0,36
961,703	-0,37
962,125	-0,37
962,547	-0,35
962,969	-0,35
963,391	-0,36
963,814	-0,37
964,236	-0,36
964,658	-0,33
965,08	-0,34
965,502	-0,33
965,924	-0,31
966,346	-0,32
966,768	-0,31
967,189	-0,33
967,611	-0,33
968,033	-0,33
968,455	-0,32
968,877	-0,33
969,298	-0,34
969,72	-0,35
970,142	-0,34
970,563	-0,35
970,985	-0,33
971,407	-0,33
971,828	-0,31
972,25	-0,29
972,671	-0,28
973,093	-0,28
973,514	-0,26
973,936	-0,24
974,357	-0,23
974,778	-0,23
975,2	-0,22
975,621	-0,21
976,042	-0,19
976,464	-0,18
976,885	-0,18
977,306	-0,18
977,727	-0,16
978,148	-0,16
978,57	-0,15
978,991	-0,14
979,412	-0,13
979,833	-0,12
980,254	-0,12
980,675	-0,12
981,096	-0,11
981,517	-0,09
981,937	-0,08
982,358	-0,07
982,779	-0,05
983,2	-0,06
983,621	-0,05
984,042	-0,04
984,462	-0,03
984,883	-0,02
985,304	-0
985,724	0
986,145	0,01
986,565	0,03
986,986	0,03
987,407	0,04
987,827	0,06
988,248	0,08
988,668	0,08
989,088	0,09
989,509	0,1
989,929	0,11
990,35	0,13
990,77	0,14
991,19	0,15
991,61	0,16
992,031	0,16
992,451	0,17
992,871	0,17
993,291	0,18
993,711	0,19
994,131	0,2
994,551	0,2
994,971	0,21
995,391	0,21
995,811	0,22
996,231	0,22
996,651	0,22
997,071	0,23
997,491	0,24
997,911	0,24
998,331	0,25
998,75	0,25
999,17	0,26
999,59	0,26
1000,009	0,26
1000,429	0,27
1000,849	0,27
1001,268	0,28
1001,688	0,28
1002,107	0,28
1002,527	0,28
1002,946	0,29
1003,366	0,29
1003,785	0,29
1004,205	0,29
1004,624	0,3
1005,044	0,3
1005,463	0,3
1005,882	0,3
1006,301	0,3
1006,721	0,3
1007,14	0,3
1007,559	0,3
1007,978	0,3
1008,397	0,31
1008,816	0,3
1009,235	0,3
1009,655	0,3
1010,074	0,3
1010,492	0,3
1010,911	0,3
1011,33	0,3
1011,749	0,3
1012,168	0,3
1012,587	0,3
1013,006	0,3
1013,425	0,29
1013,843	0,29
1014,262	0,29
1014,681	0,29
1015,099	0,29
1015,518	0,29
1015,937	0,29
1016,355	0,29
1016,774	0,29
1017,192	0,29
1017,611	0,29
1018,029	0,29
1018,448	0,29
1018,866	0,29
1019,285	0,29
1019,703	0,29
1020,121	0,29
1020,54	0,29
1020,958	0,29
1021,376	0,29
1021,794	0,29
1022,213	0,29
1022,631	0,29
1023,049	0,29
1023,467	0,29
1023,885	0,29
1024,303	0,29
1024,721	0,29
1025,139	0,29
1025,557	0,29
1025,975	0,29
1026,393	0,29
1026,811	0,29
1027,229	0,29
1027,647	0,29
1028,065	0,29
1028,482	0,29
1028,9	0,28
1029,318	0,28
1029,735	0,28
1030,153	0,28
1030,571	0,28
1030,988	0,28
1031,406	0,28
1031,823	0,28
1032,241	0,28
1032,659	0,28
1033,076	0,28
1033,493	0,28
1033,911	0,28
1034,328	0,28
1034,746	0,29
1035,163	0,29
1035,58	0,29
1035,997	0,29
1036,415	0,29
1036,832	0,29
1037,249	0,28
1037,666	0,28
1038,083	0,28
1038,501	0,28
1038,918	0,28
1039,335	0,28
1039,752	0,28
1040,169	0,28
1040,586	0,28
1041,003	0,28
1041,419	0,28
1041,836	0,28
1042,253	0,28
1042,67	0,28
1043,087	0,28
1043,504	0,28
1043,92	0,28
1044,337	0,28
1044,754	0,28
1045,17	0,28
1045,587	0,28
1046,004	0,28
1046,42	0,28
1046,837	0,28
1047,253	0,28
1047,67	0,28
1048,086	0,28
1048,503	0,28
1048,919	0,28
1049,335	0,28
1049,752	0,28
1050,168	0,28
1050,584	0,28
1051,001	0,28
1051,417	0,28
1051,833	0,28
1052,249	0,28
1052,665	0,28
1053,081	0,28
1053,497	0,28
1053,914	0,28
1054,33	0,28
1054,746	0,28
1055,162	0,28
1055,578	0,29
1055,993	0,29
1056,409	0,29
1056,825	0,29
1057,241	0,29
1057,657	0,29
1058,073	0,29
1058,488	0,29
1058,904	0,29
1059,32	0,29
1059,736	0,29
1060,151	0,29
1060,567	0,29
1060,982	0,29
1061,398	0,29
1061,813	0,29
1062,229	0,29
1062,644	0,29
1063,06	0,29
1063,475	0,28
1063,891	0,28
1064,306	0,28
1064,721	0,28
1065,137	0,28
1065,552	0,28
1065,967	0,28
1066,382	0,28
1066,798	0,28
1067,213	0,28
1067,628	0,28
1068,043	0,28
1068,458	0,28
1068,873	0,29
1069,288	0,29
1069,703	0,29
1070,118	0,29
1070,533	0,29
1070,948	0,29
1071,363	0,29
1071,778	0,29
1072,193	0,29
1072,607	0,29
1073,022	0,29
1073,437	0,29
1073,852	0,29
1074,266	0,29
1074,681	0,29
1075,096	0,29
1075,51	0,29
1075,925	0,29
1076,339	0,29
1076,754	0,29
1077,168	0,29
1077,583	0,29
1077,997	0,28
1078,412	0,28
1078,826	0,28
1079,24	0,28
1079,655	0,28
1080,069	0,28
1080,483	0,28
1080,897	0,28
1081,312	0,28
1081,726	0,28
1082,14	0,28
1082,554	0,28
1082,968	0,28
1083,382	0,28
1083,796	0,28
1084,21	0,28
1084,624	0,27
1085,038	0,27
1085,452	0,27
1085,866	0,27
1086,28	0,27
1086,694	0,27
1087,108	0,27
1087,521	0,27
1087,935	0,26
1088,349	0,26
1088,763	0,26
1089,176	0,26
1089,59	0,26
1090,004	0,26
1090,417	0,25
1090,831	0,25
1091,244	0,25
1091,658	0,25
1092,071	0,25
1092,485	0,24
1092,898	0,24
1093,312	0,24
1093,725	0,24
1094,138	0,23
1094,552	0,23
1094,965	0,23
1095,378	0,23
1095,791	0,23
1096,205	0,23
1096,618	0,23
1097,031	0,22
1097,444	0,22
1097,857	0,22
1098,27	0,21
1098,683	0,21
1099,096	0,21
1099,509	0,21
1099,922	0,21
1100,335	0,2
1100,748	0,2
1101,161	0,2
1101,574	0,19
1101,986	0,19
1102,399	0,19
1102,812	0,18
1103,225	0,18
1103,637	0,18
1104,05	0,17
1104,463	0,17
1104,875	0,17
1105,288	0,17
1105,7	0,17
1106,113	0,16
1106,525	0,16
1106,938	0,16
1107,35	0,16
1107,763	0,16
1108,175	0,15
1108,588	0,15
1109	0,14
1109,412	0,14
1109,824	0,14
1110,237	0,14
1110,649	0,14
1111,061	0,13
