Data from 18C-808nm-8A-cont_Absorbance__74__01503.txt Node

Date: Mon Jul 17 17:19:40 CEST 2023
User: Laser008
Spectrometer: MAYP115816
Trigger mode: 0
Integration Time (sec): 2,500000E-1
Scans to average: 10
Electric dark correction enabled: true
Nonlinearity correction enabled: true
Boxcar width: 5
XAxis mode: Wavelengths
Number of Pixels in Spectrum: 2068
>>>>>Begin Spectral Data<<<<<
198,914	-0,66
199,384	-0,47
199,855	-0,35
200,325	-0,27
200,796	-0,23
201,266	-0,19
201,737	-0,17
202,207	-0,16
202,677	-0,15
203,147	-0,14
203,618	-0,11
204,088	-0,1
204,558	-0,09
205,028	-0,08
205,498	-0,09
205,968	-0,08
206,439	-0,1
206,909	-0,1
207,379	-0,1
207,849	-0,1
208,319	-0,1
208,789	-0,1
209,258	-0,09
209,728	-0,11
210,198	-0,11
210,668	-0,12
211,138	-0,11
211,608	-0,11
212,077	-0,11
212,547	-0,11
213,017	-0,11
213,486	-0,12
213,956	-0,13
214,426	-0,14
214,895	-0,13
215,365	-0,14
215,834	-0,14
216,304	-0,15
216,773	-0,16
217,243	-0,18
217,712	-0,18
218,181	-0,19
218,651	-0,19
219,12	-0,18
219,589	-0,18
220,058	-0,17
220,528	-0,18
220,997	-0,18
221,466	-0,18
221,935	-0,19
222,404	-0,18
222,873	-0,17
223,342	-0,18
223,812	-0,17
224,281	-0,17
224,749	-0,18
225,218	-0,2
225,687	-0,19
226,156	-0,19
226,625	-0,17
227,094	-0,17
227,563	-0,17
228,031	-0,18
228,5	-0,17
228,969	-0,19
229,438	-0,17
229,906	-0,16
230,375	-0,15
230,844	-0,15
231,312	-0,15
231,781	-0,16
232,249	-0,16
232,718	-0,15
233,186	-0,14
233,655	-0,14
234,123	-0,14
234,591	-0,15
235,06	-0,16
235,528	-0,16
235,996	-0,15
236,465	-0,15
236,933	-0,14
237,401	-0,14
237,869	-0,14
238,337	-0,14
238,805	-0,13
239,274	-0,12
239,742	-0,11
240,21	-0,11
240,678	-0,1
241,146	-0,1
241,614	-0,09
242,081	-0,09
242,549	-0,08
243,017	-0,08
243,485	-0,09
243,953	-0,09
244,421	-0,08
244,888	-0,09
245,356	-0,09
245,824	-0,09
246,291	-0,09
246,759	-0,11
247,227	-0,11
247,694	-0,11
248,162	-0,1
248,629	-0,09
249,097	-0,1
249,564	-0,1
250,032	-0,11
250,499	-0,11
250,967	-0,12
251,434	-0,12
251,901	-0,12
252,369	-0,12
252,836	-0,13
253,303	-0,14
253,77	-0,15
254,237	-0,15
254,705	-0,15
255,172	-0,15
255,639	-0,15
256,106	-0,16
256,573	-0,15
257,04	-0,16
257,507	-0,16
257,974	-0,16
258,441	-0,14
258,908	-0,14
259,375	-0,15
259,841	-0,16
260,308	-0,16
260,775	-0,16
261,242	-0,15
261,709	-0,15
262,175	-0,16
262,642	-0,16
263,109	-0,15
263,575	-0,17
264,042	-0,16
264,508	-0,16
264,975	-0,17
265,441	-0,18
265,908	-0,19
266,374	-0,18
266,841	-0,19
267,307	-0,18
267,773	-0,17
268,24	-0,18
268,706	-0,18
269,172	-0,19
269,639	-0,2
270,105	-0,18
270,571	-0,19
271,037	-0,19
271,503	-0,19
271,969	-0,19
272,435	-0,19
272,902	-0,2
273,368	-0,21
273,834	-0,21
274,3	-0,22
274,765	-0,21
275,231	-0,21
275,697	-0,2
276,163	-0,2
276,629	-0,19
277,095	-0,2
277,56	-0,2
278,026	-0,2
278,492	-0,18
278,958	-0,18
279,423	-0,18
279,889	-0,18
280,354	-0,19
280,82	-0,19
281,286	-0,2
281,751	-0,2
282,217	-0,2
282,682	-0,19
283,147	-0,19
283,613	-0,2
284,078	-0,2
284,544	-0,21
285,009	-0,22
285,474	-0,21
285,939	-0,22
286,405	-0,22
286,87	-0,21
287,335	-0,2
287,8	-0,2
288,265	-0,19
288,73	-0,21
289,195	-0,23
289,66	-0,22
290,125	-0,2
290,59	-0,21
291,055	-0,2
291,52	-0,2
291,985	-0,2
292,45	-0,22
292,915	-0,22
293,38	-0,23
293,844	-0,21
294,309	-0,19
294,774	-0,18
295,239	-0,2
295,703	-0,21
296,168	-0,21
296,632	-0,2
297,097	-0,18
297,562	-0,16
298,026	-0,16
298,491	-0,16
298,955	-0,16
299,419	-0,15
299,884	-0,15
300,348	-0,13
300,813	-0,12
301,277	-0,13
301,741	-0,13
302,205	-0,13
302,67	-0,12
303,134	-0,12
303,598	-0,12
304,062	-0,11
304,526	-0,12
304,99	-0,13
305,454	-0,13
305,919	-0,13
306,383	-0,13
306,847	-0,12
307,31	-0,13
307,774	-0,14
308,238	-0,14
308,702	-0,13
309,166	-0,15
309,63	-0,15
310,094	-0,12
310,557	-0,12
311,021	-0,11
311,485	-0,11
311,948	-0,11
312,412	-0,1
312,876	-0,09
313,339	-0,1
313,803	-0,1
314,266	-0,09
314,73	-0,1
315,193	-0,1
315,657	-0,09
316,12	-0,09
316,584	-0,08
317,047	-0,08
317,51	-0,07
317,973	-0,07
318,437	-0,06
318,9	-0,05
319,363	-0,04
319,826	-0,04
320,29	-0,04
320,753	-0,05
321,216	-0,05
321,679	-0,05
322,142	-0,04
322,605	-0,06
323,068	-0,05
323,531	-0,06
323,994	-0,05
324,457	-0,05
324,92	-0,04
325,382	-0,03
325,845	-0,03
326,308	-0,02
326,771	-0,01
327,233	-0,01
327,696	0
328,159	0
328,622	0,01
329,084	0,01
329,547	0,02
330,009	0,02
330,472	0,03
330,934	0,04
331,397	0,04
331,859	0,04
332,322	0,05
332,784	0,05
333,246	0,05
333,709	0,05
334,171	0,06
334,633	0,06
335,096	0,05
335,558	0,05
336,02	0,04
336,482	0,05
336,944	0,05
337,406	0,06
337,868	0,06
338,331	0,07
338,793	0,07
339,255	0,08
339,717	0,07
340,178	0,09
340,64	0,1
341,102	0,1
341,564	0,11
342,026	0,12
342,488	0,12
342,949	0,14
343,411	0,16
343,873	0,19
344,335	0,22
344,796	0,25
345,258	0,28
345,719	0,32
346,181	0,36
346,643	0,39
347,104	0,41
347,566	0,43
348,027	0,45
348,488	0,47
348,95	0,48
349,411	0,49
349,873	0,51
350,334	0,52
350,795	0,53
351,256	0,54
351,718	0,54
352,179	0,55
352,64	0,55
353,101	0,55
353,562	0,55
354,023	0,56
354,484	0,56
354,945	0,56
355,406	0,56
355,867	0,56
356,328	0,56
356,789	0,56
357,25	0,56
357,711	0,56
358,172	0,57
358,633	0,57
359,093	0,57
359,554	0,57
360,015	0,57
360,476	0,57
360,936	0,57
361,397	0,57
361,858	0,57
362,318	0,57
362,779	0,57
363,239	0,57
363,7	0,57
364,16	0,57
364,621	0,57
365,081	0,57
365,541	0,57
366,002	0,57
366,462	0,57
366,922	0,57
367,383	0,57
367,843	0,57
368,303	0,57
368,763	0,57
369,223	0,57
369,684	0,57
370,144	0,57
370,604	0,57
371,064	0,57
371,524	0,57
371,984	0,57
372,444	0,57
372,904	0,57
373,363	0,57
373,823	0,57
374,283	0,57
374,743	0,57
375,203	0,57
375,663	0,57
376,122	0,57
376,582	0,57
377,042	0,57
377,501	0,57
377,961	0,57
378,42	0,57
378,88	0,57
379,34	0,57
379,799	0,57
380,259	0,57
380,718	0,57
381,177	0,57
381,637	0,56
382,096	0,56
382,555	0,56
383,015	0,56
383,474	0,56
383,933	0,56
384,393	0,56
384,852	0,56
385,311	0,56
385,77	0,56
386,229	0,56
386,688	0,56
387,147	0,56
387,606	0,56
388,065	0,56
388,524	0,56
388,983	0,56
389,442	0,56
389,901	0,56
390,36	0,56
390,819	0,56
391,277	0,56
391,736	0,56
392,195	0,56
392,654	0,56
393,112	0,56
393,571	0,56
394,03	0,56
394,488	0,56
394,947	0,56
395,405	0,56
395,864	0,56
396,322	0,55
396,781	0,55
397,239	0,55
397,698	0,55
398,156	0,55
398,614	0,55
399,073	0,55
399,531	0,55
399,989	0,55
400,447	0,55
400,905	0,55
401,364	0,55
401,822	0,55
402,28	0,55
402,738	0,55
403,196	0,55
403,654	0,55
404,112	0,55
404,57	0,55
405,028	0,55
405,486	0,55
405,944	0,55
406,402	0,55
406,859	0,55
407,317	0,55
407,775	0,55
408,233	0,55
408,691	0,55
409,148	0,55
409,606	0,55
410,064	0,55
410,521	0,55
410,979	0,55
411,436	0,55
411,894	0,55
412,351	0,55
412,809	0,55
413,266	0,54
413,724	0,54
414,181	0,54
414,638	0,54
415,096	0,54
415,553	0,54
416,01	0,54
416,467	0,54
416,925	0,54
417,382	0,54
417,839	0,54
418,296	0,54
418,753	0,54
419,21	0,54
419,667	0,54
420,124	0,54
420,581	0,54
421,038	0,54
421,495	0,54
421,952	0,54
422,409	0,54
422,866	0,54
423,322	0,54
423,779	0,54
424,236	0,54
424,693	0,54
425,149	0,54
425,606	0,54
426,063	0,54
426,519	0,54
426,976	0,54
427,433	0,54
427,889	0,54
428,346	0,54
428,802	0,54
429,258	0,54
429,715	0,54
430,171	0,54
430,628	0,54
431,084	0,54
431,54	0,54
431,997	0,54
432,453	0,54
432,909	0,54
433,365	0,54
433,821	0,54
434,277	0,54
434,734	0,54
435,19	0,54
435,646	0,54
436,102	0,54
436,558	0,54
437,014	0,54
437,47	0,54
437,925	0,54
438,381	0,54
438,837	0,54
439,293	0,54
439,749	0,54
440,205	0,54
440,66	0,54
441,116	0,54
441,572	0,54
442,027	0,54
442,483	0,54
442,939	0,54
443,394	0,54
443,85	0,54
444,305	0,54
444,761	0,54
445,216	0,54
445,672	0,54
446,127	0,54
446,582	0,54
447,038	0,54
447,493	0,54
447,948	0,54
448,403	0,54
448,859	0,54
449,314	0,54
449,769	0,54
450,224	0,54
450,679	0,54
451,134	0,54
451,589	0,54
452,044	0,54
452,499	0,54
452,954	0,54
453,409	0,54
453,864	0,54
454,319	0,54
454,774	0,54
455,229	0,54
455,684	0,54
456,138	0,54
456,593	0,54
457,048	0,54
457,503	0,54
457,957	0,54
458,412	0,54
458,866	0,54
459,321	0,54
459,776	0,54
460,23	0,54
460,685	0,54
461,139	0,54
461,593	0,55
462,048	0,55
462,502	0,55
462,957	0,55
463,411	0,55
463,865	0,55
464,319	0,55
464,774	0,55
465,228	0,55
465,682	0,55
466,136	0,55
466,59	0,55
467,044	0,55
467,499	0,55
467,953	0,55
468,407	0,55
468,861	0,55
469,315	0,56
469,768	0,56
470,222	0,56
470,676	0,56
471,13	0,56
471,584	0,56
472,038	0,56
472,491	0,56
472,945	0,56
473,399	0,56
473,852	0,56
474,306	0,56
474,76	0,56
475,213	0,56
475,667	0,56
476,12	0,57
476,574	0,57
477,027	0,57
477,481	0,57
477,934	0,57
478,388	0,57
478,841	0,57
479,294	0,57
479,748	0,58
480,201	0,58
480,654	0,58
481,107	0,58
481,561	0,58
482,014	0,58
482,467	0,58
482,92	0,59
483,373	0,59
483,826	0,59
484,279	0,59
484,732	0,59
485,185	0,59
485,638	0,59
486,091	0,6
486,544	0,6
486,997	0,6
487,449	0,6
487,902	0,6
488,355	0,6
488,808	0,61
489,26	0,61
489,713	0,61
490,166	0,61
490,618	0,61
491,071	0,62
491,523	0,62
491,976	0,62
492,429	0,62
492,881	0,63
493,333	0,63
493,786	0,63
494,238	0,63
494,691	0,64
495,143	0,64
495,595	0,64
496,048	0,64
496,5	0,65
496,952	0,65
497,404	0,65
497,856	0,65
498,309	0,66
498,761	0,66
499,213	0,66
499,665	0,67
500,117	0,67
500,569	0,67
501,021	0,68
501,473	0,68
501,925	0,68
502,377	0,68
502,828	0,69
503,28	0,69
503,732	0,69
504,184	0,7
504,636	0,7
505,087	0,7
505,539	0,71
505,991	0,71
506,442	0,71
506,894	0,72
507,345	0,72
507,797	0,72
508,249	0,73
508,7	0,73
509,151	0,73
509,603	0,73
510,054	0,74
510,506	0,74
510,957	0,74
511,408	0,75
511,86	0,75
512,311	0,75
512,762	0,75
513,213	0,76
513,665	0,76
514,116	0,76
514,567	0,77
515,018	0,77
515,469	0,77
515,92	0,78
516,371	0,78
516,822	0,78
517,273	0,78
517,724	0,79
518,175	0,79
518,626	0,79
519,076	0,79
519,527	0,79
519,978	0,8
520,429	0,8
520,88	0,8
521,33	0,8
521,781	0,8
522,232	0,8
522,682	0,8
523,133	0,81
523,583	0,81
524,034	0,81
524,484	0,81
524,935	0,81
525,385	0,81
525,836	0,81
526,286	0,81
526,736	0,81
527,187	0,81
527,637	0,81
528,087	0,81
528,538	0,81
528,988	0,81
529,438	0,81
529,888	0,81
530,338	0,81
530,788	0,81
531,238	0,81
531,688	0,81
532,139	0,8
532,589	0,8
533,038	0,8
533,488	0,8
533,938	0,8
534,388	0,8
534,838	0,8
535,288	0,79
535,738	0,79
536,187	0,79
536,637	0,78
537,087	0,78
537,537	0,78
537,986	0,78
538,436	0,77
538,885	0,77
539,335	0,77
539,785	0,76
540,234	0,76
540,684	0,76
541,133	0,75
541,582	0,75
542,032	0,75
542,481	0,74
542,931	0,74
543,38	0,74
543,829	0,73
544,278	0,73
544,728	0,72
545,177	0,72
545,626	0,72
546,075	0,71
546,524	0,71
546,973	0,71
547,422	0,71
547,871	0,7
548,32	0,7
548,769	0,7
549,218	0,7
549,667	0,69
550,116	0,69
550,565	0,69
551,014	0,68
551,463	0,68
551,911	0,68
552,36	0,67
552,809	0,67
553,258	0,67
553,706	0,66
554,155	0,66
554,603	0,66
555,052	0,65
555,501	0,65
555,949	0,65
556,398	0,65
556,846	0,64
557,294	0,64
557,743	0,64
558,191	0,63
558,64	0,63
559,088	0,62
559,536	0,62
559,985	0,62
560,433	0,61
560,881	0,61
561,329	0,61
561,777	0,6
562,225	0,6
562,674	0,6
563,122	0,59
563,57	0,59
564,018	0,59
564,466	0,59
564,914	0,58
565,362	0,58
565,809	0,58
566,257	0,57
566,705	0,57
567,153	0,57
567,601	0,56
568,048	0,56
568,496	0,56
568,944	0,56
569,392	0,55
569,839	0,55
570,287	0,55
570,734	0,55
571,182	0,54
571,63	0,54
572,077	0,54
572,525	0,53
572,972	0,53
573,419	0,53
573,867	0,53
574,314	0,52
574,761	0,52
575,209	0,52
575,656	0,51
576,103	0,51
576,551	0,51
576,998	0,51
577,445	0,51
577,892	0,51
578,339	0,5
578,786	0,5
579,233	0,5
579,68	0,5
580,127	0,49
580,574	0,49
581,021	0,49
581,468	0,49
581,915	0,49
582,362	0,48
582,809	0,48
583,255	0,48
583,702	0,48
584,149	0,48
584,596	0,48
585,042	0,47
585,489	0,47
585,936	0,47
586,382	0,47
586,829	0,47
587,275	0,47
587,722	0,46
588,168	0,46
588,615	0,46
589,061	0,46
589,508	0,46
589,954	0,46
590,4	0,46
590,847	0,45
591,293	0,45
591,739	0,45
592,185	0,45
592,632	0,45
593,078	0,45
593,524	0,45
593,97	0,45
594,416	0,44
594,862	0,44
595,308	0,44
595,754	0,44
596,2	0,44
596,646	0,44
597,092	0,44
597,538	0,44
597,984	0,44
598,43	0,43
598,876	0,43
599,321	0,43
599,767	0,43
600,213	0,43
600,659	0,43
601,104	0,43
601,55	0,43
601,995	0,43
602,441	0,43
602,887	0,42
603,332	0,42
603,778	0,42
604,223	0,42
604,668	0,42
605,114	0,42
605,559	0,42
606,005	0,42
606,45	0,42
606,895	0,42
607,341	0,42
607,786	0,42
608,231	0,41
608,676	0,41
609,121	0,41
609,566	0,4
610,012	0,4
610,457	0,4
610,902	0,39
611,347	0,39
611,792	0,39
612,237	0,39
612,682	0,39
613,127	0,39
613,571	0,39
614,016	0,39
614,461	0,39
614,906	0,39
615,351	0,39
615,795	0,39
616,24	0,39
616,685	0,39
617,129	0,4
617,574	0,4
618,019	0,4
618,463	0,4
618,908	0,4
619,352	0,39
619,797	0,39
620,241	0,39
620,686	0,39
621,13	0,39
621,574	0,39
622,019	0,39
622,463	0,39
622,907	0,39
623,352	0,39
623,796	0,39
624,24	0,39
624,684	0,39
625,128	0,39
625,572	0,39
626,016	0,39
626,461	0,39
626,905	0,39
627,349	0,39
627,793	0,39
628,236	0,39
628,68	0,38
629,124	0,38
629,568	0,38
630,012	0,38
630,456	0,38
630,9	0,38
631,343	0,38
631,787	0,38
632,231	0,38
632,674	0,38
633,118	0,38
633,562	0,38
634,005	0,38
634,449	0,38
634,892	0,38
635,336	0,38
635,779	0,38
636,223	0,38
636,666	0,38
637,109	0,38
637,553	0,38
637,996	0,38
638,439	0,38
638,883	0,38
639,326	0,38
639,769	0,38
640,212	0,37
640,655	0,37
641,099	0,37
641,542	0,37
641,985	0,37
642,428	0,37
642,871	0,37
643,314	0,37
643,757	0,37
644,2	0,37
644,643	0,37
645,085	0,37
645,528	0,37
645,971	0,37
646,414	0,37
646,857	0,37
647,299	0,37
647,742	0,37
648,185	0,37
648,627	0,37
649,07	0,37
649,513	0,37
649,955	0,37
650,398	0,37
650,84	0,37
651,283	0,37
651,725	0,37
652,168	0,37
652,61	0,37
653,052	0,37
653,495	0,37
653,937	0,29
654,379	0,23
654,821	0,24
655,264	0,24
655,706	0,24
656,148	0,24
656,59	0,24
657,032	0,24
657,474	0,24
657,916	0,24
658,358	0,23
658,8	0,29
659,242	0,36
659,684	0,36
660,126	0,36
660,568	0,36
661,01	0,36
661,452	0,36
661,894	0,36
662,335	0,36
662,777	0,36
663,219	0,36
663,661	0,36
664,102	0,36
664,544	0,36
664,985	0,36
665,427	0,36
665,869	0,36
666,31	0,36
666,752	0,36
667,193	0,36
667,634	0,36
668,076	0,36
668,517	0,36
668,959	0,36
669,4	0,36
669,841	0,36
670,282	0,36
670,724	0,36
671,165	0,36
671,606	0,36
672,047	0,36
672,488	0,36
672,929	0,36
673,37	0,36
673,811	0,36
674,252	0,36
674,693	0,35
675,134	0,35
675,575	0,35
676,016	0,35
676,457	0,35
676,898	0,35
677,339	0,35
677,78	0,35
678,22	0,35
678,661	0,35
679,102	0,35
679,542	0,35
679,983	0,35
680,424	0,35
680,864	0,35
681,305	0,35
681,745	0,35
682,186	0,35
682,626	0,35
683,067	0,35
683,507	0,35
683,948	0,35
684,388	0,35
684,828	0,35
685,269	0,35
685,709	0,35
686,149	0,35
686,589	0,35
687,029	0,34
687,47	0,34
687,91	0,34
688,35	0,34
688,79	0,34
689,23	0,34
689,67	0,34
690,11	0,34
690,55	0,34
690,99	0,34
691,43	0,34
691,87	0,34
692,31	0,34
692,749	0,34
693,189	0,34
693,629	0,34
694,069	0,34
694,508	0,34
694,948	0,34
695,388	0,34
695,827	0,34
696,267	0,34
696,706	0,34
697,146	0,34
697,586	0,34
698,025	0,34
698,464	0,34
698,904	0,34
699,343	0,34
699,783	0,34
700,222	0,34
700,661	0,34
701,101	0,34
701,54	0,34
701,979	0,34
702,418	0,34
702,857	0,34
703,297	0,34
703,736	0,34
704,175	0,34
704,614	0,34
705,053	0,34
705,492	0,34
705,931	0,34
706,37	0,34
706,809	0,34
707,248	0,34
707,687	0,34
708,125	0,34
708,564	0,34
709,003	0,34
709,442	0,34
709,88	0,34
710,319	0,34
710,758	0,34
711,196	0,33
711,635	0,33
712,074	0,33
712,512	0,33
712,951	0,33
713,389	0,33
713,828	0,33
714,266	0,33
714,705	0,33
715,143	0,33
715,581	0,33
716,02	0,33
716,458	0,33
716,896	0,33
717,334	0,33
717,773	0,32
718,211	0,32
718,649	0,33
719,087	0,33
719,525	0,33
719,963	0,33
720,401	0,33
720,839	0,33
721,277	0,33
721,715	0,33
722,153	0,33
722,591	0,33
723,029	0,33
723,467	0,33
723,905	0,33
724,342	0,33
724,78	0,33
725,218	0,33
725,656	0,33
726,093	0,33
726,531	0,33
726,969	0,33
727,406	0,33
727,844	0,33
728,281	0,33
728,719	0,33
729,156	0,33
729,594	0,33
730,031	0,33
730,469	0,33
730,906	0,33
731,343	0,33
731,781	0,33
732,218	0,33
732,655	0,32
733,092	0,32
733,53	0,32
733,967	0,32
734,404	0,32
734,841	0,32
735,278	0,32
735,715	0,32
736,152	0,32
736,589	0,32
737,026	0,32
737,463	0,32
737,9	0,32
738,337	0,32
738,774	0,32
739,211	0,32
739,647	0,32
740,084	0,32
740,521	0,32
740,958	0,32
741,394	0,32
741,831	0,31
742,268	0,31
742,704	0,31
743,141	0,31
743,577	0,31
744,014	0,31
744,45	0,31
744,887	0,31
745,323	0,31
745,76	0,31
746,196	0,31
746,632	0,3
747,069	0,3
747,505	0,3
747,941	0,3
748,378	0,3
748,814	0,31
749,25	0,31
749,686	0,31
750,122	0,31
750,558	0,31
750,994	0,31
751,43	0,32
751,866	0,32
752,302	0,32
752,738	0,32
753,174	0,32
753,61	0,32
754,046	0,32
754,482	0,32
754,918	0,32
755,354	0,32
755,789	0,32
756,225	0,32
756,661	0,32
757,096	0,32
757,532	0,32
757,968	0,32
758,403	0,31
758,839	0,31
759,274	0,31
759,71	0,31
760,145	0,3
760,581	0,3
761,016	0,3
761,452	0,29
761,887	0,29
762,322	0,29
762,758	0,28
763,193	0,28
763,628	0,27
764,063	0,27
764,499	0,27
764,934	0,26
765,369	0,26
765,804	0,25
766,239	0,25
766,674	0,24
767,109	0,24
767,544	0,23
767,979	0,22
768,414	0,21
768,849	0,21
769,284	0,2
769,719	0,19
770,154	0,19
770,588	0,18
771,023	0,17
771,458	0,16
771,893	0,15
772,327	0,14
772,762	0,13
773,197	0,13
773,631	0,12
774,066	0,11
774,5	0,1
774,935	0,09
775,369	0,08
775,804	0,07
776,238	0,07
776,673	0,06
777,107	0,05
777,541	0,04
777,976	0,03
778,41	0,02
778,844	0,01
779,279	0,01
779,713	-0
780,147	-0,01
780,581	-0,02
781,015	-0,02
781,449	-0,04
781,883	-0,04
782,317	-0,05
782,751	-0,06
783,185	-0,06
783,619	-0,07
784,053	-0,08
784,487	-0,08
784,921	-0,08
785,355	-0,09
785,789	-0,1
786,223	-0,1
786,656	-0,11
787,09	-0,12
787,524	-0,13
787,957	-0,14
788,391	-0,16
788,825	-0,17
789,258	-0,19
789,692	-0,2
790,125	-0,22
790,559	-0,23
790,992	-0,25
791,426	-0,27
791,859	-0,29
792,293	-0,32
792,726	-0,33
793,159	-0,35
793,593	-0,37
794,026	-0,39
794,459	-0,42
794,892	-0,44
795,326	-0,47
795,759	-0,51
796,192	-0,55
796,625	-0,6
797,058	-0,62
797,491	-0,66
797,924	-0,7
798,357	-0,75
798,79	-0,79
799,223	-0,84
799,656	-0,89
800,089	-0,94
800,522	-0,98
800,955	-1,02
801,387	-1,08
801,82	-1,13
802,253	-1,2
802,686	-1,28
803,118	-1,33
803,551	-1,38
803,984	-1,43
804,416	-1,46
804,849	-1,49
805,281	-1,6
805,714	-1,94
806,146	-2,41
806,579	-2,68
807,011	-2,85
807,444	-2,95
807,876	-3,04
808,308	-3,07
808,741	-3,1
809,173	-3,16
809,605	-3,18
810,037	-3,25
810,47	-3,18
810,902	-2,99
811,334	-2,84
811,766	-2,68
812,198	-2,44
812,63	-2,01
813,062	-1,79
813,494	-1,69
813,926	-1,6
814,358	-1,55
814,79	-1,47
815,222	-1,41
815,654	-1,36
816,086	-1,29
816,518	-1,24
816,949	-1,19
817,381	-1,14
817,813	-1,12
818,245	-1,08
818,676	-1,04
819,108	-1,01
819,54	-0,99
819,971	-0,97
820,403	-0,92
820,834	-0,9
821,266	-0,86
821,697	-0,83
822,129	-0,82
822,56	-0,8
822,991	-0,77
823,423	-0,74
823,854	-0,74
824,286	-0,71
824,717	-0,7
825,148	-0,68
825,579	-0,67
826,01	-0,66
826,442	-0,65
826,873	-0,64
827,304	-0,6
827,735	-0,6
828,166	-0,6
828,597	-0,6
829,028	-0,59
829,459	-0,6
829,89	-0,6
830,321	-0,56
830,752	-0,57
831,183	-0,56
831,613	-0,55
832,044	-0,55
832,475	-0,54
832,906	-0,55
833,336	-0,56
833,767	-0,55
834,198	-0,54
834,628	-0,51
835,059	-0,55
835,49	-0,55
835,92	-0,52
836,351	-0,53
836,781	-0,52
837,212	-0,53
837,642	-0,53
838,072	-0,51
838,503	-0,52
838,933	-0,5
839,364	-0,52
839,794	-0,49
840,224	-0,49
840,654	-0,54
841,085	-0,54
841,515	-0,51
841,945	-0,51
842,375	-0,46
842,805	-0,45
843,235	-0,44
843,665	-0,45
844,095	-0,43
844,525	-0,45
844,955	-0,45
845,385	-0,43
845,815	-0,41
846,245	-0,43
846,675	-0,44
847,105	-0,45
847,534	-0,46
847,964	-0,44
848,394	-0,42
848,824	-0,46
849,253	-0,46
849,683	-0,46
850,112	-0,47
850,542	-0,51
850,972	-0,51
851,401	-0,49
851,831	-0,48
852,26	-0,49
852,69	-0,52
853,119	-0,52
853,548	-0,52
853,978	-0,53
854,407	-0,51
854,836	-0,51
855,266	-0,5
855,695	-0,51
856,124	-0,53
856,553	-0,54
856,983	-0,56
857,412	-0,55
857,841	-0,56
858,27	-0,56
858,699	-0,55
859,128	-0,59
859,557	-0,6
859,986	-0,61
860,415	-0,58
860,844	-0,55
861,273	-0,55
861,702	-0,56
862,13	-0,53
862,559	-0,56
862,988	-0,54
863,417	-0,53
863,845	-0,51
864,274	-0,52
864,703	-0,52
865,131	-0,53
865,56	-0,53
865,989	-0,57
866,417	-0,53
866,846	-0,54
867,274	-0,53
867,703	-0,54
868,131	-0,56
868,559	-0,57
868,988	-0,58
869,416	-0,57
869,844	-0,58
870,273	-0,61
870,701	-0,59
871,129	-0,62
871,557	-0,65
871,986	-0,66
872,414	-0,67
872,842	-0,64
873,27	-0,62
873,698	-0,59
874,126	-0,63
874,554	-0,62
874,982	-0,61
875,41	-0,63
875,838	-0,58
876,266	-0,56
876,694	-0,56
877,122	-0,55
877,549	-0,6
877,977	-0,57
878,405	-0,59
878,833	-0,57
879,26	-0,55
879,688	-0,55
880,116	-0,54
880,543	-0,52
880,971	-0,51
881,399	-0,54
881,826	-0,54
882,254	-0,52
882,681	-0,55
883,109	-0,52
883,536	-0,53
883,963	-0,54
884,391	-0,53
884,818	-0,51
885,245	-0,55
885,673	-0,55
886,1	-0,52
886,527	-0,52
886,954	-0,49
887,381	-0,51
887,809	-0,53
888,236	-0,54
888,663	-0,55
889,09	-0,59
889,517	-0,61
889,944	-0,6
890,371	-0,6
890,798	-0,61
891,225	-0,62
891,652	-0,64
892,078	-0,61
892,505	-0,64
892,932	-0,6
893,359	-0,61
893,786	-0,6
894,212	-0,58
894,639	-0,6
895,066	-0,61
895,492	-0,56
895,919	-0,55
896,346	-0,55
896,772	-0,55
897,199	-0,52
897,625	-0,55
898,052	-0,51
898,478	-0,49
898,904	-0,5
899,331	-0,49
899,757	-0,51
900,183	-0,53
900,61	-0,51
901,036	-0,52
901,462	-0,52
901,888	-0,52
902,315	-0,49
902,741	-0,55
903,167	-0,54
903,593	-0,58
904,019	-0,56
904,445	-0,52
904,871	-0,55
905,297	-0,58
905,723	-0,58
906,149	-0,56
906,575	-0,57
907,001	-0,57
907,427	-0,54
907,852	-0,53
908,278	-0,53
908,704	-0,51
909,13	-0,51
909,555	-0,5
909,981	-0,49
910,407	-0,49
910,832	-0,49
911,258	-0,49
911,684	-0,5
912,109	-0,5
912,535	-0,52
912,96	-0,48
913,386	-0,52
913,811	-0,52
914,236	-0,54
914,662	-0,52
915,087	-0,55
915,512	-0,55
915,938	-0,56
916,363	-0,55
916,788	-0,57
917,213	-0,54
917,639	-0,59
918,064	-0,56
918,489	-0,56
918,914	-0,57
919,339	-0,59
919,764	-0,56
920,189	-0,56
920,614	-0,58
921,039	-0,58
921,464	-0,55
921,889	-0,57
922,314	-0,58
922,738	-0,62
923,163	-0,63
923,588	-0,62
924,013	-0,61
924,437	-0,61
924,862	-0,62
925,287	-0,58
925,711	-0,59
926,136	-0,6
926,561	-0,58
926,985	-0,57
927,41	-0,54
927,834	-0,52
928,259	-0,5
928,683	-0,48
929,108	-0,45
929,532	-0,46
929,956	-0,46
930,381	-0,46
930,805	-0,45
931,229	-0,45
931,653	-0,43
932,078	-0,43
932,502	-0,44
932,926	-0,45
933,35	-0,45
933,774	-0,45
934,198	-0,42
934,622	-0,41
935,046	-0,41
935,47	-0,43
935,894	-0,43
936,318	-0,43
936,742	-0,43
937,166	-0,43
937,59	-0,43
938,014	-0,45
938,437	-0,45
938,861	-0,48
939,285	-0,49
939,709	-0,48
940,132	-0,48
940,556	-0,48
940,98	-0,48
941,403	-0,47
941,827	-0,48
942,25	-0,49
942,674	-0,48
943,097	-0,48
943,521	-0,48
943,944	-0,49
944,368	-0,48
944,791	-0,46
945,214	-0,48
945,638	-0,49
946,061	-0,52
946,484	-0,52
946,907	-0,5
947,331	-0,5
947,754	-0,53
948,177	-0,5
948,6	-0,5
949,023	-0,5
949,446	-0,5
949,869	-0,47
950,292	-0,46
950,715	-0,43
951,138	-0,41
951,561	-0,39
951,984	-0,39
952,407	-0,38
952,83	-0,36
953,252	-0,32
953,675	-0,32
954,098	-0,32
954,521	-0,32
954,943	-0,3
955,366	-0,32
955,789	-0,31
956,211	-0,33
956,634	-0,33
957,056	-0,32
957,479	-0,33
957,902	-0,36
958,324	-0,37
958,746	-0,36
959,169	-0,37
959,591	-0,37
960,014	-0,38
960,436	-0,37
960,858	-0,36
961,281	-0,37
961,703	-0,37
962,125	-0,37
962,547	-0,35
962,969	-0,35
963,391	-0,36
963,814	-0,37
964,236	-0,36
964,658	-0,32
965,08	-0,33
965,502	-0,33
965,924	-0,3
966,346	-0,3
966,768	-0,29
967,189	-0,31
967,611	-0,32
968,033	-0,31
968,455	-0,29
968,877	-0,3
969,298	-0,32
969,72	-0,32
970,142	-0,31
970,563	-0,32
970,985	-0,3
971,407	-0,29
971,828	-0,28
972,25	-0,27
972,671	-0,25
973,093	-0,24
973,514	-0,22
973,936	-0,2
974,357	-0,19
974,778	-0,2
975,2	-0,19
975,621	-0,18
976,042	-0,17
976,464	-0,16
976,885	-0,15
977,306	-0,15
977,727	-0,16
978,148	-0,15
978,57	-0,14
978,991	-0,12
979,412	-0,11
979,833	-0,1
980,254	-0,09
980,675	-0,1
981,096	-0,09
981,517	-0,08
981,937	-0,07
982,358	-0,05
982,779	-0,04
983,2	-0,04
983,621	-0,04
984,042	-0,03
984,462	-0,02
984,883	-0,01
985,304	0,01
985,724	0,01
986,145	0,02
986,565	0,03
986,986	0,04
987,407	0,05
987,827	0,06
988,248	0,08
988,668	0,08
989,088	0,09
989,509	0,1
989,929	0,11
990,35	0,12
990,77	0,13
991,19	0,14
991,61	0,15
992,031	0,16
992,451	0,16
992,871	0,17
993,291	0,18
993,711	0,18
994,131	0,19
994,551	0,19
994,971	0,2
995,391	0,2
995,811	0,21
996,231	0,21
996,651	0,21
997,071	0,22
997,491	0,23
997,911	0,23
998,331	0,24
998,75	0,24
999,17	0,25
999,59	0,25
1000,009	0,25
1000,429	0,26
1000,849	0,26
1001,268	0,27
1001,688	0,27
1002,107	0,27
1002,527	0,27
1002,946	0,28
1003,366	0,28
1003,785	0,28
1004,205	0,28
1004,624	0,28
1005,044	0,29
1005,463	0,29
1005,882	0,29
1006,301	0,29
1006,721	0,29
1007,14	0,29
1007,559	0,29
1007,978	0,29
1008,397	0,29
1008,816	0,29
1009,235	0,29
1009,655	0,29
1010,074	0,29
1010,492	0,29
1010,911	0,29
1011,33	0,29
1011,749	0,29
1012,168	0,28
1012,587	0,28
1013,006	0,28
1013,425	0,28
1013,843	0,28
1014,262	0,28
1014,681	0,28
1015,099	0,28
1015,518	0,28
1015,937	0,28
1016,355	0,28
1016,774	0,28
1017,192	0,28
1017,611	0,28
1018,029	0,28
1018,448	0,28
1018,866	0,28
1019,285	0,28
1019,703	0,28
1020,121	0,28
1020,54	0,28
1020,958	0,28
1021,376	0,28
1021,794	0,28
1022,213	0,28
1022,631	0,28
1023,049	0,28
1023,467	0,28
1023,885	0,28
1024,303	0,28
1024,721	0,28
1025,139	0,28
1025,557	0,28
1025,975	0,28
1026,393	0,27
1026,811	0,27
1027,229	0,27
1027,647	0,27
1028,065	0,27
1028,482	0,27
1028,9	0,27
1029,318	0,27
1029,735	0,27
1030,153	0,27
1030,571	0,27
1030,988	0,27
1031,406	0,27
1031,823	0,27
1032,241	0,27
1032,659	0,27
1033,076	0,27
1033,493	0,27
1033,911	0,27
1034,328	0,27
1034,746	0,27
1035,163	0,27
1035,58	0,27
1035,997	0,27
1036,415	0,27
1036,832	0,27
1037,249	0,27
1037,666	0,27
1038,083	0,27
1038,501	0,27
1038,918	0,27
1039,335	0,27
1039,752	0,27
1040,169	0,27
1040,586	0,27
1041,003	0,27
1041,419	0,27
1041,836	0,27
1042,253	0,27
1042,67	0,27
1043,087	0,27
1043,504	0,27
1043,92	0,27
1044,337	0,27
1044,754	0,27
1045,17	0,27
1045,587	0,27
1046,004	0,27
1046,42	0,27
1046,837	0,26
1047,253	0,26
1047,67	0,26
1048,086	0,27
1048,503	0,27
1048,919	0,26
1049,335	0,27
1049,752	0,27
1050,168	0,27
1050,584	0,27
1051,001	0,27
1051,417	0,27
1051,833	0,27
1052,249	0,27
1052,665	0,27
1053,081	0,27
1053,497	0,27
1053,914	0,27
1054,33	0,27
1054,746	0,27
1055,162	0,27
1055,578	0,27
1055,993	0,27
1056,409	0,27
1056,825	0,27
1057,241	0,27
1057,657	0,27
1058,073	0,27
1058,488	0,27
1058,904	0,27
1059,32	0,27
1059,736	0,27
1060,151	0,27
1060,567	0,27
1060,982	0,27
1061,398	0,27
1061,813	0,27
1062,229	0,27
1062,644	0,27
1063,06	0,27
1063,475	0,27
1063,891	0,27
1064,306	0,27
1064,721	0,27
1065,137	0,27
1065,552	0,27
1065,967	0,27
1066,382	0,27
1066,798	0,27
1067,213	0,27
1067,628	0,27
1068,043	0,27
1068,458	0,27
1068,873	0,27
1069,288	0,27
1069,703	0,27
1070,118	0,27
1070,533	0,27
1070,948	0,27
1071,363	0,27
1071,778	0,27
1072,193	0,27
1072,607	0,28
1073,022	0,28
1073,437	0,28
1073,852	0,28
1074,266	0,28
1074,681	0,28
1075,096	0,28
1075,51	0,28
1075,925	0,28
1076,339	0,27
1076,754	0,27
1077,168	0,27
1077,583	0,27
1077,997	0,27
1078,412	0,27
1078,826	0,27
1079,24	0,27
1079,655	0,27
1080,069	0,27
1080,483	0,27
1080,897	0,27
1081,312	0,27
1081,726	0,27
1082,14	0,27
1082,554	0,26
1082,968	0,26
1083,382	0,26
1083,796	0,26
1084,21	0,26
1084,624	0,26
1085,038	0,26
1085,452	0,26
1085,866	0,26
1086,28	0,26
1086,694	0,26
1087,108	0,26
1087,521	0,25
1087,935	0,25
1088,349	0,25
1088,763	0,25
1089,176	0,25
1089,59	0,25
1090,004	0,24
1090,417	0,24
1090,831	0,24
1091,244	0,24
1091,658	0,23
1092,071	0,23
1092,485	0,23
1092,898	0,23
1093,312	0,23
1093,725	0,23
1094,138	0,22
1094,552	0,22
1094,965	0,22
1095,378	0,22
1095,791	0,22
1096,205	0,22
1096,618	0,22
1097,031	0,22
1097,444	0,22
1097,857	0,21
1098,27	0,21
1098,683	0,21
1099,096	0,21
1099,509	0,2
1099,922	0,2
1100,335	0,2
1100,748	0,19
1101,161	0,19
1101,574	0,19
1101,986	0,19
1102,399	0,19
1102,812	0,18
1103,225	0,18
1103,637	0,18
1104,05	0,18
1104,463	0,18
1104,875	0,18
1105,288	0,18
1105,7	0,17
1106,113	0,17
1106,525	0,17
1106,938	0,16
1107,35	0,16
1107,763	0,16
1108,175	0,16
1108,588	0,15
1109	0,15
1109,412	0,15
1109,824	0,15
1110,237	0,16
1110,649	0,16
1111,061	0,15
