Data from 18C-808nm-8A-cont_Absorbance__552__01981.txt Node

Date: Mon Jul 17 17:39:35 CEST 2023
User: Laser008
Spectrometer: MAYP115816
Trigger mode: 0
Integration Time (sec): 2,500000E-1
Scans to average: 10
Electric dark correction enabled: true
Nonlinearity correction enabled: true
Boxcar width: 5
XAxis mode: Wavelengths
Number of Pixels in Spectrum: 2068
>>>>>Begin Spectral Data<<<<<
198,914	-0,69
199,384	-0,48
199,855	-0,37
200,325	-0,28
200,796	-0,25
201,266	-0,2
201,737	-0,18
202,207	-0,17
202,677	-0,16
203,147	-0,15
203,618	-0,12
204,088	-0,11
204,558	-0,09
205,028	-0,08
205,498	-0,09
205,968	-0,09
206,439	-0,11
206,909	-0,11
207,379	-0,11
207,849	-0,11
208,319	-0,12
208,789	-0,12
209,258	-0,12
209,728	-0,13
210,198	-0,12
210,668	-0,12
211,138	-0,12
211,608	-0,12
212,077	-0,12
212,547	-0,12
213,017	-0,13
213,486	-0,12
213,956	-0,13
214,426	-0,15
214,895	-0,14
215,365	-0,15
215,834	-0,15
216,304	-0,16
216,773	-0,15
217,243	-0,17
217,712	-0,18
218,181	-0,17
218,651	-0,18
219,12	-0,18
219,589	-0,17
220,058	-0,16
220,528	-0,17
220,997	-0,18
221,466	-0,19
221,935	-0,19
222,404	-0,19
222,873	-0,18
223,342	-0,17
223,812	-0,17
224,281	-0,17
224,749	-0,17
225,218	-0,19
225,687	-0,19
226,156	-0,18
226,625	-0,16
227,094	-0,16
227,563	-0,16
228,031	-0,18
228,5	-0,19
228,969	-0,19
229,438	-0,18
229,906	-0,17
230,375	-0,16
230,844	-0,16
231,312	-0,16
231,781	-0,17
232,249	-0,16
232,718	-0,16
233,186	-0,14
233,655	-0,15
234,123	-0,14
234,591	-0,15
235,06	-0,15
235,528	-0,16
235,996	-0,16
236,465	-0,16
236,933	-0,15
237,401	-0,16
237,869	-0,15
238,337	-0,16
238,805	-0,15
239,274	-0,14
239,742	-0,14
240,21	-0,13
240,678	-0,13
241,146	-0,12
241,614	-0,12
242,081	-0,11
242,549	-0,11
243,017	-0,11
243,485	-0,12
243,953	-0,12
244,421	-0,11
244,888	-0,11
245,356	-0,12
245,824	-0,11
246,291	-0,11
246,759	-0,12
247,227	-0,12
247,694	-0,11
248,162	-0,11
248,629	-0,1
249,097	-0,1
249,564	-0,11
250,032	-0,12
250,499	-0,12
250,967	-0,12
251,434	-0,13
251,901	-0,12
252,369	-0,12
252,836	-0,13
253,303	-0,15
253,77	-0,16
254,237	-0,15
254,705	-0,16
255,172	-0,15
255,639	-0,15
256,106	-0,17
256,573	-0,16
257,04	-0,17
257,507	-0,18
257,974	-0,18
258,441	-0,16
258,908	-0,16
259,375	-0,18
259,841	-0,18
260,308	-0,17
260,775	-0,18
261,242	-0,17
261,709	-0,18
262,175	-0,18
262,642	-0,18
263,109	-0,18
263,575	-0,2
264,042	-0,19
264,508	-0,18
264,975	-0,2
265,441	-0,21
265,908	-0,21
266,374	-0,21
266,841	-0,21
267,307	-0,22
267,773	-0,21
268,24	-0,21
268,706	-0,21
269,172	-0,21
269,639	-0,22
270,105	-0,2
270,571	-0,21
271,037	-0,21
271,503	-0,21
271,969	-0,21
272,435	-0,2
272,902	-0,22
273,368	-0,23
273,834	-0,23
274,3	-0,24
274,765	-0,23
275,231	-0,24
275,697	-0,23
276,163	-0,23
276,629	-0,22
277,095	-0,23
277,56	-0,23
278,026	-0,24
278,492	-0,22
278,958	-0,21
279,423	-0,22
279,889	-0,21
280,354	-0,21
280,82	-0,21
281,286	-0,23
281,751	-0,23
282,217	-0,22
282,682	-0,21
283,147	-0,21
283,613	-0,22
284,078	-0,22
284,544	-0,23
285,009	-0,24
285,474	-0,24
285,939	-0,25
286,405	-0,23
286,87	-0,23
287,335	-0,23
287,8	-0,23
288,265	-0,22
288,73	-0,23
289,195	-0,26
289,66	-0,25
290,125	-0,23
290,59	-0,23
291,055	-0,23
291,52	-0,23
291,985	-0,24
292,45	-0,25
292,915	-0,25
293,38	-0,25
293,844	-0,23
294,309	-0,21
294,774	-0,21
295,239	-0,23
295,703	-0,23
296,168	-0,22
296,632	-0,21
297,097	-0,19
297,562	-0,17
298,026	-0,18
298,491	-0,18
298,955	-0,17
299,419	-0,17
299,884	-0,16
300,348	-0,14
300,813	-0,14
301,277	-0,14
301,741	-0,14
302,205	-0,14
302,67	-0,14
303,134	-0,14
303,598	-0,14
304,062	-0,13
304,526	-0,13
304,99	-0,15
305,454	-0,15
305,919	-0,14
306,383	-0,15
306,847	-0,14
307,31	-0,15
307,774	-0,16
308,238	-0,15
308,702	-0,14
309,166	-0,15
309,63	-0,15
310,094	-0,12
310,557	-0,12
311,021	-0,11
311,485	-0,11
311,948	-0,11
312,412	-0,1
312,876	-0,1
313,339	-0,11
313,803	-0,12
314,266	-0,12
314,73	-0,12
315,193	-0,12
315,657	-0,11
316,12	-0,11
316,584	-0,09
317,047	-0,1
317,51	-0,08
317,973	-0,08
318,437	-0,07
318,9	-0,05
319,363	-0,05
319,826	-0,04
320,29	-0,04
320,753	-0,05
321,216	-0,05
321,679	-0,05
322,142	-0,05
322,605	-0,06
323,068	-0,06
323,531	-0,06
323,994	-0,05
324,457	-0,05
324,92	-0,04
325,382	-0,04
325,845	-0,04
326,308	-0,02
326,771	-0,02
327,233	-0,01
327,696	0
328,159	0,01
328,622	0,01
329,084	0
329,547	0,01
330,009	0,01
330,472	0,03
330,934	0,04
331,397	0,04
331,859	0,04
332,322	0,04
332,784	0,04
333,246	0,04
333,709	0,05
334,171	0,06
334,633	0,07
335,096	0,06
335,558	0,06
336,02	0,06
336,482	0,05
336,944	0,06
337,406	0,07
337,868	0,08
338,331	0,08
338,793	0,09
339,255	0,09
339,717	0,1
340,178	0,11
340,64	0,12
341,102	0,13
341,564	0,14
342,026	0,16
342,488	0,17
342,949	0,18
343,411	0,21
343,873	0,24
344,335	0,26
344,796	0,3
345,258	0,34
345,719	0,39
346,181	0,44
346,643	0,48
347,104	0,51
347,566	0,54
348,027	0,57
348,488	0,6
348,95	0,62
349,411	0,65
349,873	0,67
350,334	0,69
350,795	0,71
351,256	0,72
351,718	0,73
352,179	0,74
352,64	0,75
353,101	0,75
353,562	0,75
354,023	0,75
354,484	0,76
354,945	0,76
355,406	0,76
355,867	0,76
356,328	0,77
356,789	0,77
357,25	0,77
357,711	0,77
358,172	0,78
358,633	0,78
359,093	0,78
359,554	0,78
360,015	0,78
360,476	0,78
360,936	0,79
361,397	0,79
361,858	0,79
362,318	0,79
362,779	0,79
363,239	0,79
363,7	0,79
364,16	0,79
364,621	0,79
365,081	0,79
365,541	0,79
366,002	0,79
366,462	0,79
366,922	0,79
367,383	0,79
367,843	0,79
368,303	0,79
368,763	0,79
369,223	0,79
369,684	0,79
370,144	0,79
370,604	0,79
371,064	0,79
371,524	0,79
371,984	0,79
372,444	0,79
372,904	0,79
373,363	0,79
373,823	0,79
374,283	0,79
374,743	0,79
375,203	0,79
375,663	0,79
376,122	0,79
376,582	0,79
377,042	0,79
377,501	0,79
377,961	0,79
378,42	0,79
378,88	0,79
379,34	0,79
379,799	0,78
380,259	0,78
380,718	0,78
381,177	0,78
381,637	0,78
382,096	0,78
382,555	0,78
383,015	0,78
383,474	0,78
383,933	0,78
384,393	0,78
384,852	0,78
385,311	0,78
385,77	0,78
386,229	0,78
386,688	0,78
387,147	0,78
387,606	0,78
388,065	0,78
388,524	0,78
388,983	0,78
389,442	0,77
389,901	0,77
390,36	0,77
390,819	0,77
391,277	0,77
391,736	0,77
392,195	0,77
392,654	0,77
393,112	0,77
393,571	0,77
394,03	0,77
394,488	0,77
394,947	0,77
395,405	0,77
395,864	0,77
396,322	0,77
396,781	0,77
397,239	0,77
397,698	0,77
398,156	0,77
398,614	0,77
399,073	0,77
399,531	0,77
399,989	0,77
400,447	0,77
400,905	0,77
401,364	0,77
401,822	0,76
402,28	0,76
402,738	0,76
403,196	0,76
403,654	0,76
404,112	0,76
404,57	0,76
405,028	0,76
405,486	0,76
405,944	0,76
406,402	0,76
406,859	0,76
407,317	0,76
407,775	0,76
408,233	0,76
408,691	0,76
409,148	0,76
409,606	0,76
410,064	0,76
410,521	0,76
410,979	0,76
411,436	0,76
411,894	0,76
412,351	0,76
412,809	0,76
413,266	0,76
413,724	0,76
414,181	0,76
414,638	0,76
415,096	0,76
415,553	0,76
416,01	0,76
416,467	0,75
416,925	0,75
417,382	0,75
417,839	0,75
418,296	0,75
418,753	0,75
419,21	0,75
419,667	0,75
420,124	0,75
420,581	0,75
421,038	0,75
421,495	0,75
421,952	0,75
422,409	0,75
422,866	0,75
423,322	0,75
423,779	0,75
424,236	0,75
424,693	0,75
425,149	0,75
425,606	0,75
426,063	0,75
426,519	0,75
426,976	0,75
427,433	0,75
427,889	0,75
428,346	0,75
428,802	0,75
429,258	0,75
429,715	0,75
430,171	0,75
430,628	0,75
431,084	0,75
431,54	0,75
431,997	0,75
432,453	0,75
432,909	0,75
433,365	0,75
433,821	0,75
434,277	0,75
434,734	0,75
435,19	0,75
435,646	0,75
436,102	0,75
436,558	0,75
437,014	0,75
437,47	0,75
437,925	0,75
438,381	0,75
438,837	0,75
439,293	0,75
439,749	0,75
440,205	0,75
440,66	0,75
441,116	0,75
441,572	0,75
442,027	0,75
442,483	0,75
442,939	0,75
443,394	0,75
443,85	0,75
444,305	0,75
444,761	0,75
445,216	0,75
445,672	0,75
446,127	0,75
446,582	0,75
447,038	0,75
447,493	0,75
447,948	0,75
448,403	0,75
448,859	0,75
449,314	0,75
449,769	0,75
450,224	0,75
450,679	0,75
451,134	0,76
451,589	0,76
452,044	0,76
452,499	0,76
452,954	0,76
453,409	0,76
453,864	0,76
454,319	0,76
454,774	0,76
455,229	0,76
455,684	0,76
456,138	0,76
456,593	0,76
457,048	0,76
457,503	0,76
457,957	0,76
458,412	0,76
458,866	0,76
459,321	0,76
459,776	0,76
460,23	0,76
460,685	0,76
461,139	0,76
461,593	0,76
462,048	0,76
462,502	0,77
462,957	0,77
463,411	0,77
463,865	0,77
464,319	0,77
464,774	0,77
465,228	0,77
465,682	0,77
466,136	0,77
466,59	0,77
467,044	0,77
467,499	0,78
467,953	0,78
468,407	0,78
468,861	0,78
469,315	0,78
469,768	0,78
470,222	0,78
470,676	0,78
471,13	0,78
471,584	0,78
472,038	0,78
472,491	0,79
472,945	0,79
473,399	0,79
473,852	0,79
474,306	0,79
474,76	0,79
475,213	0,79
475,667	0,79
476,12	0,79
476,574	0,8
477,027	0,8
477,481	0,8
477,934	0,8
478,388	0,8
478,841	0,81
479,294	0,81
479,748	0,81
480,201	0,81
480,654	0,81
481,107	0,82
481,561	0,82
482,014	0,82
482,467	0,82
482,92	0,82
483,373	0,82
483,826	0,83
484,279	0,83
484,732	0,83
485,185	0,83
485,638	0,84
486,091	0,84
486,544	0,84
486,997	0,84
487,449	0,85
487,902	0,85
488,355	0,85
488,808	0,85
489,26	0,86
489,713	0,86
490,166	0,86
490,618	0,87
491,071	0,87
491,523	0,87
491,976	0,88
492,429	0,88
492,881	0,88
493,333	0,89
493,786	0,89
494,238	0,89
494,691	0,9
495,143	0,9
495,595	0,91
496,048	0,91
496,5	0,91
496,952	0,92
497,404	0,92
497,856	0,92
498,309	0,93
498,761	0,93
499,213	0,94
499,665	0,94
500,117	0,95
500,569	0,95
501,021	0,96
501,473	0,96
501,925	0,96
502,377	0,97
502,828	0,97
503,28	0,98
503,732	0,98
504,184	0,99
504,636	0,99
505,087	0,99
505,539	1
505,991	1
506,442	1,01
506,894	1,01
507,345	1,02
507,797	1,02
508,249	1,02
508,7	1,03
509,151	1,03
509,603	1,04
510,054	1,04
510,506	1,05
510,957	1,05
511,408	1,06
511,86	1,06
512,311	1,06
512,762	1,07
513,213	1,07
513,665	1,07
514,116	1,08
514,567	1,08
515,018	1,08
515,469	1,09
515,92	1,09
516,371	1,09
516,822	1,1
517,273	1,1
517,724	1,1
518,175	1,11
518,626	1,11
519,076	1,11
519,527	1,12
519,978	1,12
520,429	1,12
520,88	1,12
521,33	1,12
521,781	1,13
522,232	1,13
522,682	1,13
523,133	1,13
523,583	1,13
524,034	1,13
524,484	1,14
524,935	1,14
525,385	1,14
525,836	1,14
526,286	1,14
526,736	1,14
527,187	1,14
527,637	1,14
528,087	1,14
528,538	1,14
528,988	1,14
529,438	1,14
529,888	1,13
530,338	1,13
530,788	1,13
531,238	1,13
531,688	1,13
532,139	1,13
532,589	1,13
533,038	1,12
533,488	1,12
533,938	1,12
534,388	1,12
534,838	1,11
535,288	1,11
535,738	1,11
536,187	1,1
536,637	1,1
537,087	1,09
537,537	1,09
537,986	1,08
538,436	1,08
538,885	1,07
539,335	1,07
539,785	1,06
540,234	1,06
540,684	1,05
541,133	1,05
541,582	1,04
542,032	1,04
542,481	1,03
542,931	1,03
543,38	1,02
543,829	1,01
544,278	1,01
544,728	1
545,177	1
545,626	0,99
546,075	0,99
546,524	0,98
546,973	0,98
547,422	0,97
547,871	0,97
548,32	0,96
548,769	0,96
549,218	0,96
549,667	0,95
550,116	0,95
550,565	0,94
551,014	0,94
551,463	0,93
551,911	0,93
552,36	0,92
552,809	0,91
553,258	0,91
553,706	0,9
554,155	0,9
554,603	0,9
555,052	0,89
555,501	0,88
555,949	0,88
556,398	0,87
556,846	0,87
557,294	0,86
557,743	0,86
558,191	0,85
558,64	0,84
559,088	0,84
559,536	0,83
559,985	0,83
560,433	0,82
560,881	0,82
561,329	0,81
561,777	0,81
562,225	0,8
562,674	0,8
563,122	0,79
563,57	0,79
564,018	0,78
564,466	0,78
564,914	0,77
565,362	0,77
565,809	0,76
566,257	0,76
566,705	0,75
567,153	0,75
567,601	0,74
568,048	0,74
568,496	0,73
568,944	0,73
569,392	0,73
569,839	0,72
570,287	0,72
570,734	0,71
571,182	0,71
571,63	0,71
572,077	0,7
572,525	0,7
572,972	0,69
573,419	0,69
573,867	0,68
574,314	0,68
574,761	0,68
575,209	0,67
575,656	0,67
576,103	0,66
576,551	0,66
576,998	0,66
577,445	0,65
577,892	0,65
578,339	0,65
578,786	0,64
579,233	0,64
579,68	0,64
580,127	0,63
580,574	0,63
581,021	0,63
581,468	0,62
581,915	0,62
582,362	0,62
582,809	0,61
583,255	0,61
583,702	0,61
584,149	0,61
584,596	0,6
585,042	0,6
585,489	0,6
585,936	0,59
586,382	0,59
586,829	0,59
587,275	0,59
587,722	0,59
588,168	0,58
588,615	0,58
589,061	0,58
589,508	0,57
589,954	0,57
590,4	0,57
590,847	0,57
591,293	0,56
591,739	0,56
592,185	0,56
592,632	0,56
593,078	0,56
593,524	0,56
593,97	0,55
594,416	0,55
594,862	0,55
595,308	0,55
595,754	0,55
596,2	0,55
596,646	0,54
597,092	0,54
597,538	0,54
597,984	0,54
598,43	0,53
598,876	0,53
599,321	0,53
599,767	0,53
600,213	0,53
600,659	0,53
601,104	0,53
601,55	0,52
601,995	0,52
602,441	0,52
602,887	0,52
603,332	0,52
603,778	0,51
604,223	0,51
604,668	0,51
605,114	0,51
605,559	0,51
606,005	0,51
606,45	0,51
606,895	0,51
607,341	0,51
607,786	0,5
608,231	0,5
608,676	0,5
609,121	0,49
609,566	0,49
610,012	0,48
610,457	0,48
610,902	0,47
611,347	0,47
611,792	0,47
612,237	0,47
612,682	0,47
613,127	0,46
613,571	0,47
614,016	0,47
614,461	0,47
614,906	0,47
615,351	0,47
615,795	0,47
616,24	0,47
616,685	0,47
617,129	0,47
617,574	0,47
618,019	0,47
618,463	0,47
618,908	0,47
619,352	0,47
619,797	0,47
620,241	0,47
620,686	0,47
621,13	0,47
621,574	0,47
622,019	0,47
622,463	0,46
622,907	0,46
623,352	0,46
623,796	0,46
624,24	0,46
624,684	0,46
625,128	0,46
625,572	0,46
626,016	0,46
626,461	0,46
626,905	0,46
627,349	0,46
627,793	0,46
628,236	0,46
628,68	0,46
629,124	0,46
629,568	0,45
630,012	0,45
630,456	0,45
630,9	0,45
631,343	0,45
631,787	0,45
632,231	0,45
632,674	0,45
633,118	0,45
633,562	0,45
634,005	0,45
634,449	0,45
634,892	0,45
635,336	0,45
635,779	0,45
636,223	0,45
636,666	0,45
637,109	0,44
637,553	0,44
637,996	0,44
638,439	0,44
638,883	0,44
639,326	0,44
639,769	0,44
640,212	0,44
640,655	0,44
641,099	0,44
641,542	0,44
641,985	0,44
642,428	0,44
642,871	0,44
643,314	0,44
643,757	0,44
644,2	0,43
644,643	0,43
645,085	0,43
645,528	0,43
645,971	0,43
646,414	0,43
646,857	0,43
647,299	0,43
647,742	0,43
648,185	0,43
648,627	0,43
649,07	0,43
649,513	0,43
649,955	0,43
650,398	0,43
650,84	0,43
651,283	0,43
651,725	0,43
652,168	0,43
652,61	0,43
653,052	0,43
653,495	0,43
653,937	0,34
654,379	0,28
654,821	0,29
655,264	0,29
655,706	0,29
656,148	0,29
656,59	0,29
657,032	0,29
657,474	0,29
657,916	0,29
658,358	0,28
658,8	0,34
659,242	0,42
659,684	0,42
660,126	0,42
660,568	0,42
661,01	0,42
661,452	0,42
661,894	0,42
662,335	0,42
662,777	0,42
663,219	0,42
663,661	0,42
664,102	0,42
664,544	0,42
664,985	0,42
665,427	0,42
665,869	0,42
666,31	0,42
666,752	0,42
667,193	0,42
667,634	0,42
668,076	0,42
668,517	0,42
668,959	0,42
669,4	0,42
669,841	0,42
670,282	0,42
670,724	0,42
671,165	0,42
671,606	0,42
672,047	0,42
672,488	0,42
672,929	0,42
673,37	0,42
673,811	0,41
674,252	0,41
674,693	0,41
675,134	0,41
675,575	0,41
676,016	0,41
676,457	0,41
676,898	0,41
677,339	0,41
677,78	0,41
678,22	0,41
678,661	0,41
679,102	0,41
679,542	0,41
679,983	0,41
680,424	0,41
680,864	0,41
681,305	0,41
681,745	0,41
682,186	0,41
682,626	0,41
683,067	0,41
683,507	0,41
683,948	0,41
684,388	0,41
684,828	0,41
685,269	0,41
685,709	0,41
686,149	0,41
686,589	0,41
687,029	0,4
687,47	0,4
687,91	0,4
688,35	0,4
688,79	0,4
689,23	0,4
689,67	0,4
690,11	0,4
690,55	0,4
690,99	0,4
691,43	0,4
691,87	0,4
692,31	0,4
692,749	0,4
693,189	0,39
693,629	0,39
694,069	0,39
694,508	0,39
694,948	0,39
695,388	0,39
695,827	0,39
696,267	0,39
696,706	0,39
697,146	0,4
697,586	0,4
698,025	0,4
698,464	0,4
698,904	0,4
699,343	0,4
699,783	0,4
700,222	0,4
700,661	0,4
701,101	0,4
701,54	0,4
701,979	0,4
702,418	0,4
702,857	0,4
703,297	0,4
703,736	0,4
704,175	0,4
704,614	0,4
705,053	0,4
705,492	0,4
705,931	0,4
706,37	0,4
706,809	0,4
707,248	0,4
707,687	0,39
708,125	0,39
708,564	0,39
709,003	0,39
709,442	0,39
709,88	0,39
710,319	0,39
710,758	0,39
711,196	0,39
711,635	0,39
712,074	0,39
712,512	0,39
712,951	0,39
713,389	0,39
713,828	0,39
714,266	0,39
714,705	0,39
715,143	0,39
715,581	0,39
716,02	0,39
716,458	0,39
716,896	0,39
717,334	0,39
717,773	0,39
718,211	0,39
718,649	0,39
719,087	0,39
719,525	0,39
719,963	0,39
720,401	0,39
720,839	0,39
721,277	0,39
721,715	0,39
722,153	0,39
722,591	0,39
723,029	0,39
723,467	0,39
723,905	0,39
724,342	0,39
724,78	0,39
725,218	0,39
725,656	0,39
726,093	0,39
726,531	0,39
726,969	0,39
727,406	0,39
727,844	0,39
728,281	0,39
728,719	0,39
729,156	0,39
729,594	0,38
730,031	0,38
730,469	0,38
730,906	0,38
731,343	0,38
731,781	0,38
732,218	0,38
732,655	0,38
733,092	0,38
733,53	0,38
733,967	0,38
734,404	0,38
734,841	0,38
735,278	0,38
735,715	0,38
736,152	0,38
736,589	0,38
737,026	0,38
737,463	0,38
737,9	0,38
738,337	0,38
738,774	0,38
739,211	0,38
739,647	0,38
740,084	0,38
740,521	0,38
740,958	0,38
741,394	0,38
741,831	0,38
742,268	0,38
742,704	0,38
743,141	0,38
743,577	0,38
744,014	0,38
744,45	0,38
744,887	0,38
745,323	0,37
745,76	0,37
746,196	0,37
746,632	0,37
747,069	0,37
747,505	0,37
747,941	0,37
748,378	0,37
748,814	0,37
749,25	0,37
749,686	0,37
750,122	0,37
750,558	0,38
750,994	0,38
751,43	0,38
751,866	0,38
752,302	0,38
752,738	0,38
753,174	0,38
753,61	0,38
754,046	0,38
754,482	0,38
754,918	0,38
755,354	0,38
755,789	0,38
756,225	0,38
756,661	0,38
757,096	0,38
757,532	0,37
757,968	0,37
758,403	0,37
758,839	0,37
759,274	0,37
759,71	0,36
760,145	0,36
760,581	0,35
761,016	0,35
761,452	0,34
761,887	0,34
762,322	0,34
762,758	0,33
763,193	0,33
763,628	0,32
764,063	0,32
764,499	0,31
764,934	0,31
765,369	0,3
765,804	0,29
766,239	0,29
766,674	0,28
767,109	0,27
767,544	0,26
767,979	0,26
768,414	0,25
768,849	0,24
769,284	0,23
769,719	0,23
770,154	0,22
770,588	0,21
771,023	0,2
771,458	0,19
771,893	0,18
772,327	0,17
772,762	0,16
773,197	0,15
773,631	0,14
774,066	0,13
774,5	0,12
774,935	0,11
775,369	0,1
775,804	0,09
776,238	0,08
776,673	0,07
777,107	0,06
777,541	0,05
777,976	0,04
778,41	0,03
778,844	0,02
779,279	0,02
779,713	0,01
780,147	0
780,581	-0
781,015	-0,01
781,449	-0,02
781,883	-0,03
782,317	-0,04
782,751	-0,05
783,185	-0,06
783,619	-0,07
784,053	-0,07
784,487	-0,08
784,921	-0,09
785,355	-0,09
785,789	-0,1
786,223	-0,11
786,656	-0,12
787,09	-0,13
787,524	-0,13
787,957	-0,15
788,391	-0,17
788,825	-0,18
789,258	-0,2
789,692	-0,21
790,125	-0,23
790,559	-0,24
790,992	-0,26
791,426	-0,29
791,859	-0,3
792,293	-0,33
792,726	-0,34
793,159	-0,36
793,593	-0,38
794,026	-0,4
794,459	-0,43
794,892	-0,45
795,326	-0,48
795,759	-0,51
796,192	-0,55
796,625	-0,59
797,058	-0,62
797,491	-0,66
797,924	-0,7
798,357	-0,74
798,79	-0,78
799,223	-0,82
799,656	-0,87
800,089	-0,92
800,522	-0,96
800,955	-1
801,387	-1,06
801,82	-1,11
802,253	-1,17
802,686	-1,25
803,118	-1,31
803,551	-1,36
803,984	-1,4
804,416	-1,43
804,849	-1,46
805,281	-1,56
805,714	-1,93
806,146	-2,4
806,579	-2,68
807,011	-2,85
807,444	-2,95
807,876	-3,04
808,308	-3,07
808,741	-3,1
809,173	-3,15
809,605	-3,17
810,037	-3,25
810,47	-3,17
810,902	-2,98
811,334	-2,83
811,766	-2,67
812,198	-2,43
812,63	-1,99
813,062	-1,76
813,494	-1,66
813,926	-1,57
814,358	-1,52
814,79	-1,44
815,222	-1,38
815,654	-1,34
816,086	-1,27
816,518	-1,22
816,949	-1,17
817,381	-1,12
817,813	-1,1
818,245	-1,06
818,676	-1,02
819,108	-0,99
819,54	-0,98
819,971	-0,95
820,403	-0,9
820,834	-0,89
821,266	-0,85
821,697	-0,83
822,129	-0,82
822,56	-0,79
822,991	-0,78
823,423	-0,75
823,854	-0,74
824,286	-0,72
824,717	-0,71
825,148	-0,69
825,579	-0,69
826,01	-0,67
826,442	-0,66
826,873	-0,64
827,304	-0,61
827,735	-0,61
828,166	-0,61
828,597	-0,61
829,028	-0,6
829,459	-0,61
829,89	-0,61
830,321	-0,56
830,752	-0,57
831,183	-0,56
831,613	-0,55
832,044	-0,55
832,475	-0,53
832,906	-0,55
833,336	-0,55
833,767	-0,56
834,198	-0,55
834,628	-0,53
835,059	-0,56
835,49	-0,57
835,92	-0,54
836,351	-0,54
836,781	-0,56
837,212	-0,58
837,642	-0,58
838,072	-0,55
838,503	-0,56
838,933	-0,55
839,364	-0,56
839,794	-0,54
840,224	-0,53
840,654	-0,57
841,085	-0,58
841,515	-0,55
841,945	-0,55
842,375	-0,5
842,805	-0,49
843,235	-0,48
843,665	-0,49
844,095	-0,47
844,525	-0,5
844,955	-0,5
845,385	-0,48
845,815	-0,47
846,245	-0,49
846,675	-0,5
847,105	-0,52
847,534	-0,52
847,964	-0,5
848,394	-0,49
848,824	-0,53
849,253	-0,51
849,683	-0,51
850,112	-0,52
850,542	-0,56
850,972	-0,56
851,401	-0,54
851,831	-0,52
852,26	-0,53
852,69	-0,56
853,119	-0,56
853,548	-0,56
853,978	-0,57
854,407	-0,55
854,836	-0,54
855,266	-0,52
855,695	-0,54
856,124	-0,55
856,553	-0,56
856,983	-0,57
857,412	-0,56
857,841	-0,57
858,27	-0,58
858,699	-0,58
859,128	-0,61
859,557	-0,62
859,986	-0,64
860,415	-0,61
860,844	-0,58
861,273	-0,59
861,702	-0,6
862,13	-0,59
862,559	-0,6
862,988	-0,58
863,417	-0,57
863,845	-0,57
864,274	-0,58
864,703	-0,57
865,131	-0,58
865,56	-0,59
865,989	-0,62
866,417	-0,59
866,846	-0,59
867,274	-0,59
867,703	-0,6
868,131	-0,62
868,559	-0,62
868,988	-0,62
869,416	-0,62
869,844	-0,63
870,273	-0,66
870,701	-0,63
871,129	-0,66
871,557	-0,68
871,986	-0,68
872,414	-0,7
872,842	-0,67
873,27	-0,65
873,698	-0,62
874,126	-0,66
874,554	-0,64
874,982	-0,63
875,41	-0,66
875,838	-0,62
876,266	-0,59
876,694	-0,59
877,122	-0,58
877,549	-0,64
877,977	-0,61
878,405	-0,64
878,833	-0,61
879,26	-0,59
879,688	-0,6
880,116	-0,58
880,543	-0,55
880,971	-0,54
881,399	-0,58
881,826	-0,58
882,254	-0,56
882,681	-0,59
883,109	-0,55
883,536	-0,57
883,963	-0,58
884,391	-0,57
884,818	-0,56
885,245	-0,6
885,673	-0,62
886,1	-0,59
886,527	-0,59
886,954	-0,56
887,381	-0,58
887,809	-0,59
888,236	-0,6
888,663	-0,61
889,09	-0,64
889,517	-0,66
889,944	-0,66
890,371	-0,65
890,798	-0,66
891,225	-0,65
891,652	-0,69
892,078	-0,65
892,505	-0,68
892,932	-0,64
893,359	-0,64
893,786	-0,63
894,212	-0,6
894,639	-0,61
895,066	-0,64
895,492	-0,58
895,919	-0,58
896,346	-0,58
896,772	-0,59
897,199	-0,56
897,625	-0,58
898,052	-0,55
898,478	-0,54
898,904	-0,56
899,331	-0,55
899,757	-0,57
900,183	-0,59
900,61	-0,57
901,036	-0,57
901,462	-0,56
901,888	-0,56
902,315	-0,55
902,741	-0,6
903,167	-0,57
903,593	-0,6
904,019	-0,58
904,445	-0,55
904,871	-0,57
905,297	-0,6
905,723	-0,59
906,149	-0,58
906,575	-0,58
907,001	-0,59
907,427	-0,55
907,852	-0,56
908,278	-0,57
908,704	-0,55
909,13	-0,55
909,555	-0,54
909,981	-0,53
910,407	-0,54
910,832	-0,53
911,258	-0,54
911,684	-0,54
912,109	-0,54
912,535	-0,56
912,96	-0,52
913,386	-0,56
913,811	-0,56
914,236	-0,57
914,662	-0,55
915,087	-0,58
915,512	-0,58
915,938	-0,6
916,363	-0,59
916,788	-0,6
917,213	-0,58
917,639	-0,63
918,064	-0,6
918,489	-0,61
918,914	-0,61
919,339	-0,62
919,764	-0,6
920,189	-0,61
920,614	-0,62
921,039	-0,63
921,464	-0,58
921,889	-0,61
922,314	-0,62
922,738	-0,65
923,163	-0,66
923,588	-0,66
924,013	-0,66
924,437	-0,66
924,862	-0,67
925,287	-0,64
925,711	-0,65
926,136	-0,66
926,561	-0,64
926,985	-0,63
927,41	-0,61
927,834	-0,58
928,259	-0,55
928,683	-0,53
929,108	-0,49
929,532	-0,5
929,956	-0,5
930,381	-0,49
930,805	-0,49
931,229	-0,49
931,653	-0,48
932,078	-0,47
932,502	-0,49
932,926	-0,5
933,35	-0,49
933,774	-0,49
934,198	-0,47
934,622	-0,45
935,046	-0,46
935,47	-0,46
935,894	-0,45
936,318	-0,45
936,742	-0,44
937,166	-0,45
937,59	-0,44
938,014	-0,47
938,437	-0,48
938,861	-0,5
939,285	-0,52
939,709	-0,51
940,132	-0,51
940,556	-0,51
940,98	-0,52
941,403	-0,5
941,827	-0,51
942,25	-0,52
942,674	-0,51
943,097	-0,5
943,521	-0,5
943,944	-0,51
944,368	-0,5
944,791	-0,49
945,214	-0,51
945,638	-0,51
946,061	-0,55
946,484	-0,55
946,907	-0,54
947,331	-0,53
947,754	-0,57
948,177	-0,54
948,6	-0,54
949,023	-0,54
949,446	-0,53
949,869	-0,51
950,292	-0,52
950,715	-0,49
951,138	-0,47
951,561	-0,45
951,984	-0,45
952,407	-0,43
952,83	-0,42
953,252	-0,39
953,675	-0,39
954,098	-0,4
954,521	-0,39
954,943	-0,38
955,366	-0,38
955,789	-0,36
956,211	-0,39
956,634	-0,39
957,056	-0,36
957,479	-0,37
957,902	-0,38
958,324	-0,38
958,746	-0,37
959,169	-0,38
959,591	-0,38
960,014	-0,4
960,436	-0,39
960,858	-0,39
961,281	-0,39
961,703	-0,4
962,125	-0,4
962,547	-0,39
962,969	-0,39
963,391	-0,4
963,814	-0,4
964,236	-0,39
964,658	-0,36
965,08	-0,37
965,502	-0,36
965,924	-0,33
966,346	-0,33
966,768	-0,32
967,189	-0,35
967,611	-0,34
968,033	-0,34
968,455	-0,31
968,877	-0,33
969,298	-0,34
969,72	-0,35
970,142	-0,34
970,563	-0,35
970,985	-0,34
971,407	-0,33
971,828	-0,3
972,25	-0,3
972,671	-0,28
973,093	-0,28
973,514	-0,26
973,936	-0,24
974,357	-0,23
974,778	-0,23
975,2	-0,23
975,621	-0,21
976,042	-0,2
976,464	-0,19
976,885	-0,18
977,306	-0,17
977,727	-0,17
978,148	-0,16
978,57	-0,15
978,991	-0,13
979,412	-0,11
979,833	-0,11
980,254	-0,11
980,675	-0,11
981,096	-0,1
981,517	-0,08
981,937	-0,08
982,358	-0,06
982,779	-0,04
983,2	-0,04
983,621	-0,04
984,042	-0,02
984,462	-0,01
984,883	0,01
985,304	0,02
985,724	0,04
986,145	0,04
986,565	0,06
986,986	0,06
987,407	0,07
987,827	0,08
988,248	0,1
988,668	0,11
989,088	0,12
989,509	0,13
989,929	0,13
990,35	0,15
990,77	0,16
991,19	0,17
991,61	0,18
992,031	0,19
992,451	0,2
992,871	0,21
993,291	0,22
993,711	0,23
994,131	0,23
994,551	0,24
994,971	0,25
995,391	0,26
995,811	0,27
996,231	0,27
996,651	0,28
997,071	0,28
997,491	0,29
997,911	0,3
998,331	0,3
998,75	0,31
999,17	0,32
999,59	0,32
1000,009	0,32
1000,429	0,33
1000,849	0,34
1001,268	0,34
1001,688	0,34
1002,107	0,35
1002,527	0,35
1002,946	0,35
1003,366	0,35
1003,785	0,36
1004,205	0,36
1004,624	0,36
1005,044	0,37
1005,463	0,37
1005,882	0,37
1006,301	0,37
1006,721	0,37
1007,14	0,38
1007,559	0,38
1007,978	0,38
1008,397	0,38
1008,816	0,38
1009,235	0,38
1009,655	0,38
1010,074	0,37
1010,492	0,37
1010,911	0,37
1011,33	0,37
1011,749	0,37
1012,168	0,37
1012,587	0,37
1013,006	0,37
1013,425	0,37
1013,843	0,37
1014,262	0,37
1014,681	0,37
1015,099	0,37
1015,518	0,37
1015,937	0,37
1016,355	0,37
1016,774	0,37
1017,192	0,37
1017,611	0,37
1018,029	0,37
1018,448	0,37
1018,866	0,37
1019,285	0,37
1019,703	0,37
1020,121	0,37
1020,54	0,37
1020,958	0,37
1021,376	0,37
1021,794	0,37
1022,213	0,37
1022,631	0,37
1023,049	0,36
1023,467	0,36
1023,885	0,36
1024,303	0,36
1024,721	0,36
1025,139	0,36
1025,557	0,36
1025,975	0,36
1026,393	0,36
1026,811	0,36
1027,229	0,36
1027,647	0,36
1028,065	0,36
1028,482	0,35
1028,9	0,35
1029,318	0,35
1029,735	0,35
1030,153	0,35
1030,571	0,35
1030,988	0,35
1031,406	0,35
1031,823	0,35
1032,241	0,35
1032,659	0,35
1033,076	0,35
1033,493	0,36
1033,911	0,36
1034,328	0,36
1034,746	0,36
1035,163	0,36
1035,58	0,36
1035,997	0,36
1036,415	0,36
1036,832	0,36
1037,249	0,36
1037,666	0,36
1038,083	0,36
1038,501	0,36
1038,918	0,36
1039,335	0,36
1039,752	0,36
1040,169	0,36
1040,586	0,36
1041,003	0,36
1041,419	0,36
1041,836	0,35
1042,253	0,35
1042,67	0,35
1043,087	0,35
1043,504	0,35
1043,92	0,35
1044,337	0,35
1044,754	0,35
1045,17	0,35
1045,587	0,35
1046,004	0,35
1046,42	0,35
1046,837	0,35
1047,253	0,35
1047,67	0,35
1048,086	0,35
1048,503	0,35
1048,919	0,35
1049,335	0,35
1049,752	0,35
1050,168	0,35
1050,584	0,35
1051,001	0,35
1051,417	0,35
1051,833	0,35
1052,249	0,35
1052,665	0,35
1053,081	0,35
1053,497	0,35
1053,914	0,36
1054,33	0,36
1054,746	0,36
1055,162	0,36
1055,578	0,36
1055,993	0,36
1056,409	0,36
1056,825	0,36
1057,241	0,36
1057,657	0,36
1058,073	0,36
1058,488	0,36
1058,904	0,36
1059,32	0,36
1059,736	0,36
1060,151	0,36
1060,567	0,36
1060,982	0,36
1061,398	0,36
1061,813	0,36
1062,229	0,36
1062,644	0,36
1063,06	0,36
1063,475	0,36
1063,891	0,36
1064,306	0,36
1064,721	0,36
1065,137	0,36
1065,552	0,36
1065,967	0,36
1066,382	0,36
1066,798	0,36
1067,213	0,36
1067,628	0,36
1068,043	0,36
1068,458	0,36
1068,873	0,36
1069,288	0,36
1069,703	0,36
1070,118	0,36
1070,533	0,36
1070,948	0,36
1071,363	0,36
1071,778	0,36
1072,193	0,36
1072,607	0,36
1073,022	0,36
1073,437	0,36
1073,852	0,36
1074,266	0,36
1074,681	0,36
1075,096	0,36
1075,51	0,36
1075,925	0,36
1076,339	0,36
1076,754	0,36
1077,168	0,36
1077,583	0,36
1077,997	0,36
1078,412	0,36
1078,826	0,36
1079,24	0,36
1079,655	0,36
1080,069	0,36
1080,483	0,36
1080,897	0,35
1081,312	0,35
1081,726	0,35
1082,14	0,35
1082,554	0,35
1082,968	0,35
1083,382	0,35
1083,796	0,35
1084,21	0,35
1084,624	0,34
1085,038	0,34
1085,452	0,34
1085,866	0,34
1086,28	0,34
1086,694	0,34
1087,108	0,34
1087,521	0,34
1087,935	0,34
1088,349	0,34
1088,763	0,33
1089,176	0,33
1089,59	0,33
1090,004	0,33
1090,417	0,32
1090,831	0,32
1091,244	0,32
1091,658	0,31
1092,071	0,31
1092,485	0,31
1092,898	0,3
1093,312	0,3
1093,725	0,3
1094,138	0,3
1094,552	0,3
1094,965	0,29
1095,378	0,29
1095,791	0,29
1096,205	0,29
1096,618	0,29
1097,031	0,28
1097,444	0,28
1097,857	0,28
1098,27	0,28
1098,683	0,27
1099,096	0,27
1099,509	0,27
1099,922	0,27
1100,335	0,26
1100,748	0,26
1101,161	0,25
1101,574	0,25
1101,986	0,24
1102,399	0,24
1102,812	0,24
1103,225	0,23
1103,637	0,23
1104,05	0,23
1104,463	0,23
1104,875	0,23
1105,288	0,22
1105,7	0,22
1106,113	0,22
1106,525	0,21
1106,938	0,21
1107,35	0,2
1107,763	0,2
1108,175	0,2
1108,588	0,19
1109	0,19
1109,412	0,18
1109,824	0,18
1110,237	0,18
1110,649	0,18
1111,061	0,15
