Data from 18C-808nm-8A-cont_Absorbance__442__01871.txt Node

Date: Mon Jul 17 17:35:00 CEST 2023
User: Laser008
Spectrometer: MAYP115816
Trigger mode: 0
Integration Time (sec): 2,500000E-1
Scans to average: 10
Electric dark correction enabled: true
Nonlinearity correction enabled: true
Boxcar width: 5
XAxis mode: Wavelengths
Number of Pixels in Spectrum: 2068
>>>>>Begin Spectral Data<<<<<
198,914	-0,72
199,384	-0,51
199,855	-0,38
200,325	-0,3
200,796	-0,26
201,266	-0,2
201,737	-0,18
202,207	-0,18
202,677	-0,17
203,147	-0,16
203,618	-0,13
204,088	-0,11
204,558	-0,1
205,028	-0,09
205,498	-0,1
205,968	-0,1
206,439	-0,12
206,909	-0,11
207,379	-0,11
207,849	-0,11
208,319	-0,11
208,789	-0,11
209,258	-0,11
209,728	-0,12
210,198	-0,13
210,668	-0,12
211,138	-0,12
211,608	-0,12
212,077	-0,12
212,547	-0,11
213,017	-0,12
213,486	-0,12
213,956	-0,13
214,426	-0,15
214,895	-0,15
215,365	-0,15
215,834	-0,15
216,304	-0,16
216,773	-0,16
217,243	-0,17
217,712	-0,18
218,181	-0,18
218,651	-0,19
219,12	-0,19
219,589	-0,18
220,058	-0,17
220,528	-0,18
220,997	-0,18
221,466	-0,19
221,935	-0,19
222,404	-0,19
222,873	-0,18
223,342	-0,18
223,812	-0,17
224,281	-0,16
224,749	-0,16
225,218	-0,18
225,687	-0,18
226,156	-0,17
226,625	-0,16
227,094	-0,16
227,563	-0,16
228,031	-0,18
228,5	-0,18
228,969	-0,19
229,438	-0,19
229,906	-0,18
230,375	-0,17
230,844	-0,17
231,312	-0,17
231,781	-0,18
232,249	-0,18
232,718	-0,17
233,186	-0,15
233,655	-0,16
234,123	-0,15
234,591	-0,16
235,06	-0,17
235,528	-0,17
235,996	-0,15
236,465	-0,16
236,933	-0,15
237,401	-0,14
237,869	-0,13
238,337	-0,14
238,805	-0,12
239,274	-0,11
239,742	-0,11
240,21	-0,11
240,678	-0,1
241,146	-0,09
241,614	-0,08
242,081	-0,08
242,549	-0,08
243,017	-0,09
243,485	-0,09
243,953	-0,1
244,421	-0,11
244,888	-0,11
245,356	-0,11
245,824	-0,11
246,291	-0,11
246,759	-0,12
247,227	-0,12
247,694	-0,11
248,162	-0,1
248,629	-0,09
249,097	-0,09
249,564	-0,1
250,032	-0,1
250,499	-0,1
250,967	-0,11
251,434	-0,12
251,901	-0,12
252,369	-0,13
252,836	-0,14
253,303	-0,16
253,77	-0,17
254,237	-0,17
254,705	-0,17
255,172	-0,16
255,639	-0,16
256,106	-0,17
256,573	-0,16
257,04	-0,17
257,507	-0,17
257,974	-0,17
258,441	-0,14
258,908	-0,14
259,375	-0,16
259,841	-0,15
260,308	-0,17
260,775	-0,16
261,242	-0,16
261,709	-0,16
262,175	-0,17
262,642	-0,16
263,109	-0,16
263,575	-0,19
264,042	-0,17
264,508	-0,18
264,975	-0,2
265,441	-0,21
265,908	-0,22
266,374	-0,22
266,841	-0,22
267,307	-0,22
267,773	-0,21
268,24	-0,22
268,706	-0,21
269,172	-0,23
269,639	-0,23
270,105	-0,21
270,571	-0,21
271,037	-0,21
271,503	-0,22
271,969	-0,22
272,435	-0,21
272,902	-0,23
273,368	-0,23
273,834	-0,24
274,3	-0,24
274,765	-0,23
275,231	-0,23
275,697	-0,23
276,163	-0,23
276,629	-0,23
277,095	-0,24
277,56	-0,24
278,026	-0,24
278,492	-0,23
278,958	-0,22
279,423	-0,22
279,889	-0,21
280,354	-0,23
280,82	-0,22
281,286	-0,23
281,751	-0,23
282,217	-0,22
282,682	-0,22
283,147	-0,22
283,613	-0,23
284,078	-0,24
284,544	-0,26
285,009	-0,27
285,474	-0,25
285,939	-0,27
286,405	-0,26
286,87	-0,25
287,335	-0,25
287,8	-0,24
288,265	-0,22
288,73	-0,24
289,195	-0,26
289,66	-0,25
290,125	-0,23
290,59	-0,23
291,055	-0,22
291,52	-0,22
291,985	-0,22
292,45	-0,23
292,915	-0,23
293,38	-0,23
293,844	-0,2
294,309	-0,19
294,774	-0,18
295,239	-0,19
295,703	-0,2
296,168	-0,2
296,632	-0,2
297,097	-0,19
297,562	-0,17
298,026	-0,18
298,491	-0,18
298,955	-0,19
299,419	-0,18
299,884	-0,19
300,348	-0,18
300,813	-0,16
301,277	-0,17
301,741	-0,16
302,205	-0,16
302,67	-0,16
303,134	-0,16
303,598	-0,16
304,062	-0,14
304,526	-0,14
304,99	-0,15
305,454	-0,14
305,919	-0,14
306,383	-0,13
306,847	-0,13
307,31	-0,15
307,774	-0,15
308,238	-0,15
308,702	-0,14
309,166	-0,16
309,63	-0,16
310,094	-0,13
310,557	-0,13
311,021	-0,13
311,485	-0,13
311,948	-0,13
312,412	-0,12
312,876	-0,11
313,339	-0,12
313,803	-0,13
314,266	-0,12
314,73	-0,13
315,193	-0,13
315,657	-0,12
316,12	-0,12
316,584	-0,11
317,047	-0,1
317,51	-0,09
317,973	-0,09
318,437	-0,07
318,9	-0,05
319,363	-0,04
319,826	-0,03
320,29	-0,04
320,753	-0,04
321,216	-0,04
321,679	-0,05
322,142	-0,05
322,605	-0,06
323,068	-0,05
323,531	-0,06
323,994	-0,06
324,457	-0,06
324,92	-0,05
325,382	-0,04
325,845	-0,04
326,308	-0,03
326,771	-0,03
327,233	-0,03
327,696	-0,02
328,159	-0,01
328,622	-0,01
329,084	-0,01
329,547	0
330,009	0
330,472	0,01
330,934	0,02
331,397	0,03
331,859	0,03
332,322	0,04
332,784	0,04
333,246	0,05
333,709	0,05
334,171	0,07
334,633	0,08
335,096	0,07
335,558	0,08
336,02	0,07
336,482	0,08
336,944	0,09
337,406	0,1
337,868	0,1
338,331	0,09
338,793	0,1
339,255	0,1
339,717	0,1
340,178	0,12
340,64	0,12
341,102	0,13
341,564	0,14
342,026	0,16
342,488	0,17
342,949	0,18
343,411	0,22
343,873	0,24
344,335	0,27
344,796	0,31
345,258	0,35
345,719	0,4
346,181	0,45
346,643	0,49
347,104	0,53
347,566	0,57
348,027	0,6
348,488	0,63
348,95	0,65
349,411	0,68
349,873	0,71
350,334	0,73
350,795	0,75
351,256	0,77
351,718	0,78
352,179	0,79
352,64	0,79
353,101	0,79
353,562	0,8
354,023	0,8
354,484	0,8
354,945	0,81
355,406	0,81
355,867	0,81
356,328	0,82
356,789	0,82
357,25	0,82
357,711	0,82
358,172	0,82
358,633	0,83
359,093	0,83
359,554	0,83
360,015	0,83
360,476	0,83
360,936	0,83
361,397	0,84
361,858	0,84
362,318	0,84
362,779	0,84
363,239	0,84
363,7	0,84
364,16	0,84
364,621	0,84
365,081	0,84
365,541	0,84
366,002	0,84
366,462	0,84
366,922	0,84
367,383	0,84
367,843	0,84
368,303	0,84
368,763	0,84
369,223	0,84
369,684	0,84
370,144	0,84
370,604	0,84
371,064	0,84
371,524	0,84
371,984	0,84
372,444	0,84
372,904	0,84
373,363	0,84
373,823	0,84
374,283	0,84
374,743	0,84
375,203	0,84
375,663	0,84
376,122	0,84
376,582	0,84
377,042	0,84
377,501	0,84
377,961	0,84
378,42	0,84
378,88	0,84
379,34	0,84
379,799	0,84
380,259	0,84
380,718	0,83
381,177	0,83
381,637	0,83
382,096	0,83
382,555	0,83
383,015	0,83
383,474	0,83
383,933	0,83
384,393	0,83
384,852	0,83
385,311	0,83
385,77	0,83
386,229	0,83
386,688	0,83
387,147	0,83
387,606	0,83
388,065	0,83
388,524	0,83
388,983	0,83
389,442	0,83
389,901	0,83
390,36	0,83
390,819	0,83
391,277	0,83
391,736	0,83
392,195	0,82
392,654	0,82
393,112	0,82
393,571	0,82
394,03	0,82
394,488	0,82
394,947	0,82
395,405	0,82
395,864	0,82
396,322	0,82
396,781	0,82
397,239	0,82
397,698	0,82
398,156	0,82
398,614	0,82
399,073	0,82
399,531	0,82
399,989	0,82
400,447	0,82
400,905	0,82
401,364	0,82
401,822	0,82
402,28	0,82
402,738	0,82
403,196	0,82
403,654	0,82
404,112	0,82
404,57	0,82
405,028	0,82
405,486	0,82
405,944	0,82
406,402	0,81
406,859	0,81
407,317	0,82
407,775	0,82
408,233	0,82
408,691	0,82
409,148	0,82
409,606	0,82
410,064	0,81
410,521	0,81
410,979	0,81
411,436	0,81
411,894	0,81
412,351	0,81
412,809	0,81
413,266	0,81
413,724	0,81
414,181	0,81
414,638	0,81
415,096	0,81
415,553	0,81
416,01	0,81
416,467	0,81
416,925	0,81
417,382	0,81
417,839	0,81
418,296	0,81
418,753	0,81
419,21	0,81
419,667	0,81
420,124	0,81
420,581	0,81
421,038	0,81
421,495	0,81
421,952	0,81
422,409	0,81
422,866	0,81
423,322	0,81
423,779	0,81
424,236	0,81
424,693	0,81
425,149	0,81
425,606	0,81
426,063	0,81
426,519	0,81
426,976	0,81
427,433	0,81
427,889	0,81
428,346	0,81
428,802	0,81
429,258	0,81
429,715	0,81
430,171	0,81
430,628	0,81
431,084	0,81
431,54	0,81
431,997	0,81
432,453	0,81
432,909	0,81
433,365	0,81
433,821	0,8
434,277	0,8
434,734	0,8
435,19	0,8
435,646	0,8
436,102	0,8
436,558	0,8
437,014	0,8
437,47	0,8
437,925	0,8
438,381	0,81
438,837	0,81
439,293	0,81
439,749	0,81
440,205	0,81
440,66	0,81
441,116	0,81
441,572	0,81
442,027	0,81
442,483	0,81
442,939	0,81
443,394	0,81
443,85	0,81
444,305	0,81
444,761	0,81
445,216	0,81
445,672	0,81
446,127	0,81
446,582	0,81
447,038	0,81
447,493	0,81
447,948	0,81
448,403	0,81
448,859	0,81
449,314	0,81
449,769	0,81
450,224	0,81
450,679	0,81
451,134	0,81
451,589	0,81
452,044	0,82
452,499	0,82
452,954	0,82
453,409	0,82
453,864	0,82
454,319	0,82
454,774	0,82
455,229	0,82
455,684	0,82
456,138	0,82
456,593	0,82
457,048	0,82
457,503	0,82
457,957	0,82
458,412	0,82
458,866	0,82
459,321	0,82
459,776	0,82
460,23	0,82
460,685	0,82
461,139	0,82
461,593	0,82
462,048	0,82
462,502	0,82
462,957	0,83
463,411	0,83
463,865	0,83
464,319	0,83
464,774	0,83
465,228	0,83
465,682	0,83
466,136	0,83
466,59	0,83
467,044	0,83
467,499	0,83
467,953	0,83
468,407	0,84
468,861	0,84
469,315	0,84
469,768	0,84
470,222	0,84
470,676	0,84
471,13	0,84
471,584	0,84
472,038	0,84
472,491	0,84
472,945	0,84
473,399	0,85
473,852	0,85
474,306	0,85
474,76	0,85
475,213	0,85
475,667	0,85
476,12	0,85
476,574	0,86
477,027	0,86
477,481	0,86
477,934	0,86
478,388	0,86
478,841	0,86
479,294	0,87
479,748	0,87
480,201	0,87
480,654	0,87
481,107	0,87
481,561	0,88
482,014	0,88
482,467	0,88
482,92	0,88
483,373	0,88
483,826	0,88
484,279	0,89
484,732	0,89
485,185	0,89
485,638	0,89
486,091	0,9
486,544	0,9
486,997	0,9
487,449	0,9
487,902	0,91
488,355	0,91
488,808	0,91
489,26	0,91
489,713	0,92
490,166	0,92
490,618	0,92
491,071	0,92
491,523	0,93
491,976	0,93
492,429	0,93
492,881	0,94
493,333	0,94
493,786	0,94
494,238	0,95
494,691	0,95
495,143	0,95
495,595	0,96
496,048	0,96
496,5	0,96
496,952	0,97
497,404	0,97
497,856	0,98
498,309	0,98
498,761	0,99
499,213	0,99
499,665	0,99
500,117	1
500,569	1
501,021	1,01
501,473	1,01
501,925	1,02
502,377	1,02
502,828	1,02
503,28	1,03
503,732	1,03
504,184	1,04
504,636	1,04
505,087	1,04
505,539	1,05
505,991	1,05
506,442	1,06
506,894	1,06
507,345	1,06
507,797	1,07
508,249	1,07
508,7	1,08
509,151	1,08
509,603	1,09
510,054	1,09
510,506	1,09
510,957	1,1
511,408	1,1
511,86	1,1
512,311	1,11
512,762	1,11
513,213	1,12
513,665	1,12
514,116	1,12
514,567	1,13
515,018	1,13
515,469	1,13
515,92	1,14
516,371	1,14
516,822	1,14
517,273	1,15
517,724	1,15
518,175	1,15
518,626	1,16
519,076	1,16
519,527	1,16
519,978	1,16
520,429	1,17
520,88	1,17
521,33	1,17
521,781	1,17
522,232	1,17
522,682	1,17
523,133	1,18
523,583	1,18
524,034	1,18
524,484	1,18
524,935	1,18
525,385	1,18
525,836	1,18
526,286	1,18
526,736	1,18
527,187	1,18
527,637	1,18
528,087	1,18
528,538	1,18
528,988	1,18
529,438	1,18
529,888	1,18
530,338	1,18
530,788	1,17
531,238	1,17
531,688	1,17
532,139	1,17
532,589	1,17
533,038	1,17
533,488	1,17
533,938	1,16
534,388	1,16
534,838	1,16
535,288	1,15
535,738	1,15
536,187	1,15
536,637	1,14
537,087	1,14
537,537	1,13
537,986	1,13
538,436	1,12
538,885	1,12
539,335	1,11
539,785	1,11
540,234	1,1
540,684	1,1
541,133	1,1
541,582	1,09
542,032	1,09
542,481	1,08
542,931	1,07
543,38	1,07
543,829	1,06
544,278	1,06
544,728	1,05
545,177	1,05
545,626	1,04
546,075	1,04
546,524	1,03
546,973	1,03
547,422	1,02
547,871	1,02
548,32	1,02
548,769	1,01
549,218	1,01
549,667	1,01
550,116	1
550,565	1
551,014	0,99
551,463	0,99
551,911	0,98
552,36	0,98
552,809	0,97
553,258	0,97
553,706	0,96
554,155	0,96
554,603	0,95
555,052	0,95
555,501	0,94
555,949	0,94
556,398	0,93
556,846	0,93
557,294	0,92
557,743	0,92
558,191	0,91
558,64	0,91
559,088	0,9
559,536	0,89
559,985	0,89
560,433	0,88
560,881	0,88
561,329	0,88
561,777	0,87
562,225	0,87
562,674	0,86
563,122	0,86
563,57	0,85
564,018	0,85
564,466	0,85
564,914	0,84
565,362	0,84
565,809	0,83
566,257	0,83
566,705	0,82
567,153	0,82
567,601	0,81
568,048	0,81
568,496	0,8
568,944	0,8
569,392	0,8
569,839	0,79
570,287	0,79
570,734	0,78
571,182	0,78
571,63	0,78
572,077	0,77
572,525	0,77
572,972	0,77
573,419	0,76
573,867	0,76
574,314	0,75
574,761	0,75
575,209	0,75
575,656	0,74
576,103	0,74
576,551	0,74
576,998	0,73
577,445	0,73
577,892	0,73
578,339	0,72
578,786	0,72
579,233	0,71
579,68	0,71
580,127	0,71
580,574	0,71
581,021	0,7
581,468	0,7
581,915	0,7
582,362	0,69
582,809	0,69
583,255	0,69
583,702	0,69
584,149	0,69
584,596	0,68
585,042	0,68
585,489	0,67
585,936	0,67
586,382	0,67
586,829	0,67
587,275	0,67
587,722	0,66
588,168	0,66
588,615	0,66
589,061	0,66
589,508	0,65
589,954	0,65
590,4	0,65
590,847	0,65
591,293	0,64
591,739	0,64
592,185	0,64
592,632	0,64
593,078	0,64
593,524	0,64
593,97	0,63
594,416	0,63
594,862	0,63
595,308	0,63
595,754	0,63
596,2	0,63
596,646	0,62
597,092	0,62
597,538	0,62
597,984	0,62
598,43	0,62
598,876	0,62
599,321	0,61
599,767	0,61
600,213	0,61
600,659	0,61
601,104	0,61
601,55	0,61
601,995	0,61
602,441	0,6
602,887	0,6
603,332	0,6
603,778	0,6
604,223	0,6
604,668	0,6
605,114	0,6
605,559	0,6
606,005	0,59
606,45	0,59
606,895	0,59
607,341	0,59
607,786	0,59
608,231	0,59
608,676	0,58
609,121	0,57
609,566	0,57
610,012	0,56
610,457	0,56
610,902	0,56
611,347	0,55
611,792	0,55
612,237	0,55
612,682	0,55
613,127	0,55
613,571	0,55
614,016	0,55
614,461	0,55
614,906	0,56
615,351	0,56
615,795	0,56
616,24	0,56
616,685	0,56
617,129	0,56
617,574	0,56
618,019	0,56
618,463	0,56
618,908	0,56
619,352	0,56
619,797	0,56
620,241	0,56
620,686	0,56
621,13	0,56
621,574	0,55
622,019	0,55
622,463	0,55
622,907	0,55
623,352	0,55
623,796	0,55
624,24	0,55
624,684	0,55
625,128	0,55
625,572	0,55
626,016	0,55
626,461	0,55
626,905	0,55
627,349	0,55
627,793	0,55
628,236	0,54
628,68	0,54
629,124	0,54
629,568	0,54
630,012	0,54
630,456	0,54
630,9	0,54
631,343	0,54
631,787	0,54
632,231	0,54
632,674	0,54
633,118	0,54
633,562	0,54
634,005	0,54
634,449	0,54
634,892	0,54
635,336	0,54
635,779	0,54
636,223	0,54
636,666	0,54
637,109	0,54
637,553	0,54
637,996	0,54
638,439	0,54
638,883	0,53
639,326	0,53
639,769	0,53
640,212	0,53
640,655	0,53
641,099	0,53
641,542	0,53
641,985	0,53
642,428	0,53
642,871	0,53
643,314	0,53
643,757	0,52
644,2	0,52
644,643	0,52
645,085	0,52
645,528	0,52
645,971	0,52
646,414	0,52
646,857	0,52
647,299	0,52
647,742	0,52
648,185	0,52
648,627	0,52
649,07	0,52
649,513	0,52
649,955	0,52
650,398	0,52
650,84	0,52
651,283	0,52
651,725	0,52
652,168	0,52
652,61	0,52
653,052	0,52
653,495	0,52
653,937	0,43
654,379	0,37
654,821	0,38
655,264	0,38
655,706	0,38
656,148	0,38
656,59	0,38
657,032	0,38
657,474	0,38
657,916	0,38
658,358	0,37
658,8	0,44
659,242	0,52
659,684	0,52
660,126	0,51
660,568	0,51
661,01	0,51
661,452	0,51
661,894	0,51
662,335	0,51
662,777	0,51
663,219	0,51
663,661	0,51
664,102	0,51
664,544	0,51
664,985	0,51
665,427	0,51
665,869	0,51
666,31	0,51
666,752	0,51
667,193	0,51
667,634	0,51
668,076	0,51
668,517	0,51
668,959	0,51
669,4	0,51
669,841	0,51
670,282	0,51
670,724	0,51
671,165	0,51
671,606	0,51
672,047	0,51
672,488	0,51
672,929	0,51
673,37	0,51
673,811	0,51
674,252	0,51
674,693	0,5
675,134	0,5
675,575	0,5
676,016	0,5
676,457	0,5
676,898	0,5
677,339	0,5
677,78	0,5
678,22	0,5
678,661	0,5
679,102	0,5
679,542	0,5
679,983	0,5
680,424	0,5
680,864	0,5
681,305	0,5
681,745	0,5
682,186	0,5
682,626	0,5
683,067	0,5
683,507	0,5
683,948	0,5
684,388	0,5
684,828	0,5
685,269	0,5
685,709	0,5
686,149	0,5
686,589	0,5
687,029	0,5
687,47	0,5
687,91	0,5
688,35	0,5
688,79	0,49
689,23	0,49
689,67	0,49
690,11	0,49
690,55	0,49
690,99	0,49
691,43	0,49
691,87	0,49
692,31	0,49
692,749	0,49
693,189	0,49
693,629	0,49
694,069	0,48
694,508	0,48
694,948	0,48
695,388	0,48
695,827	0,48
696,267	0,49
696,706	0,49
697,146	0,49
697,586	0,49
698,025	0,49
698,464	0,49
698,904	0,49
699,343	0,49
699,783	0,49
700,222	0,49
700,661	0,49
701,101	0,49
701,54	0,49
701,979	0,49
702,418	0,49
702,857	0,49
703,297	0,49
703,736	0,49
704,175	0,49
704,614	0,49
705,053	0,49
705,492	0,49
705,931	0,49
706,37	0,49
706,809	0,49
707,248	0,49
707,687	0,49
708,125	0,49
708,564	0,49
709,003	0,49
709,442	0,49
709,88	0,49
710,319	0,48
710,758	0,48
711,196	0,48
711,635	0,48
712,074	0,48
712,512	0,48
712,951	0,48
713,389	0,48
713,828	0,48
714,266	0,48
714,705	0,48
715,143	0,48
715,581	0,48
716,02	0,48
716,458	0,48
716,896	0,48
717,334	0,48
717,773	0,48
718,211	0,48
718,649	0,48
719,087	0,48
719,525	0,48
719,963	0,48
720,401	0,48
720,839	0,48
721,277	0,48
721,715	0,48
722,153	0,48
722,591	0,48
723,029	0,48
723,467	0,48
723,905	0,48
724,342	0,48
724,78	0,48
725,218	0,48
725,656	0,48
726,093	0,48
726,531	0,48
726,969	0,48
727,406	0,48
727,844	0,48
728,281	0,48
728,719	0,48
729,156	0,48
729,594	0,48
730,031	0,48
730,469	0,48
730,906	0,47
731,343	0,47
731,781	0,47
732,218	0,47
732,655	0,47
733,092	0,47
733,53	0,47
733,967	0,47
734,404	0,47
734,841	0,47
735,278	0,47
735,715	0,46
736,152	0,46
736,589	0,46
737,026	0,46
737,463	0,46
737,9	0,46
738,337	0,46
738,774	0,46
739,211	0,46
739,647	0,46
740,084	0,46
740,521	0,46
740,958	0,47
741,394	0,47
741,831	0,47
742,268	0,47
742,704	0,47
743,141	0,47
743,577	0,47
744,014	0,47
744,45	0,46
744,887	0,46
745,323	0,46
745,76	0,46
746,196	0,46
746,632	0,46
747,069	0,46
747,505	0,46
747,941	0,46
748,378	0,46
748,814	0,46
749,25	0,46
749,686	0,46
750,122	0,46
750,558	0,46
750,994	0,46
751,43	0,46
751,866	0,47
752,302	0,47
752,738	0,47
753,174	0,47
753,61	0,47
754,046	0,47
754,482	0,46
754,918	0,46
755,354	0,46
755,789	0,46
756,225	0,46
756,661	0,46
757,096	0,46
757,532	0,46
757,968	0,45
758,403	0,45
758,839	0,45
759,274	0,44
759,71	0,44
760,145	0,44
760,581	0,43
761,016	0,42
761,452	0,42
761,887	0,41
762,322	0,41
762,758	0,4
763,193	0,4
763,628	0,39
764,063	0,38
764,499	0,38
764,934	0,37
765,369	0,36
765,804	0,35
766,239	0,35
766,674	0,34
767,109	0,33
767,544	0,32
767,979	0,31
768,414	0,3
768,849	0,29
769,284	0,28
769,719	0,27
770,154	0,26
770,588	0,25
771,023	0,24
771,458	0,23
771,893	0,22
772,327	0,21
772,762	0,19
773,197	0,18
773,631	0,17
774,066	0,17
774,5	0,15
774,935	0,14
775,369	0,13
775,804	0,11
776,238	0,1
776,673	0,09
777,107	0,08
777,541	0,08
777,976	0,07
778,41	0,06
778,844	0,05
779,279	0,05
779,713	0,04
780,147	0,03
780,581	0,02
781,015	0,01
781,449	-0,01
781,883	-0,01
782,317	-0,03
782,751	-0,04
783,185	-0,04
783,619	-0,05
784,053	-0,06
784,487	-0,07
784,921	-0,07
785,355	-0,08
785,789	-0,08
786,223	-0,09
786,656	-0,1
787,09	-0,12
787,524	-0,13
787,957	-0,14
788,391	-0,16
788,825	-0,18
789,258	-0,19
789,692	-0,21
790,125	-0,22
790,559	-0,24
790,992	-0,26
791,426	-0,29
791,859	-0,3
792,293	-0,33
792,726	-0,35
793,159	-0,37
793,593	-0,39
794,026	-0,41
794,459	-0,44
794,892	-0,47
795,326	-0,49
795,759	-0,53
796,192	-0,57
796,625	-0,61
797,058	-0,64
797,491	-0,68
797,924	-0,72
798,357	-0,77
798,79	-0,81
799,223	-0,85
799,656	-0,91
800,089	-0,95
800,522	-0,99
800,955	-1,04
801,387	-1,09
801,82	-1,15
802,253	-1,21
802,686	-1,29
803,118	-1,35
803,551	-1,4
803,984	-1,44
804,416	-1,48
804,849	-1,52
805,281	-1,69
805,714	-2,07
806,146	-2,49
806,579	-2,73
807,011	-2,89
807,444	-2,98
807,876	-3,06
808,308	-3,09
808,741	-3,12
809,173	-3,17
809,605	-3,19
810,037	-3,26
810,47	-3,17
810,902	-2,97
811,334	-2,82
811,766	-2,66
812,198	-2,4
812,63	-1,97
813,062	-1,77
813,494	-1,68
813,926	-1,59
814,358	-1,54
814,79	-1,46
815,222	-1,4
815,654	-1,35
816,086	-1,29
816,518	-1,23
816,949	-1,18
817,381	-1,14
817,813	-1,12
818,245	-1,08
818,676	-1,04
819,108	-1,01
819,54	-1
819,971	-0,97
820,403	-0,92
820,834	-0,91
821,266	-0,87
821,697	-0,85
822,129	-0,83
822,56	-0,81
822,991	-0,79
823,423	-0,76
823,854	-0,75
824,286	-0,72
824,717	-0,71
825,148	-0,69
825,579	-0,68
826,01	-0,67
826,442	-0,67
826,873	-0,65
827,304	-0,62
827,735	-0,61
828,166	-0,61
828,597	-0,61
829,028	-0,61
829,459	-0,62
829,89	-0,63
830,321	-0,59
830,752	-0,6
831,183	-0,59
831,613	-0,58
832,044	-0,57
832,475	-0,56
832,906	-0,57
833,336	-0,57
833,767	-0,58
834,198	-0,56
834,628	-0,53
835,059	-0,56
835,49	-0,57
835,92	-0,53
836,351	-0,53
836,781	-0,54
837,212	-0,56
837,642	-0,56
838,072	-0,54
838,503	-0,55
838,933	-0,53
839,364	-0,54
839,794	-0,52
840,224	-0,51
840,654	-0,55
841,085	-0,56
841,515	-0,54
841,945	-0,54
842,375	-0,49
842,805	-0,48
843,235	-0,46
843,665	-0,48
844,095	-0,47
844,525	-0,49
844,955	-0,5
845,385	-0,47
845,815	-0,45
846,245	-0,47
846,675	-0,48
847,105	-0,5
847,534	-0,51
847,964	-0,49
848,394	-0,48
848,824	-0,51
849,253	-0,51
849,683	-0,5
850,112	-0,51
850,542	-0,55
850,972	-0,55
851,401	-0,52
851,831	-0,51
852,26	-0,51
852,69	-0,55
853,119	-0,55
853,548	-0,55
853,978	-0,54
854,407	-0,53
854,836	-0,53
855,266	-0,52
855,695	-0,54
856,124	-0,56
856,553	-0,57
856,983	-0,59
857,412	-0,57
857,841	-0,58
858,27	-0,58
858,699	-0,59
859,128	-0,62
859,557	-0,63
859,986	-0,64
860,415	-0,61
860,844	-0,59
861,273	-0,59
861,702	-0,6
862,13	-0,59
862,559	-0,6
862,988	-0,59
863,417	-0,57
863,845	-0,56
864,274	-0,57
864,703	-0,57
865,131	-0,57
865,56	-0,58
865,989	-0,6
866,417	-0,57
866,846	-0,57
867,274	-0,57
867,703	-0,59
868,131	-0,6
868,559	-0,61
868,988	-0,62
869,416	-0,61
869,844	-0,62
870,273	-0,65
870,701	-0,63
871,129	-0,67
871,557	-0,7
871,986	-0,71
872,414	-0,72
872,842	-0,69
873,27	-0,66
873,698	-0,64
874,126	-0,68
874,554	-0,66
874,982	-0,65
875,41	-0,68
875,838	-0,63
876,266	-0,6
876,694	-0,6
877,122	-0,59
877,549	-0,65
877,977	-0,62
878,405	-0,65
878,833	-0,61
879,26	-0,61
879,688	-0,61
880,116	-0,6
880,543	-0,58
880,971	-0,57
881,399	-0,59
881,826	-0,6
882,254	-0,59
882,681	-0,63
883,109	-0,58
883,536	-0,6
883,963	-0,61
884,391	-0,59
884,818	-0,58
885,245	-0,61
885,673	-0,63
886,1	-0,6
886,527	-0,6
886,954	-0,56
887,381	-0,58
887,809	-0,59
888,236	-0,59
888,663	-0,61
889,09	-0,65
889,517	-0,68
889,944	-0,67
890,371	-0,66
890,798	-0,66
891,225	-0,66
891,652	-0,68
892,078	-0,66
892,505	-0,69
892,932	-0,64
893,359	-0,65
893,786	-0,64
894,212	-0,6
894,639	-0,62
895,066	-0,64
895,492	-0,58
895,919	-0,59
896,346	-0,58
896,772	-0,58
897,199	-0,56
897,625	-0,59
898,052	-0,56
898,478	-0,54
898,904	-0,55
899,331	-0,55
899,757	-0,57
900,183	-0,6
900,61	-0,57
901,036	-0,57
901,462	-0,57
901,888	-0,57
902,315	-0,55
902,741	-0,6
903,167	-0,59
903,593	-0,62
904,019	-0,6
904,445	-0,57
904,871	-0,6
905,297	-0,62
905,723	-0,62
906,149	-0,6
906,575	-0,61
907,001	-0,61
907,427	-0,58
907,852	-0,57
908,278	-0,58
908,704	-0,56
909,13	-0,56
909,555	-0,55
909,981	-0,54
910,407	-0,55
910,832	-0,54
911,258	-0,55
911,684	-0,56
912,109	-0,55
912,535	-0,56
912,96	-0,51
913,386	-0,56
913,811	-0,55
914,236	-0,57
914,662	-0,56
915,087	-0,59
915,512	-0,6
915,938	-0,62
916,363	-0,61
916,788	-0,62
917,213	-0,6
917,639	-0,66
918,064	-0,63
918,489	-0,63
918,914	-0,63
919,339	-0,64
919,764	-0,6
920,189	-0,6
920,614	-0,62
921,039	-0,62
921,464	-0,57
921,889	-0,6
922,314	-0,6
922,738	-0,64
923,163	-0,66
923,588	-0,66
924,013	-0,65
924,437	-0,65
924,862	-0,66
925,287	-0,62
925,711	-0,64
926,136	-0,66
926,561	-0,64
926,985	-0,64
927,41	-0,6
927,834	-0,57
928,259	-0,54
928,683	-0,53
929,108	-0,5
929,532	-0,51
929,956	-0,5
930,381	-0,49
930,805	-0,5
931,229	-0,49
931,653	-0,47
932,078	-0,46
932,502	-0,47
932,926	-0,48
933,35	-0,48
933,774	-0,47
934,198	-0,45
934,622	-0,45
935,046	-0,45
935,47	-0,45
935,894	-0,45
936,318	-0,45
936,742	-0,45
937,166	-0,46
937,59	-0,45
938,014	-0,47
938,437	-0,48
938,861	-0,51
939,285	-0,51
939,709	-0,5
940,132	-0,51
940,556	-0,51
940,98	-0,51
941,403	-0,5
941,827	-0,5
942,25	-0,52
942,674	-0,5
943,097	-0,49
943,521	-0,49
943,944	-0,49
944,368	-0,48
944,791	-0,46
945,214	-0,48
945,638	-0,49
946,061	-0,51
946,484	-0,52
946,907	-0,5
947,331	-0,5
947,754	-0,54
948,177	-0,5
948,6	-0,52
949,023	-0,52
949,446	-0,52
949,869	-0,5
950,292	-0,5
950,715	-0,47
951,138	-0,46
951,561	-0,44
951,984	-0,45
952,407	-0,44
952,83	-0,44
953,252	-0,4
953,675	-0,38
954,098	-0,39
954,521	-0,38
954,943	-0,37
955,366	-0,37
955,789	-0,35
956,211	-0,37
956,634	-0,37
957,056	-0,35
957,479	-0,35
957,902	-0,37
958,324	-0,38
958,746	-0,37
959,169	-0,38
959,591	-0,38
960,014	-0,39
960,436	-0,4
960,858	-0,39
961,281	-0,39
961,703	-0,39
962,125	-0,4
962,547	-0,37
962,969	-0,38
963,391	-0,38
963,814	-0,4
964,236	-0,39
964,658	-0,36
965,08	-0,36
965,502	-0,36
965,924	-0,33
966,346	-0,34
966,768	-0,33
967,189	-0,36
967,611	-0,35
968,033	-0,35
968,455	-0,33
968,877	-0,34
969,298	-0,35
969,72	-0,36
970,142	-0,35
970,563	-0,35
970,985	-0,33
971,407	-0,32
971,828	-0,3
972,25	-0,29
972,671	-0,28
973,093	-0,28
973,514	-0,25
973,936	-0,23
974,357	-0,22
974,778	-0,22
975,2	-0,21
975,621	-0,21
976,042	-0,19
976,464	-0,19
976,885	-0,18
977,306	-0,17
977,727	-0,16
978,148	-0,16
978,57	-0,15
978,991	-0,13
979,412	-0,12
979,833	-0,11
980,254	-0,1
980,675	-0,11
981,096	-0,1
981,517	-0,08
981,937	-0,07
982,358	-0,05
982,779	-0,03
983,2	-0,02
983,621	-0,02
984,042	-0
984,462	0,01
984,883	0,02
985,304	0,04
985,724	0,06
986,145	0,07
986,565	0,09
986,986	0,09
987,407	0,1
987,827	0,12
988,248	0,13
988,668	0,14
989,088	0,16
989,509	0,17
989,929	0,18
990,35	0,19
990,77	0,21
991,19	0,21
991,61	0,23
992,031	0,24
992,451	0,25
992,871	0,26
993,291	0,27
993,711	0,28
994,131	0,29
994,551	0,3
994,971	0,3
995,391	0,31
995,811	0,32
996,231	0,33
996,651	0,33
997,071	0,34
997,491	0,35
997,911	0,35
998,331	0,36
998,75	0,37
999,17	0,38
999,59	0,39
1000,009	0,39
1000,429	0,4
1000,849	0,4
1001,268	0,41
1001,688	0,41
1002,107	0,42
1002,527	0,42
1002,946	0,43
1003,366	0,43
1003,785	0,44
1004,205	0,44
1004,624	0,44
1005,044	0,44
1005,463	0,45
1005,882	0,45
1006,301	0,45
1006,721	0,45
1007,14	0,46
1007,559	0,46
1007,978	0,46
1008,397	0,46
1008,816	0,46
1009,235	0,46
1009,655	0,46
1010,074	0,46
1010,492	0,46
1010,911	0,46
1011,33	0,46
1011,749	0,46
1012,168	0,46
1012,587	0,46
1013,006	0,46
1013,425	0,46
1013,843	0,45
1014,262	0,45
1014,681	0,45
1015,099	0,45
1015,518	0,45
1015,937	0,45
1016,355	0,45
1016,774	0,45
1017,192	0,45
1017,611	0,45
1018,029	0,45
1018,448	0,45
1018,866	0,45
1019,285	0,45
1019,703	0,45
1020,121	0,45
1020,54	0,45
1020,958	0,45
1021,376	0,45
1021,794	0,45
1022,213	0,45
1022,631	0,45
1023,049	0,44
1023,467	0,44
1023,885	0,44
1024,303	0,44
1024,721	0,44
1025,139	0,44
1025,557	0,44
1025,975	0,44
1026,393	0,44
1026,811	0,43
1027,229	0,43
1027,647	0,43
1028,065	0,43
1028,482	0,43
1028,9	0,43
1029,318	0,43
1029,735	0,43
1030,153	0,43
1030,571	0,43
1030,988	0,43
1031,406	0,43
1031,823	0,43
1032,241	0,43
1032,659	0,44
1033,076	0,44
1033,493	0,44
1033,911	0,44
1034,328	0,44
1034,746	0,44
1035,163	0,44
1035,58	0,44
1035,997	0,44
1036,415	0,44
1036,832	0,44
1037,249	0,44
1037,666	0,44
1038,083	0,44
1038,501	0,44
1038,918	0,44
1039,335	0,44
1039,752	0,44
1040,169	0,44
1040,586	0,44
1041,003	0,44
1041,419	0,44
1041,836	0,44
1042,253	0,44
1042,67	0,44
1043,087	0,44
1043,504	0,44
1043,92	0,43
1044,337	0,43
1044,754	0,43
1045,17	0,43
1045,587	0,43
1046,004	0,43
1046,42	0,43
1046,837	0,43
1047,253	0,43
1047,67	0,43
1048,086	0,43
1048,503	0,43
1048,919	0,43
1049,335	0,43
1049,752	0,43
1050,168	0,43
1050,584	0,43
1051,001	0,43
1051,417	0,43
1051,833	0,43
1052,249	0,43
1052,665	0,43
1053,081	0,44
1053,497	0,44
1053,914	0,44
1054,33	0,44
1054,746	0,44
1055,162	0,44
1055,578	0,44
1055,993	0,44
1056,409	0,44
1056,825	0,45
1057,241	0,45
1057,657	0,45
1058,073	0,45
1058,488	0,45
1058,904	0,44
1059,32	0,44
1059,736	0,44
1060,151	0,44
1060,567	0,44
1060,982	0,44
1061,398	0,44
1061,813	0,44
1062,229	0,44
1062,644	0,44
1063,06	0,44
1063,475	0,44
1063,891	0,44
1064,306	0,44
1064,721	0,44
1065,137	0,44
1065,552	0,44
1065,967	0,44
1066,382	0,44
1066,798	0,44
1067,213	0,44
1067,628	0,44
1068,043	0,44
1068,458	0,44
1068,873	0,44
1069,288	0,44
1069,703	0,44
1070,118	0,44
1070,533	0,44
1070,948	0,44
1071,363	0,44
1071,778	0,44
1072,193	0,44
1072,607	0,44
1073,022	0,44
1073,437	0,44
1073,852	0,44
1074,266	0,44
1074,681	0,44
1075,096	0,44
1075,51	0,44
1075,925	0,44
1076,339	0,44
1076,754	0,44
1077,168	0,44
1077,583	0,44
1077,997	0,44
1078,412	0,44
1078,826	0,43
1079,24	0,43
1079,655	0,43
1080,069	0,43
1080,483	0,43
1080,897	0,43
1081,312	0,43
1081,726	0,43
1082,14	0,43
1082,554	0,43
1082,968	0,43
1083,382	0,43
1083,796	0,42
1084,21	0,42
1084,624	0,42
1085,038	0,42
1085,452	0,42
1085,866	0,42
1086,28	0,42
1086,694	0,42
1087,108	0,41
1087,521	0,41
1087,935	0,41
1088,349	0,41
1088,763	0,41
1089,176	0,4
1089,59	0,4
1090,004	0,4
1090,417	0,4
1090,831	0,39
1091,244	0,39
1091,658	0,39
1092,071	0,38
1092,485	0,38
1092,898	0,38
1093,312	0,38
1093,725	0,38
1094,138	0,37
1094,552	0,37
1094,965	0,37
1095,378	0,37
1095,791	0,36
1096,205	0,36
1096,618	0,36
1097,031	0,35
1097,444	0,35
1097,857	0,35
1098,27	0,34
1098,683	0,34
1099,096	0,34
1099,509	0,33
1099,922	0,33
1100,335	0,32
1100,748	0,31
1101,161	0,31
1101,574	0,3
1101,986	0,3
1102,399	0,29
1102,812	0,29
1103,225	0,29
1103,637	0,28
1104,05	0,28
1104,463	0,28
1104,875	0,28
1105,288	0,28
1105,7	0,28
1106,113	0,27
1106,525	0,27
1106,938	0,26
1107,35	0,25
1107,763	0,25
1108,175	0,24
1108,588	0,23
1109	0,23
1109,412	0,22
1109,824	0,22
1110,237	0,21
1110,649	0,2
1111,061	0,19
