Data from 18C-808nm-8A-cont_Absorbance__217__01646.txt Node

Date: Mon Jul 17 17:25:38 CEST 2023
User: Laser008
Spectrometer: MAYP115816
Trigger mode: 0
Integration Time (sec): 2,500000E-1
Scans to average: 10
Electric dark correction enabled: true
Nonlinearity correction enabled: true
Boxcar width: 5
XAxis mode: Wavelengths
Number of Pixels in Spectrum: 2068
>>>>>Begin Spectral Data<<<<<
198,914	-0,65
199,384	-0,43
199,855	-0,32
200,325	-0,25
200,796	-0,23
201,266	-0,18
201,737	-0,17
202,207	-0,15
202,677	-0,15
203,147	-0,13
203,618	-0,1
204,088	-0,09
204,558	-0,08
205,028	-0,07
205,498	-0,07
205,968	-0,07
206,439	-0,08
206,909	-0,07
207,379	-0,09
207,849	-0,09
208,319	-0,09
208,789	-0,1
209,258	-0,1
209,728	-0,12
210,198	-0,12
210,668	-0,12
211,138	-0,1
211,608	-0,1
212,077	-0,1
212,547	-0,09
213,017	-0,08
213,486	-0,09
213,956	-0,09
214,426	-0,1
214,895	-0,1
215,365	-0,1
215,834	-0,11
216,304	-0,12
216,773	-0,12
217,243	-0,14
217,712	-0,16
218,181	-0,16
218,651	-0,17
219,12	-0,16
219,589	-0,17
220,058	-0,15
220,528	-0,16
220,997	-0,16
221,466	-0,18
221,935	-0,19
222,404	-0,19
222,873	-0,18
223,342	-0,18
223,812	-0,18
224,281	-0,19
224,749	-0,19
225,218	-0,21
225,687	-0,2
226,156	-0,2
226,625	-0,18
227,094	-0,18
227,563	-0,17
228,031	-0,18
228,5	-0,18
228,969	-0,18
229,438	-0,18
229,906	-0,16
230,375	-0,15
230,844	-0,15
231,312	-0,15
231,781	-0,15
232,249	-0,14
232,718	-0,15
233,186	-0,13
233,655	-0,14
234,123	-0,14
234,591	-0,15
235,06	-0,15
235,528	-0,16
235,996	-0,16
236,465	-0,15
236,933	-0,15
237,401	-0,15
237,869	-0,13
238,337	-0,13
238,805	-0,12
239,274	-0,11
239,742	-0,1
240,21	-0,1
240,678	-0,09
241,146	-0,08
241,614	-0,08
242,081	-0,08
242,549	-0,09
243,017	-0,09
243,485	-0,09
243,953	-0,09
244,421	-0,09
244,888	-0,09
245,356	-0,09
245,824	-0,09
246,291	-0,1
246,759	-0,1
247,227	-0,1
247,694	-0,1
248,162	-0,09
248,629	-0,08
249,097	-0,09
249,564	-0,1
250,032	-0,11
250,499	-0,11
250,967	-0,12
251,434	-0,12
251,901	-0,12
252,369	-0,12
252,836	-0,13
253,303	-0,14
253,77	-0,16
254,237	-0,15
254,705	-0,15
255,172	-0,14
255,639	-0,15
256,106	-0,16
256,573	-0,16
257,04	-0,16
257,507	-0,16
257,974	-0,17
258,441	-0,15
258,908	-0,16
259,375	-0,17
259,841	-0,17
260,308	-0,18
260,775	-0,17
261,242	-0,16
261,709	-0,16
262,175	-0,18
262,642	-0,17
263,109	-0,17
263,575	-0,18
264,042	-0,16
264,508	-0,16
264,975	-0,18
265,441	-0,19
265,908	-0,19
266,374	-0,19
266,841	-0,2
267,307	-0,2
267,773	-0,19
268,24	-0,2
268,706	-0,19
269,172	-0,2
269,639	-0,21
270,105	-0,19
270,571	-0,19
271,037	-0,19
271,503	-0,2
271,969	-0,19
272,435	-0,18
272,902	-0,2
273,368	-0,21
273,834	-0,21
274,3	-0,22
274,765	-0,21
275,231	-0,22
275,697	-0,2
276,163	-0,2
276,629	-0,2
277,095	-0,2
277,56	-0,19
278,026	-0,2
278,492	-0,18
278,958	-0,17
279,423	-0,18
279,889	-0,17
280,354	-0,18
280,82	-0,18
281,286	-0,2
281,751	-0,21
282,217	-0,2
282,682	-0,2
283,147	-0,2
283,613	-0,21
284,078	-0,21
284,544	-0,23
285,009	-0,23
285,474	-0,22
285,939	-0,23
286,405	-0,22
286,87	-0,21
287,335	-0,21
287,8	-0,2
288,265	-0,19
288,73	-0,21
289,195	-0,22
289,66	-0,21
290,125	-0,21
290,59	-0,21
291,055	-0,21
291,52	-0,21
291,985	-0,21
292,45	-0,22
292,915	-0,22
293,38	-0,21
293,844	-0,2
294,309	-0,18
294,774	-0,18
295,239	-0,19
295,703	-0,2
296,168	-0,19
296,632	-0,18
297,097	-0,17
297,562	-0,16
298,026	-0,17
298,491	-0,17
298,955	-0,17
299,419	-0,16
299,884	-0,15
300,348	-0,15
300,813	-0,14
301,277	-0,15
301,741	-0,15
302,205	-0,14
302,67	-0,14
303,134	-0,14
303,598	-0,14
304,062	-0,14
304,526	-0,14
304,99	-0,15
305,454	-0,14
305,919	-0,12
306,383	-0,12
306,847	-0,13
307,31	-0,13
307,774	-0,14
308,238	-0,14
308,702	-0,14
309,166	-0,16
309,63	-0,16
310,094	-0,13
310,557	-0,14
311,021	-0,13
311,485	-0,13
311,948	-0,12
312,412	-0,11
312,876	-0,1
313,339	-0,11
313,803	-0,11
314,266	-0,11
314,73	-0,11
315,193	-0,11
315,657	-0,11
316,12	-0,11
316,584	-0,1
317,047	-0,11
317,51	-0,1
317,973	-0,1
318,437	-0,08
318,9	-0,06
319,363	-0,05
319,826	-0,05
320,29	-0,05
320,753	-0,05
321,216	-0,04
321,679	-0,05
322,142	-0,04
322,605	-0,06
323,068	-0,05
323,531	-0,06
323,994	-0,05
324,457	-0,06
324,92	-0,04
325,382	-0,04
325,845	-0,03
326,308	-0,03
326,771	-0,02
327,233	-0,02
327,696	-0
328,159	0
328,622	0,02
329,084	0,01
329,547	0,01
330,009	0,02
330,472	0,03
330,934	0,03
331,397	0,03
331,859	0,04
332,322	0,04
332,784	0,04
333,246	0,05
333,709	0,05
334,171	0,05
334,633	0,06
335,096	0,05
335,558	0,05
336,02	0,06
336,482	0,06
336,944	0,07
337,406	0,07
337,868	0,07
338,331	0,08
338,793	0,09
339,255	0,1
339,717	0,1
340,178	0,11
340,64	0,12
341,102	0,12
341,564	0,14
342,026	0,14
342,488	0,16
342,949	0,18
343,411	0,2
343,873	0,22
344,335	0,25
344,796	0,28
345,258	0,32
345,719	0,37
346,181	0,41
346,643	0,45
347,104	0,48
347,566	0,51
348,027	0,53
348,488	0,55
348,95	0,57
349,411	0,59
349,873	0,61
350,334	0,63
350,795	0,64
351,256	0,65
351,718	0,65
352,179	0,66
352,64	0,66
353,101	0,67
353,562	0,67
354,023	0,67
354,484	0,67
354,945	0,67
355,406	0,68
355,867	0,68
356,328	0,68
356,789	0,68
357,25	0,68
357,711	0,69
358,172	0,69
358,633	0,69
359,093	0,69
359,554	0,69
360,015	0,69
360,476	0,69
360,936	0,7
361,397	0,7
361,858	0,7
362,318	0,7
362,779	0,7
363,239	0,7
363,7	0,7
364,16	0,7
364,621	0,7
365,081	0,7
365,541	0,7
366,002	0,7
366,462	0,7
366,922	0,7
367,383	0,7
367,843	0,7
368,303	0,7
368,763	0,7
369,223	0,7
369,684	0,7
370,144	0,7
370,604	0,7
371,064	0,7
371,524	0,7
371,984	0,7
372,444	0,7
372,904	0,7
373,363	0,7
373,823	0,7
374,283	0,7
374,743	0,7
375,203	0,7
375,663	0,7
376,122	0,7
376,582	0,7
377,042	0,7
377,501	0,7
377,961	0,7
378,42	0,7
378,88	0,7
379,34	0,7
379,799	0,69
380,259	0,69
380,718	0,69
381,177	0,69
381,637	0,69
382,096	0,69
382,555	0,69
383,015	0,69
383,474	0,69
383,933	0,69
384,393	0,69
384,852	0,69
385,311	0,69
385,77	0,69
386,229	0,69
386,688	0,69
387,147	0,69
387,606	0,69
388,065	0,69
388,524	0,69
388,983	0,69
389,442	0,69
389,901	0,69
390,36	0,69
390,819	0,69
391,277	0,69
391,736	0,69
392,195	0,69
392,654	0,68
393,112	0,68
393,571	0,68
394,03	0,68
394,488	0,68
394,947	0,68
395,405	0,68
395,864	0,68
396,322	0,68
396,781	0,68
397,239	0,68
397,698	0,68
398,156	0,68
398,614	0,68
399,073	0,68
399,531	0,68
399,989	0,68
400,447	0,68
400,905	0,68
401,364	0,68
401,822	0,68
402,28	0,68
402,738	0,68
403,196	0,68
403,654	0,68
404,112	0,68
404,57	0,68
405,028	0,68
405,486	0,68
405,944	0,68
406,402	0,68
406,859	0,68
407,317	0,68
407,775	0,68
408,233	0,68
408,691	0,68
409,148	0,68
409,606	0,68
410,064	0,68
410,521	0,68
410,979	0,68
411,436	0,68
411,894	0,67
412,351	0,67
412,809	0,67
413,266	0,67
413,724	0,67
414,181	0,67
414,638	0,67
415,096	0,67
415,553	0,67
416,01	0,67
416,467	0,67
416,925	0,67
417,382	0,67
417,839	0,67
418,296	0,67
418,753	0,67
419,21	0,67
419,667	0,67
420,124	0,67
420,581	0,67
421,038	0,67
421,495	0,67
421,952	0,67
422,409	0,67
422,866	0,67
423,322	0,67
423,779	0,67
424,236	0,67
424,693	0,67
425,149	0,67
425,606	0,67
426,063	0,67
426,519	0,67
426,976	0,67
427,433	0,67
427,889	0,67
428,346	0,67
428,802	0,67
429,258	0,67
429,715	0,67
430,171	0,67
430,628	0,67
431,084	0,67
431,54	0,67
431,997	0,67
432,453	0,67
432,909	0,67
433,365	0,67
433,821	0,67
434,277	0,67
434,734	0,67
435,19	0,67
435,646	0,67
436,102	0,67
436,558	0,67
437,014	0,67
437,47	0,67
437,925	0,67
438,381	0,67
438,837	0,67
439,293	0,67
439,749	0,67
440,205	0,67
440,66	0,67
441,116	0,67
441,572	0,67
442,027	0,67
442,483	0,67
442,939	0,67
443,394	0,67
443,85	0,67
444,305	0,67
444,761	0,67
445,216	0,67
445,672	0,67
446,127	0,67
446,582	0,67
447,038	0,67
447,493	0,67
447,948	0,67
448,403	0,67
448,859	0,67
449,314	0,67
449,769	0,67
450,224	0,67
450,679	0,67
451,134	0,67
451,589	0,67
452,044	0,67
452,499	0,67
452,954	0,67
453,409	0,67
453,864	0,67
454,319	0,67
454,774	0,67
455,229	0,67
455,684	0,67
456,138	0,67
456,593	0,67
457,048	0,67
457,503	0,67
457,957	0,67
458,412	0,67
458,866	0,67
459,321	0,68
459,776	0,68
460,23	0,68
460,685	0,68
461,139	0,68
461,593	0,68
462,048	0,68
462,502	0,68
462,957	0,68
463,411	0,68
463,865	0,68
464,319	0,68
464,774	0,68
465,228	0,68
465,682	0,69
466,136	0,69
466,59	0,69
467,044	0,69
467,499	0,69
467,953	0,69
468,407	0,69
468,861	0,69
469,315	0,69
469,768	0,69
470,222	0,69
470,676	0,69
471,13	0,69
471,584	0,69
472,038	0,69
472,491	0,7
472,945	0,7
473,399	0,7
473,852	0,7
474,306	0,7
474,76	0,7
475,213	0,7
475,667	0,7
476,12	0,7
476,574	0,71
477,027	0,71
477,481	0,71
477,934	0,71
478,388	0,71
478,841	0,71
479,294	0,71
479,748	0,71
480,201	0,72
480,654	0,72
481,107	0,72
481,561	0,72
482,014	0,72
482,467	0,72
482,92	0,73
483,373	0,73
483,826	0,73
484,279	0,73
484,732	0,73
485,185	0,73
485,638	0,74
486,091	0,74
486,544	0,74
486,997	0,74
487,449	0,74
487,902	0,74
488,355	0,75
488,808	0,75
489,26	0,75
489,713	0,75
490,166	0,76
490,618	0,76
491,071	0,76
491,523	0,76
491,976	0,77
492,429	0,77
492,881	0,77
493,333	0,77
493,786	0,78
494,238	0,78
494,691	0,78
495,143	0,79
495,595	0,79
496,048	0,79
496,5	0,79
496,952	0,8
497,404	0,8
497,856	0,8
498,309	0,81
498,761	0,81
499,213	0,81
499,665	0,82
500,117	0,82
500,569	0,82
501,021	0,83
501,473	0,83
501,925	0,83
502,377	0,84
502,828	0,84
503,28	0,84
503,732	0,85
504,184	0,85
504,636	0,86
505,087	0,86
505,539	0,86
505,991	0,87
506,442	0,87
506,894	0,87
507,345	0,88
507,797	0,88
508,249	0,88
508,7	0,89
509,151	0,89
509,603	0,89
510,054	0,9
510,506	0,9
510,957	0,9
511,408	0,91
511,86	0,91
512,311	0,91
512,762	0,92
513,213	0,92
513,665	0,92
514,116	0,93
514,567	0,93
515,018	0,93
515,469	0,94
515,92	0,94
516,371	0,94
516,822	0,94
517,273	0,95
517,724	0,95
518,175	0,95
518,626	0,95
519,076	0,96
519,527	0,96
519,978	0,96
520,429	0,96
520,88	0,96
521,33	0,97
521,781	0,97
522,232	0,97
522,682	0,97
523,133	0,97
523,583	0,97
524,034	0,98
524,484	0,98
524,935	0,98
525,385	0,98
525,836	0,98
526,286	0,98
526,736	0,98
527,187	0,98
527,637	0,98
528,087	0,98
528,538	0,98
528,988	0,98
529,438	0,97
529,888	0,97
530,338	0,97
530,788	0,97
531,238	0,97
531,688	0,97
532,139	0,97
532,589	0,97
533,038	0,97
533,488	0,97
533,938	0,96
534,388	0,96
534,838	0,96
535,288	0,96
535,738	0,95
536,187	0,95
536,637	0,95
537,087	0,94
537,537	0,94
537,986	0,94
538,436	0,93
538,885	0,93
539,335	0,92
539,785	0,92
540,234	0,92
540,684	0,91
541,133	0,91
541,582	0,9
542,032	0,9
542,481	0,9
542,931	0,89
543,38	0,89
543,829	0,88
544,278	0,88
544,728	0,88
545,177	0,87
545,626	0,87
546,075	0,86
546,524	0,86
546,973	0,86
547,422	0,85
547,871	0,85
548,32	0,85
548,769	0,85
549,218	0,84
549,667	0,84
550,116	0,84
550,565	0,83
551,014	0,83
551,463	0,83
551,911	0,82
552,36	0,82
552,809	0,81
553,258	0,81
553,706	0,81
554,155	0,8
554,603	0,8
555,052	0,8
555,501	0,79
555,949	0,79
556,398	0,78
556,846	0,78
557,294	0,78
557,743	0,77
558,191	0,77
558,64	0,76
559,088	0,76
559,536	0,75
559,985	0,75
560,433	0,75
560,881	0,74
561,329	0,74
561,777	0,74
562,225	0,73
562,674	0,73
563,122	0,73
563,57	0,72
564,018	0,72
564,466	0,72
564,914	0,71
565,362	0,71
565,809	0,71
566,257	0,7
566,705	0,7
567,153	0,69
567,601	0,69
568,048	0,69
568,496	0,68
568,944	0,68
569,392	0,68
569,839	0,67
570,287	0,67
570,734	0,67
571,182	0,67
571,63	0,66
572,077	0,66
572,525	0,66
572,972	0,65
573,419	0,65
573,867	0,65
574,314	0,64
574,761	0,64
575,209	0,64
575,656	0,64
576,103	0,63
576,551	0,63
576,998	0,63
577,445	0,63
577,892	0,62
578,339	0,62
578,786	0,62
579,233	0,61
579,68	0,61
580,127	0,61
580,574	0,61
581,021	0,6
581,468	0,6
581,915	0,6
582,362	0,6
582,809	0,6
583,255	0,59
583,702	0,59
584,149	0,59
584,596	0,59
585,042	0,59
585,489	0,58
585,936	0,58
586,382	0,58
586,829	0,58
587,275	0,58
587,722	0,58
588,168	0,57
588,615	0,57
589,061	0,57
589,508	0,57
589,954	0,57
590,4	0,56
590,847	0,56
591,293	0,56
591,739	0,56
592,185	0,56
592,632	0,56
593,078	0,56
593,524	0,55
593,97	0,55
594,416	0,55
594,862	0,55
595,308	0,55
595,754	0,55
596,2	0,55
596,646	0,55
597,092	0,54
597,538	0,54
597,984	0,54
598,43	0,54
598,876	0,54
599,321	0,54
599,767	0,54
600,213	0,54
600,659	0,54
601,104	0,53
601,55	0,53
601,995	0,53
602,441	0,53
602,887	0,53
603,332	0,53
603,778	0,53
604,223	0,53
604,668	0,52
605,114	0,52
605,559	0,52
606,005	0,52
606,45	0,52
606,895	0,52
607,341	0,52
607,786	0,52
608,231	0,52
608,676	0,51
609,121	0,51
609,566	0,5
610,012	0,5
610,457	0,49
610,902	0,49
611,347	0,49
611,792	0,49
612,237	0,49
612,682	0,48
613,127	0,48
613,571	0,49
614,016	0,49
614,461	0,49
614,906	0,49
615,351	0,49
615,795	0,49
616,24	0,49
616,685	0,5
617,129	0,5
617,574	0,5
618,019	0,5
618,463	0,5
618,908	0,5
619,352	0,49
619,797	0,49
620,241	0,49
620,686	0,49
621,13	0,49
621,574	0,49
622,019	0,49
622,463	0,49
622,907	0,49
623,352	0,49
623,796	0,49
624,24	0,48
624,684	0,48
625,128	0,48
625,572	0,48
626,016	0,48
626,461	0,48
626,905	0,48
627,349	0,48
627,793	0,48
628,236	0,48
628,68	0,48
629,124	0,48
629,568	0,48
630,012	0,48
630,456	0,48
630,9	0,48
631,343	0,48
631,787	0,48
632,231	0,48
632,674	0,48
633,118	0,48
633,562	0,48
634,005	0,48
634,449	0,48
634,892	0,48
635,336	0,48
635,779	0,48
636,223	0,48
636,666	0,48
637,109	0,48
637,553	0,48
637,996	0,48
638,439	0,48
638,883	0,48
639,326	0,48
639,769	0,48
640,212	0,47
640,655	0,47
641,099	0,47
641,542	0,47
641,985	0,47
642,428	0,47
642,871	0,47
643,314	0,47
643,757	0,47
644,2	0,47
644,643	0,47
645,085	0,47
645,528	0,47
645,971	0,47
646,414	0,47
646,857	0,47
647,299	0,46
647,742	0,46
648,185	0,46
648,627	0,46
649,07	0,46
649,513	0,46
649,955	0,46
650,398	0,46
650,84	0,46
651,283	0,46
651,725	0,46
652,168	0,47
652,61	0,47
653,052	0,47
653,495	0,46
653,937	0,38
654,379	0,32
654,821	0,33
655,264	0,33
655,706	0,33
656,148	0,33
656,59	0,33
657,032	0,33
657,474	0,33
657,916	0,33
658,358	0,32
658,8	0,38
659,242	0,46
659,684	0,46
660,126	0,46
660,568	0,46
661,01	0,46
661,452	0,46
661,894	0,46
662,335	0,46
662,777	0,46
663,219	0,46
663,661	0,46
664,102	0,46
664,544	0,45
664,985	0,45
665,427	0,45
665,869	0,45
666,31	0,45
666,752	0,45
667,193	0,45
667,634	0,45
668,076	0,46
668,517	0,46
668,959	0,46
669,4	0,46
669,841	0,46
670,282	0,46
670,724	0,46
671,165	0,46
671,606	0,46
672,047	0,46
672,488	0,46
672,929	0,46
673,37	0,46
673,811	0,45
674,252	0,45
674,693	0,45
675,134	0,45
675,575	0,45
676,016	0,45
676,457	0,45
676,898	0,45
677,339	0,45
677,78	0,45
678,22	0,44
678,661	0,44
679,102	0,44
679,542	0,44
679,983	0,45
680,424	0,45
680,864	0,45
681,305	0,45
681,745	0,45
682,186	0,45
682,626	0,45
683,067	0,45
683,507	0,45
683,948	0,45
684,388	0,45
684,828	0,45
685,269	0,45
685,709	0,45
686,149	0,44
686,589	0,44
687,029	0,44
687,47	0,44
687,91	0,44
688,35	0,44
688,79	0,44
689,23	0,44
689,67	0,44
690,11	0,44
690,55	0,44
690,99	0,44
691,43	0,44
691,87	0,44
692,31	0,44
692,749	0,44
693,189	0,43
693,629	0,43
694,069	0,43
694,508	0,43
694,948	0,43
695,388	0,43
695,827	0,43
696,267	0,43
696,706	0,43
697,146	0,43
697,586	0,43
698,025	0,44
698,464	0,44
698,904	0,44
699,343	0,44
699,783	0,44
700,222	0,44
700,661	0,44
701,101	0,44
701,54	0,44
701,979	0,44
702,418	0,44
702,857	0,44
703,297	0,44
703,736	0,44
704,175	0,44
704,614	0,44
705,053	0,44
705,492	0,44
705,931	0,44
706,37	0,44
706,809	0,43
707,248	0,43
707,687	0,43
708,125	0,43
708,564	0,43
709,003	0,43
709,442	0,43
709,88	0,43
710,319	0,43
710,758	0,43
711,196	0,43
711,635	0,43
712,074	0,43
712,512	0,43
712,951	0,43
713,389	0,42
713,828	0,42
714,266	0,42
714,705	0,42
715,143	0,42
715,581	0,42
716,02	0,42
716,458	0,42
716,896	0,42
717,334	0,42
717,773	0,42
718,211	0,42
718,649	0,42
719,087	0,42
719,525	0,42
719,963	0,42
720,401	0,43
720,839	0,43
721,277	0,43
721,715	0,43
722,153	0,43
722,591	0,43
723,029	0,43
723,467	0,43
723,905	0,42
724,342	0,42
724,78	0,42
725,218	0,42
725,656	0,42
726,093	0,43
726,531	0,42
726,969	0,43
727,406	0,43
727,844	0,43
728,281	0,42
728,719	0,42
729,156	0,42
729,594	0,42
730,031	0,42
730,469	0,42
730,906	0,42
731,343	0,42
731,781	0,42
732,218	0,42
732,655	0,42
733,092	0,42
733,53	0,42
733,967	0,42
734,404	0,42
734,841	0,41
735,278	0,41
735,715	0,41
736,152	0,41
736,589	0,41
737,026	0,41
737,463	0,41
737,9	0,41
738,337	0,41
738,774	0,41
739,211	0,41
739,647	0,41
740,084	0,41
740,521	0,41
740,958	0,41
741,394	0,41
741,831	0,41
742,268	0,41
742,704	0,41
743,141	0,41
743,577	0,41
744,014	0,41
744,45	0,41
744,887	0,41
745,323	0,4
745,76	0,4
746,196	0,4
746,632	0,4
747,069	0,4
747,505	0,4
747,941	0,4
748,378	0,4
748,814	0,4
749,25	0,4
749,686	0,4
750,122	0,4
750,558	0,4
750,994	0,41
751,43	0,41
751,866	0,41
752,302	0,41
752,738	0,41
753,174	0,41
753,61	0,41
754,046	0,41
754,482	0,41
754,918	0,41
755,354	0,41
755,789	0,41
756,225	0,41
756,661	0,41
757,096	0,41
757,532	0,4
757,968	0,4
758,403	0,4
758,839	0,4
759,274	0,4
759,71	0,39
760,145	0,39
760,581	0,38
761,016	0,38
761,452	0,37
761,887	0,37
762,322	0,36
762,758	0,36
763,193	0,35
763,628	0,35
764,063	0,34
764,499	0,33
764,934	0,33
765,369	0,32
765,804	0,31
766,239	0,31
766,674	0,3
767,109	0,29
767,544	0,29
767,979	0,28
768,414	0,27
768,849	0,26
769,284	0,26
769,719	0,25
770,154	0,24
770,588	0,23
771,023	0,22
771,458	0,21
771,893	0,19
772,327	0,18
772,762	0,17
773,197	0,17
773,631	0,16
774,066	0,15
774,5	0,14
774,935	0,13
775,369	0,11
775,804	0,1
776,238	0,1
776,673	0,09
777,107	0,08
777,541	0,07
777,976	0,05
778,41	0,05
778,844	0,04
779,279	0,03
779,713	0,03
780,147	0,02
780,581	0,01
781,015	0
781,449	-0
781,883	-0,01
782,317	-0,03
782,751	-0,03
783,185	-0,05
783,619	-0,05
784,053	-0,06
784,487	-0,08
784,921	-0,08
785,355	-0,09
785,789	-0,1
786,223	-0,11
786,656	-0,12
787,09	-0,13
787,524	-0,13
787,957	-0,14
788,391	-0,16
788,825	-0,18
789,258	-0,19
789,692	-0,21
790,125	-0,23
790,559	-0,25
790,992	-0,26
791,426	-0,29
791,859	-0,3
792,293	-0,34
792,726	-0,35
793,159	-0,37
793,593	-0,39
794,026	-0,41
794,459	-0,43
794,892	-0,46
795,326	-0,49
795,759	-0,53
796,192	-0,57
796,625	-0,62
797,058	-0,64
797,491	-0,68
797,924	-0,72
798,357	-0,77
798,79	-0,81
799,223	-0,86
799,656	-0,91
800,089	-0,96
800,522	-1
800,955	-1,04
801,387	-1,1
801,82	-1,15
802,253	-1,22
802,686	-1,3
803,118	-1,35
803,551	-1,41
803,984	-1,45
804,416	-1,49
804,849	-1,52
805,281	-1,64
805,714	-2,01
806,146	-2,46
806,579	-2,72
807,011	-2,87
807,444	-2,97
807,876	-3,05
808,308	-3,09
808,741	-3,12
809,173	-3,17
809,605	-3,19
810,037	-3,27
810,47	-3,18
810,902	-2,98
811,334	-2,83
811,766	-2,68
812,198	-2,43
812,63	-2,01
813,062	-1,8
813,494	-1,7
813,926	-1,61
814,358	-1,56
814,79	-1,48
815,222	-1,42
815,654	-1,37
816,086	-1,3
816,518	-1,25
816,949	-1,2
817,381	-1,15
817,813	-1,14
818,245	-1,09
818,676	-1,06
819,108	-1,02
819,54	-1,01
819,971	-0,98
820,403	-0,93
820,834	-0,92
821,266	-0,87
821,697	-0,85
822,129	-0,84
822,56	-0,81
822,991	-0,79
823,423	-0,76
823,854	-0,75
824,286	-0,73
824,717	-0,71
825,148	-0,7
825,579	-0,69
826,01	-0,67
826,442	-0,66
826,873	-0,65
827,304	-0,61
827,735	-0,6
828,166	-0,61
828,597	-0,6
829,028	-0,6
829,459	-0,6
829,89	-0,61
830,321	-0,56
830,752	-0,58
831,183	-0,57
831,613	-0,56
832,044	-0,56
832,475	-0,55
832,906	-0,56
833,336	-0,56
833,767	-0,56
834,198	-0,55
834,628	-0,53
835,059	-0,56
835,49	-0,56
835,92	-0,53
836,351	-0,53
836,781	-0,53
837,212	-0,55
837,642	-0,55
838,072	-0,53
838,503	-0,54
838,933	-0,52
839,364	-0,52
839,794	-0,51
840,224	-0,5
840,654	-0,55
841,085	-0,55
841,515	-0,53
841,945	-0,54
842,375	-0,49
842,805	-0,48
843,235	-0,46
843,665	-0,48
844,095	-0,47
844,525	-0,48
844,955	-0,49
845,385	-0,46
845,815	-0,44
846,245	-0,46
846,675	-0,47
847,105	-0,49
847,534	-0,49
847,964	-0,47
848,394	-0,45
848,824	-0,49
849,253	-0,48
849,683	-0,48
850,112	-0,5
850,542	-0,53
850,972	-0,53
851,401	-0,51
851,831	-0,49
852,26	-0,49
852,69	-0,53
853,119	-0,52
853,548	-0,52
853,978	-0,53
854,407	-0,51
854,836	-0,5
855,266	-0,49
855,695	-0,51
856,124	-0,51
856,553	-0,53
856,983	-0,55
857,412	-0,54
857,841	-0,55
858,27	-0,56
858,699	-0,56
859,128	-0,6
859,557	-0,62
859,986	-0,63
860,415	-0,61
860,844	-0,59
861,273	-0,59
861,702	-0,6
862,13	-0,59
862,559	-0,61
862,988	-0,59
863,417	-0,57
863,845	-0,57
864,274	-0,58
864,703	-0,57
865,131	-0,57
865,56	-0,58
865,989	-0,6
866,417	-0,57
866,846	-0,57
867,274	-0,56
867,703	-0,58
868,131	-0,59
868,559	-0,59
868,988	-0,6
869,416	-0,59
869,844	-0,6
870,273	-0,63
870,701	-0,61
871,129	-0,64
871,557	-0,67
871,986	-0,67
872,414	-0,67
872,842	-0,64
873,27	-0,63
873,698	-0,6
874,126	-0,65
874,554	-0,63
874,982	-0,62
875,41	-0,65
875,838	-0,6
876,266	-0,57
876,694	-0,58
877,122	-0,58
877,549	-0,64
877,977	-0,6
878,405	-0,62
878,833	-0,59
879,26	-0,57
879,688	-0,57
880,116	-0,55
880,543	-0,54
880,971	-0,53
881,399	-0,56
881,826	-0,56
882,254	-0,54
882,681	-0,58
883,109	-0,55
883,536	-0,55
883,963	-0,56
884,391	-0,56
884,818	-0,54
885,245	-0,57
885,673	-0,59
886,1	-0,55
886,527	-0,56
886,954	-0,53
887,381	-0,55
887,809	-0,56
888,236	-0,58
888,663	-0,58
889,09	-0,61
889,517	-0,63
889,944	-0,62
890,371	-0,61
890,798	-0,61
891,225	-0,6
891,652	-0,62
892,078	-0,6
892,505	-0,62
892,932	-0,57
893,359	-0,58
893,786	-0,59
894,212	-0,56
894,639	-0,58
895,066	-0,6
895,492	-0,55
895,919	-0,56
896,346	-0,56
896,772	-0,56
897,199	-0,53
897,625	-0,56
898,052	-0,53
898,478	-0,51
898,904	-0,53
899,331	-0,53
899,757	-0,55
900,183	-0,57
900,61	-0,55
901,036	-0,56
901,462	-0,55
901,888	-0,55
902,315	-0,53
902,741	-0,58
903,167	-0,57
903,593	-0,6
904,019	-0,58
904,445	-0,56
904,871	-0,58
905,297	-0,6
905,723	-0,59
906,149	-0,58
906,575	-0,59
907,001	-0,59
907,427	-0,56
907,852	-0,56
908,278	-0,55
908,704	-0,53
909,13	-0,52
909,555	-0,51
909,981	-0,51
910,407	-0,52
910,832	-0,51
911,258	-0,51
911,684	-0,51
912,109	-0,51
912,535	-0,53
912,96	-0,49
913,386	-0,53
913,811	-0,53
914,236	-0,54
914,662	-0,51
915,087	-0,55
915,512	-0,55
915,938	-0,57
916,363	-0,57
916,788	-0,57
917,213	-0,55
917,639	-0,6
918,064	-0,58
918,489	-0,59
918,914	-0,59
919,339	-0,61
919,764	-0,58
920,189	-0,58
920,614	-0,59
921,039	-0,59
921,464	-0,55
921,889	-0,57
922,314	-0,59
922,738	-0,61
923,163	-0,63
923,588	-0,63
924,013	-0,62
924,437	-0,62
924,862	-0,63
925,287	-0,6
925,711	-0,6
926,136	-0,62
926,561	-0,6
926,985	-0,59
927,41	-0,56
927,834	-0,54
928,259	-0,51
928,683	-0,49
929,108	-0,47
929,532	-0,48
929,956	-0,47
930,381	-0,47
930,805	-0,46
931,229	-0,46
931,653	-0,45
932,078	-0,44
932,502	-0,44
932,926	-0,46
933,35	-0,46
933,774	-0,46
934,198	-0,43
934,622	-0,42
935,046	-0,43
935,47	-0,43
935,894	-0,42
936,318	-0,41
936,742	-0,42
937,166	-0,43
937,59	-0,41
938,014	-0,44
938,437	-0,44
938,861	-0,45
939,285	-0,46
939,709	-0,46
940,132	-0,46
940,556	-0,47
940,98	-0,47
941,403	-0,46
941,827	-0,46
942,25	-0,48
942,674	-0,46
943,097	-0,46
943,521	-0,47
943,944	-0,48
944,368	-0,46
944,791	-0,45
945,214	-0,48
945,638	-0,48
946,061	-0,52
946,484	-0,52
946,907	-0,5
947,331	-0,5
947,754	-0,55
948,177	-0,52
948,6	-0,52
949,023	-0,52
949,446	-0,52
949,869	-0,5
950,292	-0,49
950,715	-0,46
951,138	-0,45
951,561	-0,43
951,984	-0,43
952,407	-0,4
952,83	-0,38
953,252	-0,34
953,675	-0,35
954,098	-0,35
954,521	-0,35
954,943	-0,34
955,366	-0,35
955,789	-0,33
956,211	-0,34
956,634	-0,35
957,056	-0,33
957,479	-0,35
957,902	-0,38
958,324	-0,37
958,746	-0,36
959,169	-0,36
959,591	-0,37
960,014	-0,38
960,436	-0,38
960,858	-0,38
961,281	-0,38
961,703	-0,39
962,125	-0,39
962,547	-0,36
962,969	-0,37
963,391	-0,37
963,814	-0,38
964,236	-0,37
964,658	-0,34
965,08	-0,35
965,502	-0,35
965,924	-0,32
966,346	-0,32
966,768	-0,3
967,189	-0,33
967,611	-0,33
968,033	-0,32
968,455	-0,31
968,877	-0,32
969,298	-0,33
969,72	-0,34
970,142	-0,32
970,563	-0,33
970,985	-0,32
971,407	-0,31
971,828	-0,29
972,25	-0,28
972,671	-0,27
973,093	-0,26
973,514	-0,25
973,936	-0,23
974,357	-0,22
974,778	-0,22
975,2	-0,22
975,621	-0,21
976,042	-0,19
976,464	-0,18
976,885	-0,17
977,306	-0,17
977,727	-0,16
978,148	-0,15
978,57	-0,14
978,991	-0,12
979,412	-0,1
979,833	-0,09
980,254	-0,08
980,675	-0,08
981,096	-0,08
981,517	-0,06
981,937	-0,05
982,358	-0,03
982,779	-0,02
983,2	-0,02
983,621	-0,02
984,042	-0,01
984,462	0,01
984,883	0,02
985,304	0,03
985,724	0,04
986,145	0,05
986,565	0,07
986,986	0,07
987,407	0,09
987,827	0,1
988,248	0,11
988,668	0,12
989,088	0,13
989,509	0,14
989,929	0,15
990,35	0,17
990,77	0,18
991,19	0,18
991,61	0,2
992,031	0,2
992,451	0,21
992,871	0,22
993,291	0,23
993,711	0,24
994,131	0,25
994,551	0,26
994,971	0,27
995,391	0,27
995,811	0,28
996,231	0,28
996,651	0,29
997,071	0,3
997,491	0,31
997,911	0,31
998,331	0,32
998,75	0,32
999,17	0,33
999,59	0,33
1000,009	0,34
1000,429	0,34
1000,849	0,35
1001,268	0,36
1001,688	0,36
1002,107	0,36
1002,527	0,37
1002,946	0,37
1003,366	0,37
1003,785	0,38
1004,205	0,38
1004,624	0,38
1005,044	0,38
1005,463	0,39
1005,882	0,39
1006,301	0,39
1006,721	0,39
1007,14	0,39
1007,559	0,39
1007,978	0,39
1008,397	0,39
1008,816	0,39
1009,235	0,39
1009,655	0,39
1010,074	0,39
1010,492	0,39
1010,911	0,39
1011,33	0,39
1011,749	0,39
1012,168	0,39
1012,587	0,39
1013,006	0,39
1013,425	0,39
1013,843	0,39
1014,262	0,39
1014,681	0,38
1015,099	0,38
1015,518	0,38
1015,937	0,38
1016,355	0,38
1016,774	0,38
1017,192	0,38
1017,611	0,38
1018,029	0,38
1018,448	0,38
1018,866	0,38
1019,285	0,38
1019,703	0,38
1020,121	0,38
1020,54	0,38
1020,958	0,38
1021,376	0,38
1021,794	0,38
1022,213	0,38
1022,631	0,38
1023,049	0,38
1023,467	0,38
1023,885	0,38
1024,303	0,38
1024,721	0,37
1025,139	0,37
1025,557	0,37
1025,975	0,37
1026,393	0,37
1026,811	0,37
1027,229	0,37
1027,647	0,37
1028,065	0,37
1028,482	0,37
1028,9	0,37
1029,318	0,37
1029,735	0,37
1030,153	0,37
1030,571	0,37
1030,988	0,37
1031,406	0,37
1031,823	0,37
1032,241	0,37
1032,659	0,37
1033,076	0,37
1033,493	0,37
1033,911	0,37
1034,328	0,37
1034,746	0,37
1035,163	0,37
1035,58	0,37
1035,997	0,37
1036,415	0,37
1036,832	0,37
1037,249	0,37
1037,666	0,37
1038,083	0,37
1038,501	0,37
1038,918	0,37
1039,335	0,37
1039,752	0,37
1040,169	0,37
1040,586	0,37
1041,003	0,37
1041,419	0,37
1041,836	0,37
1042,253	0,37
1042,67	0,37
1043,087	0,37
1043,504	0,37
1043,92	0,37
1044,337	0,37
1044,754	0,37
1045,17	0,37
1045,587	0,37
1046,004	0,37
1046,42	0,37
1046,837	0,37
1047,253	0,37
1047,67	0,37
1048,086	0,37
1048,503	0,37
1048,919	0,37
1049,335	0,37
1049,752	0,37
1050,168	0,37
1050,584	0,37
1051,001	0,37
1051,417	0,37
1051,833	0,37
1052,249	0,37
1052,665	0,37
1053,081	0,37
1053,497	0,37
1053,914	0,37
1054,33	0,37
1054,746	0,37
1055,162	0,38
1055,578	0,38
1055,993	0,38
1056,409	0,38
1056,825	0,38
1057,241	0,38
1057,657	0,38
1058,073	0,38
1058,488	0,38
1058,904	0,38
1059,32	0,38
1059,736	0,38
1060,151	0,38
1060,567	0,38
1060,982	0,38
1061,398	0,38
1061,813	0,38
1062,229	0,37
1062,644	0,37
1063,06	0,37
1063,475	0,37
1063,891	0,37
1064,306	0,37
1064,721	0,37
1065,137	0,37
1065,552	0,37
1065,967	0,37
1066,382	0,37
1066,798	0,37
1067,213	0,37
1067,628	0,37
1068,043	0,37
1068,458	0,37
1068,873	0,37
1069,288	0,37
1069,703	0,37
1070,118	0,37
1070,533	0,37
1070,948	0,37
1071,363	0,37
1071,778	0,37
1072,193	0,37
1072,607	0,37
1073,022	0,37
1073,437	0,37
1073,852	0,37
1074,266	0,37
1074,681	0,37
1075,096	0,37
1075,51	0,37
1075,925	0,37
1076,339	0,37
1076,754	0,37
1077,168	0,37
1077,583	0,37
1077,997	0,37
1078,412	0,37
1078,826	0,37
1079,24	0,37
1079,655	0,37
1080,069	0,37
1080,483	0,37
1080,897	0,36
1081,312	0,37
1081,726	0,37
1082,14	0,37
1082,554	0,36
1082,968	0,36
1083,382	0,36
1083,796	0,36
1084,21	0,36
1084,624	0,36
1085,038	0,36
1085,452	0,36
1085,866	0,36
1086,28	0,35
1086,694	0,35
1087,108	0,35
1087,521	0,35
1087,935	0,35
1088,349	0,35
1088,763	0,34
1089,176	0,34
1089,59	0,34
1090,004	0,34
1090,417	0,33
1090,831	0,33
1091,244	0,33
1091,658	0,32
1092,071	0,32
1092,485	0,32
1092,898	0,32
1093,312	0,32
1093,725	0,32
1094,138	0,31
1094,552	0,31
1094,965	0,31
1095,378	0,31
1095,791	0,31
1096,205	0,31
1096,618	0,3
1097,031	0,3
1097,444	0,3
1097,857	0,29
1098,27	0,29
1098,683	0,29
1099,096	0,29
1099,509	0,28
1099,922	0,28
1100,335	0,27
1100,748	0,27
1101,161	0,26
1101,574	0,26
1101,986	0,26
1102,399	0,25
1102,812	0,25
1103,225	0,25
1103,637	0,24
1104,05	0,24
1104,463	0,24
1104,875	0,23
1105,288	0,23
1105,7	0,23
1106,113	0,22
1106,525	0,22
1106,938	0,22
1107,35	0,21
1107,763	0,2
1108,175	0,2
1108,588	0,19
1109	0,19
1109,412	0,18
1109,824	0,18
1110,237	0,17
1110,649	0,18
1111,061	0,17
