Data from 18C-808nm-8A-cont_Absorbance__720__02149.txt Node

Date: Mon Jul 17 17:46:35 CEST 2023
User: Laser008
Spectrometer: MAYP115816
Trigger mode: 0
Integration Time (sec): 2,500000E-1
Scans to average: 10
Electric dark correction enabled: true
Nonlinearity correction enabled: true
Boxcar width: 5
XAxis mode: Wavelengths
Number of Pixels in Spectrum: 2068
>>>>>Begin Spectral Data<<<<<
198,914	-0,7
199,384	-0,48
199,855	-0,34
200,325	-0,26
200,796	-0,22
201,266	-0,17
201,737	-0,17
202,207	-0,15
202,677	-0,15
203,147	-0,13
203,618	-0,09
204,088	-0,08
204,558	-0,06
205,028	-0,06
205,498	-0,06
205,968	-0,07
206,439	-0,09
206,909	-0,07
207,379	-0,08
207,849	-0,08
208,319	-0,08
208,789	-0,09
209,258	-0,08
209,728	-0,09
210,198	-0,09
210,668	-0,09
211,138	-0,08
211,608	-0,08
212,077	-0,08
212,547	-0,08
213,017	-0,08
213,486	-0,09
213,956	-0,09
214,426	-0,11
214,895	-0,11
215,365	-0,12
215,834	-0,13
216,304	-0,13
216,773	-0,13
217,243	-0,14
217,712	-0,16
218,181	-0,16
218,651	-0,15
219,12	-0,15
219,589	-0,15
220,058	-0,13
220,528	-0,14
220,997	-0,14
221,466	-0,15
221,935	-0,17
222,404	-0,17
222,873	-0,15
223,342	-0,15
223,812	-0,14
224,281	-0,15
224,749	-0,14
225,218	-0,17
225,687	-0,17
226,156	-0,16
226,625	-0,14
227,094	-0,14
227,563	-0,14
228,031	-0,15
228,5	-0,15
228,969	-0,17
229,438	-0,16
229,906	-0,15
230,375	-0,14
230,844	-0,14
231,312	-0,14
231,781	-0,15
232,249	-0,14
232,718	-0,15
233,186	-0,14
233,655	-0,14
234,123	-0,13
234,591	-0,13
235,06	-0,13
235,528	-0,13
235,996	-0,14
236,465	-0,13
236,933	-0,12
237,401	-0,12
237,869	-0,1
238,337	-0,1
238,805	-0,09
239,274	-0,09
239,742	-0,09
240,21	-0,09
240,678	-0,08
241,146	-0,07
241,614	-0,06
242,081	-0,06
242,549	-0,05
243,017	-0,07
243,485	-0,07
243,953	-0,07
244,421	-0,05
244,888	-0,05
245,356	-0,04
245,824	-0,04
246,291	-0,05
246,759	-0,06
247,227	-0,07
247,694	-0,06
248,162	-0,05
248,629	-0,04
249,097	-0,05
249,564	-0,07
250,032	-0,08
250,499	-0,08
250,967	-0,08
251,434	-0,08
251,901	-0,08
252,369	-0,07
252,836	-0,09
253,303	-0,1
253,77	-0,12
254,237	-0,11
254,705	-0,11
255,172	-0,1
255,639	-0,11
256,106	-0,12
256,573	-0,12
257,04	-0,13
257,507	-0,14
257,974	-0,14
258,441	-0,12
258,908	-0,12
259,375	-0,13
259,841	-0,14
260,308	-0,14
260,775	-0,14
261,242	-0,14
261,709	-0,14
262,175	-0,15
262,642	-0,15
263,109	-0,14
263,575	-0,15
264,042	-0,14
264,508	-0,13
264,975	-0,15
265,441	-0,15
265,908	-0,16
266,374	-0,16
266,841	-0,16
267,307	-0,16
267,773	-0,16
268,24	-0,16
268,706	-0,17
269,172	-0,18
269,639	-0,2
270,105	-0,18
270,571	-0,19
271,037	-0,19
271,503	-0,2
271,969	-0,19
272,435	-0,19
272,902	-0,2
273,368	-0,21
273,834	-0,2
274,3	-0,2
274,765	-0,2
275,231	-0,2
275,697	-0,2
276,163	-0,19
276,629	-0,19
277,095	-0,19
277,56	-0,19
278,026	-0,19
278,492	-0,19
278,958	-0,18
279,423	-0,18
279,889	-0,18
280,354	-0,18
280,82	-0,18
281,286	-0,2
281,751	-0,2
282,217	-0,19
282,682	-0,19
283,147	-0,19
283,613	-0,19
284,078	-0,2
284,544	-0,21
285,009	-0,22
285,474	-0,21
285,939	-0,22
286,405	-0,21
286,87	-0,21
287,335	-0,21
287,8	-0,2
288,265	-0,19
288,73	-0,2
289,195	-0,22
289,66	-0,22
290,125	-0,2
290,59	-0,21
291,055	-0,2
291,52	-0,19
291,985	-0,2
292,45	-0,21
292,915	-0,2
293,38	-0,2
293,844	-0,19
294,309	-0,19
294,774	-0,18
295,239	-0,19
295,703	-0,2
296,168	-0,19
296,632	-0,19
297,097	-0,17
297,562	-0,15
298,026	-0,16
298,491	-0,17
298,955	-0,16
299,419	-0,15
299,884	-0,15
300,348	-0,13
300,813	-0,12
301,277	-0,13
301,741	-0,13
302,205	-0,12
302,67	-0,12
303,134	-0,12
303,598	-0,11
304,062	-0,1
304,526	-0,1
304,99	-0,11
305,454	-0,12
305,919	-0,11
306,383	-0,11
306,847	-0,11
307,31	-0,11
307,774	-0,12
308,238	-0,12
308,702	-0,11
309,166	-0,13
309,63	-0,13
310,094	-0,1
310,557	-0,1
311,021	-0,09
311,485	-0,1
311,948	-0,09
312,412	-0,09
312,876	-0,08
313,339	-0,09
313,803	-0,09
314,266	-0,09
314,73	-0,09
315,193	-0,1
315,657	-0,09
316,12	-0,09
316,584	-0,07
317,047	-0,07
317,51	-0,06
317,973	-0,05
318,437	-0,05
318,9	-0,03
319,363	-0,02
319,826	-0,01
320,29	-0,02
320,753	-0,01
321,216	-0,02
321,679	-0,02
322,142	-0,02
322,605	-0,04
323,068	-0,03
323,531	-0,03
323,994	-0,03
324,457	-0,03
324,92	-0,02
325,382	-0,02
325,845	-0,02
326,308	-0,01
326,771	0
327,233	0,01
327,696	0,02
328,159	0,03
328,622	0,04
329,084	0,05
329,547	0,06
330,009	0,05
330,472	0,07
330,934	0,07
331,397	0,08
331,859	0,08
332,322	0,08
332,784	0,07
333,246	0,08
333,709	0,08
334,171	0,08
334,633	0,08
335,096	0,08
335,558	0,08
336,02	0,08
336,482	0,08
336,944	0,1
337,406	0,1
337,868	0,12
338,331	0,12
338,793	0,12
339,255	0,13
339,717	0,14
340,178	0,15
340,64	0,16
341,102	0,17
341,564	0,18
342,026	0,19
342,488	0,2
342,949	0,21
343,411	0,24
343,873	0,26
344,335	0,29
344,796	0,34
345,258	0,39
345,719	0,44
346,181	0,49
346,643	0,54
347,104	0,58
347,566	0,62
348,027	0,66
348,488	0,69
348,95	0,72
349,411	0,75
349,873	0,78
350,334	0,81
350,795	0,83
351,256	0,85
351,718	0,86
352,179	0,86
352,64	0,87
353,101	0,87
353,562	0,88
354,023	0,88
354,484	0,88
354,945	0,89
355,406	0,89
355,867	0,9
356,328	0,9
356,789	0,91
357,25	0,91
357,711	0,92
358,172	0,92
358,633	0,92
359,093	0,92
359,554	0,92
360,015	0,92
360,476	0,92
360,936	0,93
361,397	0,93
361,858	0,93
362,318	0,93
362,779	0,93
363,239	0,93
363,7	0,93
364,16	0,93
364,621	0,93
365,081	0,93
365,541	0,93
366,002	0,93
366,462	0,93
366,922	0,93
367,383	0,93
367,843	0,93
368,303	0,93
368,763	0,93
369,223	0,93
369,684	0,93
370,144	0,93
370,604	0,93
371,064	0,93
371,524	0,93
371,984	0,93
372,444	0,93
372,904	0,93
373,363	0,93
373,823	0,93
374,283	0,93
374,743	0,93
375,203	0,93
375,663	0,93
376,122	0,93
376,582	0,93
377,042	0,93
377,501	0,93
377,961	0,93
378,42	0,93
378,88	0,93
379,34	0,93
379,799	0,93
380,259	0,93
380,718	0,92
381,177	0,92
381,637	0,92
382,096	0,92
382,555	0,92
383,015	0,92
383,474	0,92
383,933	0,92
384,393	0,92
384,852	0,92
385,311	0,92
385,77	0,92
386,229	0,92
386,688	0,92
387,147	0,92
387,606	0,92
388,065	0,92
388,524	0,92
388,983	0,92
389,442	0,92
389,901	0,92
390,36	0,92
390,819	0,92
391,277	0,92
391,736	0,92
392,195	0,92
392,654	0,92
393,112	0,92
393,571	0,92
394,03	0,92
394,488	0,92
394,947	0,92
395,405	0,91
395,864	0,91
396,322	0,91
396,781	0,91
397,239	0,91
397,698	0,91
398,156	0,91
398,614	0,91
399,073	0,91
399,531	0,91
399,989	0,91
400,447	0,91
400,905	0,91
401,364	0,91
401,822	0,91
402,28	0,91
402,738	0,91
403,196	0,91
403,654	0,91
404,112	0,91
404,57	0,91
405,028	0,91
405,486	0,91
405,944	0,91
406,402	0,91
406,859	0,91
407,317	0,91
407,775	0,91
408,233	0,91
408,691	0,91
409,148	0,91
409,606	0,91
410,064	0,91
410,521	0,91
410,979	0,91
411,436	0,91
411,894	0,91
412,351	0,91
412,809	0,91
413,266	0,9
413,724	0,9
414,181	0,9
414,638	0,9
415,096	0,9
415,553	0,9
416,01	0,9
416,467	0,9
416,925	0,9
417,382	0,9
417,839	0,9
418,296	0,9
418,753	0,9
419,21	0,9
419,667	0,9
420,124	0,9
420,581	0,9
421,038	0,9
421,495	0,9
421,952	0,9
422,409	0,9
422,866	0,9
423,322	0,9
423,779	0,9
424,236	0,9
424,693	0,9
425,149	0,9
425,606	0,9
426,063	0,9
426,519	0,9
426,976	0,9
427,433	0,9
427,889	0,9
428,346	0,9
428,802	0,9
429,258	0,9
429,715	0,9
430,171	0,9
430,628	0,9
431,084	0,9
431,54	0,9
431,997	0,9
432,453	0,9
432,909	0,9
433,365	0,9
433,821	0,9
434,277	0,89
434,734	0,89
435,19	0,89
435,646	0,89
436,102	0,89
436,558	0,89
437,014	0,89
437,47	0,89
437,925	0,9
438,381	0,9
438,837	0,9
439,293	0,9
439,749	0,9
440,205	0,9
440,66	0,9
441,116	0,9
441,572	0,9
442,027	0,9
442,483	0,9
442,939	0,9
443,394	0,9
443,85	0,9
444,305	0,9
444,761	0,9
445,216	0,9
445,672	0,9
446,127	0,9
446,582	0,9
447,038	0,9
447,493	0,9
447,948	0,9
448,403	0,91
448,859	0,91
449,314	0,91
449,769	0,91
450,224	0,91
450,679	0,91
451,134	0,91
451,589	0,91
452,044	0,91
452,499	0,91
452,954	0,91
453,409	0,91
453,864	0,91
454,319	0,91
454,774	0,91
455,229	0,91
455,684	0,91
456,138	0,91
456,593	0,91
457,048	0,91
457,503	0,91
457,957	0,91
458,412	0,91
458,866	0,91
459,321	0,91
459,776	0,91
460,23	0,92
460,685	0,92
461,139	0,92
461,593	0,92
462,048	0,92
462,502	0,92
462,957	0,92
463,411	0,92
463,865	0,92
464,319	0,93
464,774	0,93
465,228	0,93
465,682	0,93
466,136	0,93
466,59	0,93
467,044	0,93
467,499	0,93
467,953	0,93
468,407	0,93
468,861	0,93
469,315	0,93
469,768	0,94
470,222	0,94
470,676	0,94
471,13	0,94
471,584	0,94
472,038	0,94
472,491	0,94
472,945	0,94
473,399	0,94
473,852	0,95
474,306	0,95
474,76	0,95
475,213	0,95
475,667	0,95
476,12	0,95
476,574	0,95
477,027	0,95
477,481	0,96
477,934	0,96
478,388	0,96
478,841	0,96
479,294	0,96
479,748	0,97
480,201	0,97
480,654	0,97
481,107	0,97
481,561	0,98
482,014	0,98
482,467	0,98
482,92	0,98
483,373	0,98
483,826	0,98
484,279	0,99
484,732	0,99
485,185	0,99
485,638	0,99
486,091	1
486,544	1
486,997	1
487,449	1
487,902	1,01
488,355	1,01
488,808	1,01
489,26	1,01
489,713	1,02
490,166	1,02
490,618	1,02
491,071	1,03
491,523	1,03
491,976	1,03
492,429	1,04
492,881	1,04
493,333	1,04
493,786	1,05
494,238	1,05
494,691	1,05
495,143	1,06
495,595	1,06
496,048	1,07
496,5	1,07
496,952	1,07
497,404	1,08
497,856	1,08
498,309	1,09
498,761	1,09
499,213	1,1
499,665	1,1
500,117	1,1
500,569	1,11
501,021	1,11
501,473	1,12
501,925	1,12
502,377	1,12
502,828	1,13
503,28	1,13
503,732	1,14
504,184	1,14
504,636	1,15
505,087	1,15
505,539	1,16
505,991	1,16
506,442	1,17
506,894	1,17
507,345	1,18
507,797	1,18
508,249	1,19
508,7	1,19
509,151	1,19
509,603	1,2
510,054	1,2
510,506	1,21
510,957	1,21
511,408	1,22
511,86	1,22
512,311	1,22
512,762	1,23
513,213	1,23
513,665	1,23
514,116	1,24
514,567	1,24
515,018	1,24
515,469	1,25
515,92	1,25
516,371	1,25
516,822	1,26
517,273	1,26
517,724	1,26
518,175	1,27
518,626	1,27
519,076	1,27
519,527	1,27
519,978	1,28
520,429	1,28
520,88	1,28
521,33	1,28
521,781	1,28
522,232	1,29
522,682	1,29
523,133	1,29
523,583	1,29
524,034	1,29
524,484	1,29
524,935	1,3
525,385	1,3
525,836	1,3
526,286	1,3
526,736	1,3
527,187	1,3
527,637	1,3
528,087	1,3
528,538	1,29
528,988	1,29
529,438	1,29
529,888	1,29
530,338	1,29
530,788	1,29
531,238	1,29
531,688	1,29
532,139	1,28
532,589	1,28
533,038	1,28
533,488	1,28
533,938	1,28
534,388	1,27
534,838	1,27
535,288	1,27
535,738	1,26
536,187	1,26
536,637	1,25
537,087	1,25
537,537	1,25
537,986	1,24
538,436	1,24
538,885	1,23
539,335	1,22
539,785	1,22
540,234	1,21
540,684	1,21
541,133	1,2
541,582	1,19
542,032	1,19
542,481	1,18
542,931	1,18
543,38	1,17
543,829	1,16
544,278	1,16
544,728	1,15
545,177	1,14
545,626	1,14
546,075	1,13
546,524	1,13
546,973	1,12
547,422	1,12
547,871	1,12
548,32	1,11
548,769	1,11
549,218	1,11
549,667	1,1
550,116	1,1
550,565	1,1
551,014	1,09
551,463	1,09
551,911	1,08
552,36	1,08
552,809	1,07
553,258	1,07
553,706	1,06
554,155	1,06
554,603	1,05
555,052	1,05
555,501	1,04
555,949	1,04
556,398	1,03
556,846	1,03
557,294	1,02
557,743	1,01
558,191	1,01
558,64	1
559,088	1
559,536	0,99
559,985	0,99
560,433	0,98
560,881	0,97
561,329	0,97
561,777	0,96
562,225	0,96
562,674	0,96
563,122	0,95
563,57	0,95
564,018	0,94
564,466	0,94
564,914	0,93
565,362	0,93
565,809	0,92
566,257	0,92
566,705	0,91
567,153	0,9
567,601	0,9
568,048	0,9
568,496	0,89
568,944	0,89
569,392	0,88
569,839	0,88
570,287	0,88
570,734	0,87
571,182	0,87
571,63	0,86
572,077	0,86
572,525	0,85
572,972	0,85
573,419	0,84
573,867	0,84
574,314	0,84
574,761	0,83
575,209	0,83
575,656	0,82
576,103	0,82
576,551	0,82
576,998	0,81
577,445	0,81
577,892	0,81
578,339	0,8
578,786	0,8
579,233	0,79
579,68	0,79
580,127	0,79
580,574	0,79
581,021	0,78
581,468	0,78
581,915	0,78
582,362	0,77
582,809	0,77
583,255	0,77
583,702	0,76
584,149	0,76
584,596	0,76
585,042	0,75
585,489	0,75
585,936	0,75
586,382	0,74
586,829	0,74
587,275	0,74
587,722	0,74
588,168	0,73
588,615	0,73
589,061	0,73
589,508	0,73
589,954	0,72
590,4	0,72
590,847	0,72
591,293	0,72
591,739	0,71
592,185	0,71
592,632	0,71
593,078	0,71
593,524	0,71
593,97	0,71
594,416	0,71
594,862	0,7
595,308	0,7
595,754	0,7
596,2	0,7
596,646	0,69
597,092	0,69
597,538	0,69
597,984	0,69
598,43	0,69
598,876	0,69
599,321	0,68
599,767	0,68
600,213	0,68
600,659	0,68
601,104	0,68
601,55	0,68
601,995	0,67
602,441	0,67
602,887	0,67
603,332	0,67
603,778	0,67
604,223	0,67
604,668	0,67
605,114	0,67
605,559	0,66
606,005	0,66
606,45	0,66
606,895	0,66
607,341	0,66
607,786	0,66
608,231	0,66
608,676	0,65
609,121	0,64
609,566	0,63
610,012	0,63
610,457	0,62
610,902	0,62
611,347	0,61
611,792	0,61
612,237	0,61
612,682	0,6
613,127	0,6
613,571	0,61
614,016	0,61
614,461	0,62
614,906	0,62
615,351	0,62
615,795	0,62
616,24	0,62
616,685	0,62
617,129	0,62
617,574	0,62
618,019	0,62
618,463	0,62
618,908	0,62
619,352	0,62
619,797	0,62
620,241	0,62
620,686	0,62
621,13	0,62
621,574	0,62
622,019	0,62
622,463	0,62
622,907	0,62
623,352	0,61
623,796	0,61
624,24	0,61
624,684	0,61
625,128	0,61
625,572	0,61
626,016	0,61
626,461	0,61
626,905	0,61
627,349	0,61
627,793	0,61
628,236	0,61
628,68	0,61
629,124	0,61
629,568	0,6
630,012	0,6
630,456	0,6
630,9	0,6
631,343	0,6
631,787	0,6
632,231	0,6
632,674	0,6
633,118	0,6
633,562	0,6
634,005	0,6
634,449	0,6
634,892	0,6
635,336	0,6
635,779	0,6
636,223	0,6
636,666	0,6
637,109	0,6
637,553	0,6
637,996	0,6
638,439	0,6
638,883	0,6
639,326	0,6
639,769	0,6
640,212	0,6
640,655	0,6
641,099	0,6
641,542	0,6
641,985	0,6
642,428	0,59
642,871	0,59
643,314	0,59
643,757	0,59
644,2	0,59
644,643	0,59
645,085	0,59
645,528	0,59
645,971	0,59
646,414	0,59
646,857	0,59
647,299	0,59
647,742	0,58
648,185	0,58
648,627	0,58
649,07	0,58
649,513	0,58
649,955	0,58
650,398	0,58
650,84	0,58
651,283	0,58
651,725	0,58
652,168	0,58
652,61	0,58
653,052	0,58
653,495	0,58
653,937	0,49
654,379	0,43
654,821	0,44
655,264	0,44
655,706	0,44
656,148	0,44
656,59	0,44
657,032	0,44
657,474	0,44
657,916	0,44
658,358	0,43
658,8	0,5
659,242	0,58
659,684	0,58
660,126	0,58
660,568	0,58
661,01	0,58
661,452	0,58
661,894	0,58
662,335	0,58
662,777	0,58
663,219	0,58
663,661	0,58
664,102	0,58
664,544	0,58
664,985	0,58
665,427	0,58
665,869	0,57
666,31	0,57
666,752	0,57
667,193	0,57
667,634	0,57
668,076	0,57
668,517	0,57
668,959	0,57
669,4	0,57
669,841	0,57
670,282	0,57
670,724	0,57
671,165	0,57
671,606	0,57
672,047	0,57
672,488	0,57
672,929	0,57
673,37	0,57
673,811	0,57
674,252	0,57
674,693	0,57
675,134	0,57
675,575	0,57
676,016	0,57
676,457	0,57
676,898	0,57
677,339	0,57
677,78	0,57
678,22	0,57
678,661	0,57
679,102	0,57
679,542	0,57
679,983	0,57
680,424	0,57
680,864	0,57
681,305	0,57
681,745	0,57
682,186	0,57
682,626	0,57
683,067	0,57
683,507	0,57
683,948	0,57
684,388	0,57
684,828	0,57
685,269	0,57
685,709	0,57
686,149	0,57
686,589	0,57
687,029	0,56
687,47	0,56
687,91	0,56
688,35	0,56
688,79	0,56
689,23	0,56
689,67	0,56
690,11	0,56
690,55	0,56
690,99	0,56
691,43	0,56
691,87	0,56
692,31	0,56
692,749	0,56
693,189	0,55
693,629	0,55
694,069	0,55
694,508	0,55
694,948	0,55
695,388	0,55
695,827	0,55
696,267	0,55
696,706	0,56
697,146	0,56
697,586	0,56
698,025	0,56
698,464	0,56
698,904	0,56
699,343	0,56
699,783	0,56
700,222	0,56
700,661	0,56
701,101	0,56
701,54	0,56
701,979	0,56
702,418	0,56
702,857	0,56
703,297	0,56
703,736	0,56
704,175	0,56
704,614	0,56
705,053	0,56
705,492	0,56
705,931	0,56
706,37	0,56
706,809	0,56
707,248	0,55
707,687	0,55
708,125	0,55
708,564	0,55
709,003	0,55
709,442	0,55
709,88	0,55
710,319	0,55
710,758	0,55
711,196	0,55
711,635	0,55
712,074	0,55
712,512	0,55
712,951	0,55
713,389	0,55
713,828	0,55
714,266	0,55
714,705	0,55
715,143	0,55
715,581	0,55
716,02	0,55
716,458	0,55
716,896	0,55
717,334	0,55
717,773	0,55
718,211	0,55
718,649	0,55
719,087	0,55
719,525	0,55
719,963	0,55
720,401	0,55
720,839	0,55
721,277	0,55
721,715	0,55
722,153	0,55
722,591	0,55
723,029	0,55
723,467	0,55
723,905	0,55
724,342	0,54
724,78	0,54
725,218	0,54
725,656	0,54
726,093	0,54
726,531	0,54
726,969	0,54
727,406	0,54
727,844	0,54
728,281	0,54
728,719	0,54
729,156	0,54
729,594	0,54
730,031	0,54
730,469	0,54
730,906	0,54
731,343	0,54
731,781	0,54
732,218	0,54
732,655	0,54
733,092	0,54
733,53	0,54
733,967	0,54
734,404	0,54
734,841	0,54
735,278	0,54
735,715	0,54
736,152	0,54
736,589	0,54
737,026	0,54
737,463	0,54
737,9	0,54
738,337	0,53
738,774	0,53
739,211	0,53
739,647	0,53
740,084	0,53
740,521	0,53
740,958	0,54
741,394	0,54
741,831	0,54
742,268	0,54
742,704	0,54
743,141	0,54
743,577	0,54
744,014	0,53
744,45	0,53
744,887	0,53
745,323	0,53
745,76	0,53
746,196	0,53
746,632	0,53
747,069	0,53
747,505	0,53
747,941	0,53
748,378	0,53
748,814	0,53
749,25	0,53
749,686	0,53
750,122	0,53
750,558	0,53
750,994	0,53
751,43	0,53
751,866	0,53
752,302	0,53
752,738	0,53
753,174	0,53
753,61	0,52
754,046	0,52
754,482	0,52
754,918	0,52
755,354	0,52
755,789	0,52
756,225	0,52
756,661	0,52
757,096	0,52
757,532	0,52
757,968	0,51
758,403	0,51
758,839	0,51
759,274	0,5
759,71	0,5
760,145	0,49
760,581	0,48
761,016	0,48
761,452	0,47
761,887	0,47
762,322	0,46
762,758	0,46
763,193	0,45
763,628	0,44
764,063	0,44
764,499	0,43
764,934	0,43
765,369	0,42
765,804	0,41
766,239	0,41
766,674	0,4
767,109	0,39
767,544	0,38
767,979	0,37
768,414	0,36
768,849	0,35
769,284	0,34
769,719	0,33
770,154	0,31
770,588	0,31
771,023	0,29
771,458	0,28
771,893	0,27
772,327	0,25
772,762	0,24
773,197	0,23
773,631	0,21
774,066	0,2
774,5	0,19
774,935	0,18
775,369	0,17
775,804	0,16
776,238	0,15
776,673	0,14
777,107	0,13
777,541	0,12
777,976	0,11
778,41	0,1
778,844	0,09
779,279	0,09
779,713	0,07
780,147	0,06
780,581	0,05
781,015	0,04
781,449	0,02
781,883	0,02
782,317	-0
782,751	-0,01
783,185	-0,02
783,619	-0,03
784,053	-0,04
784,487	-0,05
784,921	-0,05
785,355	-0,06
785,789	-0,07
786,223	-0,08
786,656	-0,09
787,09	-0,1
787,524	-0,11
787,957	-0,12
788,391	-0,14
788,825	-0,15
789,258	-0,17
789,692	-0,19
790,125	-0,21
790,559	-0,22
790,992	-0,24
791,426	-0,27
791,859	-0,28
792,293	-0,31
792,726	-0,33
793,159	-0,35
793,593	-0,37
794,026	-0,38
794,459	-0,41
794,892	-0,45
795,326	-0,47
795,759	-0,51
796,192	-0,55
796,625	-0,6
797,058	-0,62
797,491	-0,67
797,924	-0,71
798,357	-0,76
798,79	-0,8
799,223	-0,84
799,656	-0,89
800,089	-0,94
800,522	-0,98
800,955	-1,02
801,387	-1,08
801,82	-1,14
802,253	-1,2
802,686	-1,28
803,118	-1,33
803,551	-1,39
803,984	-1,43
804,416	-1,47
804,849	-1,49
805,281	-1,59
805,714	-1,93
806,146	-2,41
806,579	-2,68
807,011	-2,85
807,444	-2,95
807,876	-3,05
808,308	-3,09
808,741	-3,12
809,173	-3,17
809,605	-3,19
810,037	-3,27
810,47	-3,2
810,902	-3,01
811,334	-2,87
811,766	-2,72
812,198	-2,51
812,63	-2,08
813,062	-1,82
813,494	-1,71
813,926	-1,62
814,358	-1,57
814,79	-1,49
815,222	-1,43
815,654	-1,38
816,086	-1,32
816,518	-1,26
816,949	-1,21
817,381	-1,16
817,813	-1,14
818,245	-1,1
818,676	-1,06
819,108	-1,03
819,54	-1,01
819,971	-0,99
820,403	-0,94
820,834	-0,92
821,266	-0,87
821,697	-0,85
822,129	-0,83
822,56	-0,81
822,991	-0,78
823,423	-0,76
823,854	-0,75
824,286	-0,72
824,717	-0,71
825,148	-0,7
825,579	-0,69
826,01	-0,68
826,442	-0,68
826,873	-0,66
827,304	-0,63
827,735	-0,61
828,166	-0,62
828,597	-0,61
829,028	-0,61
829,459	-0,61
829,89	-0,61
830,321	-0,57
830,752	-0,57
831,183	-0,56
831,613	-0,55
832,044	-0,56
832,475	-0,55
832,906	-0,56
833,336	-0,57
833,767	-0,57
834,198	-0,56
834,628	-0,54
835,059	-0,57
835,49	-0,58
835,92	-0,54
836,351	-0,54
836,781	-0,53
837,212	-0,54
837,642	-0,55
838,072	-0,53
838,503	-0,53
838,933	-0,51
839,364	-0,52
839,794	-0,5
840,224	-0,49
840,654	-0,54
841,085	-0,55
841,515	-0,52
841,945	-0,53
842,375	-0,48
842,805	-0,48
843,235	-0,47
843,665	-0,49
844,095	-0,47
844,525	-0,48
844,955	-0,49
845,385	-0,47
845,815	-0,45
846,245	-0,46
846,675	-0,47
847,105	-0,49
847,534	-0,49
847,964	-0,47
848,394	-0,46
848,824	-0,49
849,253	-0,49
849,683	-0,49
850,112	-0,49
850,542	-0,53
850,972	-0,53
851,401	-0,51
851,831	-0,49
852,26	-0,49
852,69	-0,53
853,119	-0,52
853,548	-0,52
853,978	-0,52
854,407	-0,51
854,836	-0,51
855,266	-0,51
855,695	-0,52
856,124	-0,53
856,553	-0,53
856,983	-0,55
857,412	-0,55
857,841	-0,55
858,27	-0,56
858,699	-0,57
859,128	-0,59
859,557	-0,61
859,986	-0,62
860,415	-0,6
860,844	-0,57
861,273	-0,59
861,702	-0,6
862,13	-0,57
862,559	-0,59
862,988	-0,56
863,417	-0,55
863,845	-0,55
864,274	-0,54
864,703	-0,54
865,131	-0,54
865,56	-0,56
865,989	-0,58
866,417	-0,55
866,846	-0,56
867,274	-0,55
867,703	-0,57
868,131	-0,58
868,559	-0,58
868,988	-0,61
869,416	-0,59
869,844	-0,6
870,273	-0,62
870,701	-0,6
871,129	-0,63
871,557	-0,66
871,986	-0,67
872,414	-0,67
872,842	-0,65
873,27	-0,63
873,698	-0,6
874,126	-0,64
874,554	-0,63
874,982	-0,64
875,41	-0,67
875,838	-0,62
876,266	-0,59
876,694	-0,59
877,122	-0,59
877,549	-0,63
877,977	-0,6
878,405	-0,63
878,833	-0,59
879,26	-0,57
879,688	-0,56
880,116	-0,55
880,543	-0,54
880,971	-0,52
881,399	-0,55
881,826	-0,55
882,254	-0,54
882,681	-0,57
883,109	-0,54
883,536	-0,55
883,963	-0,57
884,391	-0,55
884,818	-0,53
885,245	-0,57
885,673	-0,59
886,1	-0,57
886,527	-0,57
886,954	-0,53
887,381	-0,56
887,809	-0,56
888,236	-0,57
888,663	-0,57
889,09	-0,62
889,517	-0,64
889,944	-0,63
890,371	-0,61
890,798	-0,62
891,225	-0,62
891,652	-0,65
892,078	-0,62
892,505	-0,66
892,932	-0,61
893,359	-0,62
893,786	-0,62
894,212	-0,59
894,639	-0,6
895,066	-0,64
895,492	-0,57
895,919	-0,57
896,346	-0,56
896,772	-0,56
897,199	-0,52
897,625	-0,55
898,052	-0,51
898,478	-0,5
898,904	-0,52
899,331	-0,5
899,757	-0,52
900,183	-0,55
900,61	-0,54
901,036	-0,54
901,462	-0,55
901,888	-0,55
902,315	-0,54
902,741	-0,59
903,167	-0,58
903,593	-0,6
904,019	-0,59
904,445	-0,55
904,871	-0,58
905,297	-0,6
905,723	-0,6
906,149	-0,58
906,575	-0,59
907,001	-0,58
907,427	-0,55
907,852	-0,55
908,278	-0,56
908,704	-0,53
909,13	-0,53
909,555	-0,52
909,981	-0,51
910,407	-0,52
910,832	-0,52
911,258	-0,51
911,684	-0,52
912,109	-0,52
912,535	-0,54
912,96	-0,5
913,386	-0,55
913,811	-0,54
914,236	-0,55
914,662	-0,53
915,087	-0,57
915,512	-0,57
915,938	-0,59
916,363	-0,57
916,788	-0,59
917,213	-0,57
917,639	-0,63
918,064	-0,6
918,489	-0,6
918,914	-0,6
919,339	-0,6
919,764	-0,58
920,189	-0,57
920,614	-0,59
921,039	-0,6
921,464	-0,56
921,889	-0,58
922,314	-0,58
922,738	-0,62
923,163	-0,64
923,588	-0,63
924,013	-0,63
924,437	-0,63
924,862	-0,65
925,287	-0,62
925,711	-0,62
926,136	-0,63
926,561	-0,62
926,985	-0,61
927,41	-0,58
927,834	-0,54
928,259	-0,52
928,683	-0,5
929,108	-0,47
929,532	-0,48
929,956	-0,47
930,381	-0,46
930,805	-0,47
931,229	-0,45
931,653	-0,44
932,078	-0,44
932,502	-0,45
932,926	-0,46
933,35	-0,46
933,774	-0,45
934,198	-0,43
934,622	-0,41
935,046	-0,42
935,47	-0,43
935,894	-0,43
936,318	-0,42
936,742	-0,42
937,166	-0,42
937,59	-0,41
938,014	-0,43
938,437	-0,44
938,861	-0,46
939,285	-0,47
939,709	-0,46
940,132	-0,45
940,556	-0,46
940,98	-0,46
941,403	-0,44
941,827	-0,45
942,25	-0,46
942,674	-0,45
943,097	-0,44
943,521	-0,44
943,944	-0,45
944,368	-0,44
944,791	-0,43
945,214	-0,45
945,638	-0,45
946,061	-0,49
946,484	-0,5
946,907	-0,48
947,331	-0,48
947,754	-0,52
948,177	-0,5
948,6	-0,49
949,023	-0,49
949,446	-0,49
949,869	-0,47
950,292	-0,47
950,715	-0,43
951,138	-0,42
951,561	-0,4
951,984	-0,41
952,407	-0,4
952,83	-0,38
953,252	-0,35
953,675	-0,35
954,098	-0,36
954,521	-0,35
954,943	-0,34
955,366	-0,35
955,789	-0,33
956,211	-0,35
956,634	-0,36
957,056	-0,34
957,479	-0,35
957,902	-0,38
958,324	-0,37
958,746	-0,35
959,169	-0,36
959,591	-0,37
960,014	-0,38
960,436	-0,38
960,858	-0,38
961,281	-0,37
961,703	-0,38
962,125	-0,37
962,547	-0,35
962,969	-0,37
963,391	-0,38
963,814	-0,38
964,236	-0,38
964,658	-0,35
965,08	-0,36
965,502	-0,35
965,924	-0,33
966,346	-0,33
966,768	-0,32
967,189	-0,33
967,611	-0,32
968,033	-0,31
968,455	-0,29
968,877	-0,31
969,298	-0,31
969,72	-0,32
970,142	-0,3
970,563	-0,31
970,985	-0,3
971,407	-0,29
971,828	-0,27
972,25	-0,26
972,671	-0,24
973,093	-0,24
973,514	-0,22
973,936	-0,2
974,357	-0,19
974,778	-0,19
975,2	-0,18
975,621	-0,17
976,042	-0,16
976,464	-0,16
976,885	-0,15
977,306	-0,15
977,727	-0,14
978,148	-0,12
978,57	-0,11
978,991	-0,09
979,412	-0,08
979,833	-0,06
980,254	-0,05
980,675	-0,05
981,096	-0,04
981,517	-0,01
981,937	-0
982,358	0,01
982,779	0,03
983,2	0,03
983,621	0,04
984,042	0,05
984,462	0,07
984,883	0,08
985,304	0,1
985,724	0,11
986,145	0,12
986,565	0,14
986,986	0,14
987,407	0,15
987,827	0,17
988,248	0,18
988,668	0,19
989,088	0,2
989,509	0,21
989,929	0,23
990,35	0,24
990,77	0,26
991,19	0,26
991,61	0,29
992,031	0,3
992,451	0,3
992,871	0,32
993,291	0,33
993,711	0,34
994,131	0,35
994,551	0,36
994,971	0,37
995,391	0,38
995,811	0,39
996,231	0,39
996,651	0,39
997,071	0,41
997,491	0,41
997,911	0,42
998,331	0,43
998,75	0,44
999,17	0,44
999,59	0,45
1000,009	0,46
1000,429	0,46
1000,849	0,47
1001,268	0,48
1001,688	0,48
1002,107	0,49
1002,527	0,49
1002,946	0,5
1003,366	0,5
1003,785	0,5
1004,205	0,51
1004,624	0,51
1005,044	0,52
1005,463	0,52
1005,882	0,52
1006,301	0,52
1006,721	0,53
1007,14	0,53
1007,559	0,53
1007,978	0,53
1008,397	0,53
1008,816	0,53
1009,235	0,53
1009,655	0,53
1010,074	0,53
1010,492	0,53
1010,911	0,53
1011,33	0,53
1011,749	0,53
1012,168	0,53
1012,587	0,53
1013,006	0,53
1013,425	0,53
1013,843	0,53
1014,262	0,53
1014,681	0,53
1015,099	0,53
1015,518	0,53
1015,937	0,53
1016,355	0,53
1016,774	0,52
1017,192	0,53
1017,611	0,53
1018,029	0,52
1018,448	0,53
1018,866	0,52
1019,285	0,53
1019,703	0,52
1020,121	0,52
1020,54	0,53
1020,958	0,53
1021,376	0,52
1021,794	0,52
1022,213	0,52
1022,631	0,52
1023,049	0,52
1023,467	0,52
1023,885	0,52
1024,303	0,52
1024,721	0,52
1025,139	0,52
1025,557	0,51
1025,975	0,51
1026,393	0,51
1026,811	0,51
1027,229	0,51
1027,647	0,51
1028,065	0,51
1028,482	0,51
1028,9	0,51
1029,318	0,5
1029,735	0,5
1030,153	0,5
1030,571	0,5
1030,988	0,51
1031,406	0,51
1031,823	0,51
1032,241	0,51
1032,659	0,51
1033,076	0,51
1033,493	0,51
1033,911	0,51
1034,328	0,51
1034,746	0,51
1035,163	0,51
1035,58	0,51
1035,997	0,51
1036,415	0,51
1036,832	0,51
1037,249	0,51
1037,666	0,5
1038,083	0,5
1038,501	0,5
1038,918	0,5
1039,335	0,5
1039,752	0,5
1040,169	0,5
1040,586	0,5
1041,003	0,5
1041,419	0,5
1041,836	0,5
1042,253	0,5
1042,67	0,51
1043,087	0,5
1043,504	0,5
1043,92	0,5
1044,337	0,5
1044,754	0,5
1045,17	0,5
1045,587	0,5
1046,004	0,5
1046,42	0,5
1046,837	0,5
1047,253	0,5
1047,67	0,5
1048,086	0,5
1048,503	0,5
1048,919	0,5
1049,335	0,5
1049,752	0,5
1050,168	0,5
1050,584	0,5
1051,001	0,5
1051,417	0,5
1051,833	0,51
1052,249	0,51
1052,665	0,51
1053,081	0,51
1053,497	0,51
1053,914	0,51
1054,33	0,51
1054,746	0,52
1055,162	0,52
1055,578	0,52
1055,993	0,52
1056,409	0,52
1056,825	0,52
1057,241	0,52
1057,657	0,52
1058,073	0,52
1058,488	0,52
1058,904	0,52
1059,32	0,52
1059,736	0,52
1060,151	0,52
1060,567	0,52
1060,982	0,52
1061,398	0,52
1061,813	0,52
1062,229	0,52
1062,644	0,52
1063,06	0,52
1063,475	0,52
1063,891	0,52
1064,306	0,52
1064,721	0,52
1065,137	0,52
1065,552	0,52
1065,967	0,51
1066,382	0,51
1066,798	0,51
1067,213	0,51
1067,628	0,51
1068,043	0,51
1068,458	0,51
1068,873	0,51
1069,288	0,51
1069,703	0,51
1070,118	0,51
1070,533	0,51
1070,948	0,51
1071,363	0,51
1071,778	0,51
1072,193	0,52
1072,607	0,52
1073,022	0,52
1073,437	0,52
1073,852	0,52
1074,266	0,52
1074,681	0,52
1075,096	0,52
1075,51	0,52
1075,925	0,52
1076,339	0,51
1076,754	0,51
1077,168	0,51
1077,583	0,51
1077,997	0,51
1078,412	0,51
1078,826	0,51
1079,24	0,51
1079,655	0,5
1080,069	0,5
1080,483	0,5
1080,897	0,5
1081,312	0,5
1081,726	0,5
1082,14	0,5
1082,554	0,5
1082,968	0,5
1083,382	0,49
1083,796	0,49
1084,21	0,49
1084,624	0,49
1085,038	0,49
1085,452	0,49
1085,866	0,48
1086,28	0,48
1086,694	0,48
1087,108	0,48
1087,521	0,48
1087,935	0,47
1088,349	0,47
1088,763	0,47
1089,176	0,46
1089,59	0,46
1090,004	0,46
1090,417	0,46
1090,831	0,45
1091,244	0,45
1091,658	0,45
1092,071	0,44
1092,485	0,44
1092,898	0,44
1093,312	0,44
1093,725	0,44
1094,138	0,43
1094,552	0,43
1094,965	0,43
1095,378	0,43
1095,791	0,42
1096,205	0,42
1096,618	0,42
1097,031	0,41
1097,444	0,41
1097,857	0,4
1098,27	0,4
1098,683	0,39
1099,096	0,39
1099,509	0,38
1099,922	0,38
1100,335	0,37
1100,748	0,36
1101,161	0,36
1101,574	0,35
1101,986	0,35
1102,399	0,34
1102,812	0,34
1103,225	0,33
1103,637	0,33
1104,05	0,33
1104,463	0,33
1104,875	0,32
1105,288	0,32
1105,7	0,31
1106,113	0,31
1106,525	0,31
1106,938	0,3
1107,35	0,3
1107,763	0,3
1108,175	0,29
1108,588	0,28
1109	0,28
1109,412	0,27
1109,824	0,27
1110,237	0,27
1110,649	0,26
1111,061	0,24
