Data from 18C-808nm-8A-cont_Absorbance__491__01920.txt Node

Date: Mon Jul 17 17:37:03 CEST 2023
User: Laser008
Spectrometer: MAYP115816
Trigger mode: 0
Integration Time (sec): 2,500000E-1
Scans to average: 10
Electric dark correction enabled: true
Nonlinearity correction enabled: true
Boxcar width: 5
XAxis mode: Wavelengths
Number of Pixels in Spectrum: 2068
>>>>>Begin Spectral Data<<<<<
198,914	-0,68
199,384	-0,48
199,855	-0,36
200,325	-0,29
200,796	-0,25
201,266	-0,21
201,737	-0,2
202,207	-0,19
202,677	-0,17
203,147	-0,16
203,618	-0,13
204,088	-0,11
204,558	-0,1
205,028	-0,09
205,498	-0,09
205,968	-0,09
206,439	-0,1
206,909	-0,09
207,379	-0,1
207,849	-0,11
208,319	-0,12
208,789	-0,12
209,258	-0,12
209,728	-0,12
210,198	-0,12
210,668	-0,13
211,138	-0,12
211,608	-0,12
212,077	-0,11
212,547	-0,1
213,017	-0,1
213,486	-0,12
213,956	-0,12
214,426	-0,13
214,895	-0,13
215,365	-0,14
215,834	-0,14
216,304	-0,15
216,773	-0,15
217,243	-0,17
217,712	-0,18
218,181	-0,18
218,651	-0,16
219,12	-0,16
219,589	-0,16
220,058	-0,15
220,528	-0,16
220,997	-0,17
221,466	-0,18
221,935	-0,19
222,404	-0,19
222,873	-0,18
223,342	-0,18
223,812	-0,18
224,281	-0,18
224,749	-0,18
225,218	-0,2
225,687	-0,2
226,156	-0,18
226,625	-0,16
227,094	-0,16
227,563	-0,15
228,031	-0,17
228,5	-0,16
228,969	-0,17
229,438	-0,17
229,906	-0,16
230,375	-0,15
230,844	-0,14
231,312	-0,14
231,781	-0,16
232,249	-0,15
232,718	-0,16
233,186	-0,14
233,655	-0,15
234,123	-0,14
234,591	-0,15
235,06	-0,16
235,528	-0,16
235,996	-0,16
236,465	-0,16
236,933	-0,15
237,401	-0,15
237,869	-0,14
238,337	-0,14
238,805	-0,13
239,274	-0,13
239,742	-0,12
240,21	-0,1
240,678	-0,09
241,146	-0,08
241,614	-0,08
242,081	-0,07
242,549	-0,08
243,017	-0,08
243,485	-0,07
243,953	-0,07
244,421	-0,07
244,888	-0,08
245,356	-0,07
245,824	-0,08
246,291	-0,08
246,759	-0,09
247,227	-0,1
247,694	-0,09
248,162	-0,08
248,629	-0,08
249,097	-0,09
249,564	-0,1
250,032	-0,11
250,499	-0,11
250,967	-0,12
251,434	-0,13
251,901	-0,13
252,369	-0,13
252,836	-0,14
253,303	-0,15
253,77	-0,17
254,237	-0,16
254,705	-0,16
255,172	-0,14
255,639	-0,14
256,106	-0,16
256,573	-0,15
257,04	-0,16
257,507	-0,16
257,974	-0,17
258,441	-0,15
258,908	-0,16
259,375	-0,17
259,841	-0,18
260,308	-0,19
260,775	-0,19
261,242	-0,18
261,709	-0,19
262,175	-0,2
262,642	-0,2
263,109	-0,19
263,575	-0,2
264,042	-0,18
264,508	-0,18
264,975	-0,2
265,441	-0,2
265,908	-0,21
266,374	-0,19
266,841	-0,2
267,307	-0,2
267,773	-0,19
268,24	-0,19
268,706	-0,2
269,172	-0,21
269,639	-0,22
270,105	-0,2
270,571	-0,2
271,037	-0,21
271,503	-0,22
271,969	-0,21
272,435	-0,22
272,902	-0,23
273,368	-0,24
273,834	-0,24
274,3	-0,24
274,765	-0,24
275,231	-0,24
275,697	-0,23
276,163	-0,22
276,629	-0,22
277,095	-0,22
277,56	-0,22
278,026	-0,23
278,492	-0,21
278,958	-0,2
279,423	-0,21
279,889	-0,2
280,354	-0,21
280,82	-0,22
281,286	-0,23
281,751	-0,24
282,217	-0,22
282,682	-0,21
283,147	-0,21
283,613	-0,22
284,078	-0,23
284,544	-0,23
285,009	-0,24
285,474	-0,23
285,939	-0,25
286,405	-0,23
286,87	-0,23
287,335	-0,22
287,8	-0,22
288,265	-0,21
288,73	-0,23
289,195	-0,25
289,66	-0,24
290,125	-0,23
290,59	-0,23
291,055	-0,22
291,52	-0,23
291,985	-0,23
292,45	-0,25
292,915	-0,26
293,38	-0,26
293,844	-0,25
294,309	-0,23
294,774	-0,22
295,239	-0,23
295,703	-0,24
296,168	-0,23
296,632	-0,22
297,097	-0,2
297,562	-0,18
298,026	-0,18
298,491	-0,17
298,955	-0,16
299,419	-0,16
299,884	-0,16
300,348	-0,14
300,813	-0,14
301,277	-0,14
301,741	-0,13
302,205	-0,13
302,67	-0,13
303,134	-0,12
303,598	-0,12
304,062	-0,12
304,526	-0,11
304,99	-0,12
305,454	-0,12
305,919	-0,11
306,383	-0,12
306,847	-0,12
307,31	-0,12
307,774	-0,14
308,238	-0,14
308,702	-0,14
309,166	-0,16
309,63	-0,16
310,094	-0,13
310,557	-0,13
311,021	-0,13
311,485	-0,12
311,948	-0,13
312,412	-0,12
312,876	-0,12
313,339	-0,12
313,803	-0,12
314,266	-0,1
314,73	-0,1
315,193	-0,11
315,657	-0,09
316,12	-0,09
316,584	-0,08
317,047	-0,07
317,51	-0,06
317,973	-0,06
318,437	-0,04
318,9	-0,04
319,363	-0,03
319,826	-0,02
320,29	-0,03
320,753	-0,03
321,216	-0,04
321,679	-0,04
322,142	-0,03
322,605	-0,04
323,068	-0,04
323,531	-0,05
323,994	-0,04
324,457	-0,04
324,92	-0,03
325,382	-0,03
325,845	-0,02
326,308	-0,01
326,771	-0,01
327,233	-0,01
327,696	0
328,159	0,01
328,622	0,02
329,084	0,01
329,547	0,02
330,009	0,02
330,472	0,03
330,934	0,04
331,397	0,04
331,859	0,05
332,322	0,05
332,784	0,06
333,246	0,06
333,709	0,06
334,171	0,07
334,633	0,07
335,096	0,07
335,558	0,07
336,02	0,07
336,482	0,06
336,944	0,07
337,406	0,08
337,868	0,07
338,331	0,08
338,793	0,09
339,255	0,1
339,717	0,1
340,178	0,11
340,64	0,12
341,102	0,14
341,564	0,16
342,026	0,17
342,488	0,18
342,949	0,2
343,411	0,23
343,873	0,26
344,335	0,29
344,796	0,33
345,258	0,37
345,719	0,42
346,181	0,47
346,643	0,51
347,104	0,55
347,566	0,59
348,027	0,62
348,488	0,65
348,95	0,68
349,411	0,71
349,873	0,74
350,334	0,76
350,795	0,78
351,256	0,79
351,718	0,81
352,179	0,81
352,64	0,82
353,101	0,82
353,562	0,83
354,023	0,83
354,484	0,83
354,945	0,84
355,406	0,84
355,867	0,84
356,328	0,85
356,789	0,86
357,25	0,86
357,711	0,86
358,172	0,87
358,633	0,87
359,093	0,87
359,554	0,87
360,015	0,87
360,476	0,87
360,936	0,87
361,397	0,88
361,858	0,87
362,318	0,87
362,779	0,87
363,239	0,87
363,7	0,87
364,16	0,88
364,621	0,88
365,081	0,88
365,541	0,88
366,002	0,87
366,462	0,87
366,922	0,87
367,383	0,87
367,843	0,87
368,303	0,87
368,763	0,88
369,223	0,88
369,684	0,88
370,144	0,88
370,604	0,88
371,064	0,88
371,524	0,88
371,984	0,88
372,444	0,88
372,904	0,87
373,363	0,87
373,823	0,87
374,283	0,87
374,743	0,87
375,203	0,87
375,663	0,87
376,122	0,87
376,582	0,87
377,042	0,87
377,501	0,87
377,961	0,87
378,42	0,87
378,88	0,87
379,34	0,87
379,799	0,87
380,259	0,87
380,718	0,87
381,177	0,87
381,637	0,87
382,096	0,87
382,555	0,87
383,015	0,87
383,474	0,87
383,933	0,87
384,393	0,87
384,852	0,87
385,311	0,87
385,77	0,87
386,229	0,87
386,688	0,87
387,147	0,87
387,606	0,87
388,065	0,86
388,524	0,86
388,983	0,86
389,442	0,86
389,901	0,86
390,36	0,86
390,819	0,86
391,277	0,86
391,736	0,86
392,195	0,86
392,654	0,86
393,112	0,86
393,571	0,86
394,03	0,86
394,488	0,86
394,947	0,86
395,405	0,86
395,864	0,86
396,322	0,86
396,781	0,86
397,239	0,86
397,698	0,86
398,156	0,86
398,614	0,86
399,073	0,86
399,531	0,86
399,989	0,86
400,447	0,86
400,905	0,86
401,364	0,85
401,822	0,85
402,28	0,85
402,738	0,85
403,196	0,85
403,654	0,85
404,112	0,85
404,57	0,85
405,028	0,85
405,486	0,85
405,944	0,85
406,402	0,85
406,859	0,85
407,317	0,85
407,775	0,85
408,233	0,85
408,691	0,85
409,148	0,85
409,606	0,85
410,064	0,85
410,521	0,85
410,979	0,85
411,436	0,85
411,894	0,85
412,351	0,85
412,809	0,85
413,266	0,85
413,724	0,85
414,181	0,85
414,638	0,85
415,096	0,85
415,553	0,85
416,01	0,85
416,467	0,85
416,925	0,85
417,382	0,85
417,839	0,85
418,296	0,85
418,753	0,85
419,21	0,85
419,667	0,85
420,124	0,85
420,581	0,85
421,038	0,85
421,495	0,85
421,952	0,85
422,409	0,85
422,866	0,85
423,322	0,85
423,779	0,85
424,236	0,85
424,693	0,85
425,149	0,85
425,606	0,85
426,063	0,85
426,519	0,85
426,976	0,85
427,433	0,84
427,889	0,84
428,346	0,84
428,802	0,84
429,258	0,84
429,715	0,84
430,171	0,84
430,628	0,84
431,084	0,84
431,54	0,84
431,997	0,84
432,453	0,84
432,909	0,84
433,365	0,84
433,821	0,84
434,277	0,84
434,734	0,84
435,19	0,84
435,646	0,84
436,102	0,84
436,558	0,84
437,014	0,84
437,47	0,84
437,925	0,84
438,381	0,84
438,837	0,84
439,293	0,84
439,749	0,84
440,205	0,84
440,66	0,84
441,116	0,84
441,572	0,84
442,027	0,84
442,483	0,84
442,939	0,84
443,394	0,84
443,85	0,84
444,305	0,84
444,761	0,84
445,216	0,85
445,672	0,85
446,127	0,85
446,582	0,85
447,038	0,85
447,493	0,85
447,948	0,85
448,403	0,85
448,859	0,85
449,314	0,85
449,769	0,85
450,224	0,85
450,679	0,85
451,134	0,85
451,589	0,85
452,044	0,85
452,499	0,85
452,954	0,85
453,409	0,85
453,864	0,85
454,319	0,85
454,774	0,85
455,229	0,85
455,684	0,85
456,138	0,85
456,593	0,85
457,048	0,85
457,503	0,85
457,957	0,85
458,412	0,85
458,866	0,85
459,321	0,85
459,776	0,86
460,23	0,86
460,685	0,86
461,139	0,86
461,593	0,86
462,048	0,86
462,502	0,86
462,957	0,86
463,411	0,86
463,865	0,87
464,319	0,87
464,774	0,87
465,228	0,87
465,682	0,87
466,136	0,87
466,59	0,87
467,044	0,87
467,499	0,87
467,953	0,87
468,407	0,87
468,861	0,87
469,315	0,88
469,768	0,88
470,222	0,88
470,676	0,88
471,13	0,88
471,584	0,88
472,038	0,88
472,491	0,88
472,945	0,88
473,399	0,88
473,852	0,88
474,306	0,89
474,76	0,89
475,213	0,89
475,667	0,89
476,12	0,89
476,574	0,89
477,027	0,89
477,481	0,9
477,934	0,9
478,388	0,9
478,841	0,9
479,294	0,9
479,748	0,91
480,201	0,91
480,654	0,91
481,107	0,91
481,561	0,91
482,014	0,92
482,467	0,92
482,92	0,92
483,373	0,92
483,826	0,92
484,279	0,93
484,732	0,93
485,185	0,93
485,638	0,93
486,091	0,93
486,544	0,94
486,997	0,94
487,449	0,94
487,902	0,94
488,355	0,95
488,808	0,95
489,26	0,95
489,713	0,95
490,166	0,96
490,618	0,96
491,071	0,96
491,523	0,97
491,976	0,97
492,429	0,97
492,881	0,98
493,333	0,98
493,786	0,98
494,238	0,99
494,691	0,99
495,143	0,99
495,595	1
496,048	1
496,5	1,01
496,952	1,01
497,404	1,01
497,856	1,02
498,309	1,02
498,761	1,03
499,213	1,03
499,665	1,03
500,117	1,04
500,569	1,04
501,021	1,05
501,473	1,05
501,925	1,06
502,377	1,06
502,828	1,06
503,28	1,07
503,732	1,07
504,184	1,08
504,636	1,08
505,087	1,08
505,539	1,09
505,991	1,09
506,442	1,1
506,894	1,1
507,345	1,11
507,797	1,11
508,249	1,11
508,7	1,12
509,151	1,12
509,603	1,13
510,054	1,13
510,506	1,14
510,957	1,14
511,408	1,14
511,86	1,15
512,311	1,15
512,762	1,16
513,213	1,16
513,665	1,16
514,116	1,17
514,567	1,17
515,018	1,17
515,469	1,18
515,92	1,18
516,371	1,18
516,822	1,19
517,273	1,19
517,724	1,19
518,175	1,2
518,626	1,2
519,076	1,2
519,527	1,2
519,978	1,21
520,429	1,21
520,88	1,21
521,33	1,21
521,781	1,21
522,232	1,21
522,682	1,22
523,133	1,22
523,583	1,22
524,034	1,22
524,484	1,22
524,935	1,22
525,385	1,23
525,836	1,23
526,286	1,23
526,736	1,23
527,187	1,23
527,637	1,23
528,087	1,22
528,538	1,22
528,988	1,22
529,438	1,22
529,888	1,22
530,338	1,22
530,788	1,22
531,238	1,22
531,688	1,22
532,139	1,21
532,589	1,21
533,038	1,21
533,488	1,21
533,938	1,21
534,388	1,2
534,838	1,2
535,288	1,2
535,738	1,19
536,187	1,19
536,637	1,19
537,087	1,18
537,537	1,18
537,986	1,17
538,436	1,17
538,885	1,16
539,335	1,16
539,785	1,15
540,234	1,15
540,684	1,14
541,133	1,14
541,582	1,13
542,032	1,13
542,481	1,12
542,931	1,11
543,38	1,11
543,829	1,1
544,278	1,1
544,728	1,09
545,177	1,09
545,626	1,08
546,075	1,08
546,524	1,07
546,973	1,07
547,422	1,06
547,871	1,06
548,32	1,05
548,769	1,05
549,218	1,05
549,667	1,05
550,116	1,04
550,565	1,04
551,014	1,03
551,463	1,03
551,911	1,02
552,36	1,02
552,809	1,01
553,258	1,01
553,706	1
554,155	1
554,603	0,99
555,052	0,99
555,501	0,98
555,949	0,98
556,398	0,97
556,846	0,97
557,294	0,96
557,743	0,96
558,191	0,95
558,64	0,94
559,088	0,94
559,536	0,93
559,985	0,93
560,433	0,92
560,881	0,92
561,329	0,91
561,777	0,91
562,225	0,9
562,674	0,9
563,122	0,89
563,57	0,89
564,018	0,89
564,466	0,88
564,914	0,88
565,362	0,87
565,809	0,87
566,257	0,86
566,705	0,86
567,153	0,85
567,601	0,85
568,048	0,84
568,496	0,84
568,944	0,83
569,392	0,83
569,839	0,83
570,287	0,82
570,734	0,82
571,182	0,82
571,63	0,81
572,077	0,81
572,525	0,8
572,972	0,8
573,419	0,8
573,867	0,79
574,314	0,79
574,761	0,78
575,209	0,78
575,656	0,78
576,103	0,77
576,551	0,77
576,998	0,77
577,445	0,76
577,892	0,76
578,339	0,76
578,786	0,75
579,233	0,75
579,68	0,74
580,127	0,74
580,574	0,74
581,021	0,74
581,468	0,73
581,915	0,73
582,362	0,73
582,809	0,72
583,255	0,72
583,702	0,72
584,149	0,72
584,596	0,71
585,042	0,71
585,489	0,71
585,936	0,7
586,382	0,7
586,829	0,7
587,275	0,7
587,722	0,7
588,168	0,69
588,615	0,69
589,061	0,69
589,508	0,68
589,954	0,68
590,4	0,68
590,847	0,68
591,293	0,67
591,739	0,67
592,185	0,67
592,632	0,67
593,078	0,67
593,524	0,67
593,97	0,67
594,416	0,66
594,862	0,66
595,308	0,66
595,754	0,66
596,2	0,66
596,646	0,66
597,092	0,65
597,538	0,65
597,984	0,65
598,43	0,65
598,876	0,65
599,321	0,64
599,767	0,64
600,213	0,64
600,659	0,64
601,104	0,64
601,55	0,64
601,995	0,64
602,441	0,63
602,887	0,63
603,332	0,63
603,778	0,63
604,223	0,63
604,668	0,63
605,114	0,63
605,559	0,63
606,005	0,62
606,45	0,62
606,895	0,62
607,341	0,62
607,786	0,62
608,231	0,62
608,676	0,61
609,121	0,6
609,566	0,6
610,012	0,59
610,457	0,59
610,902	0,58
611,347	0,58
611,792	0,58
612,237	0,57
612,682	0,57
613,127	0,57
613,571	0,57
614,016	0,58
614,461	0,58
614,906	0,59
615,351	0,59
615,795	0,59
616,24	0,59
616,685	0,59
617,129	0,59
617,574	0,59
618,019	0,59
618,463	0,59
618,908	0,59
619,352	0,59
619,797	0,59
620,241	0,59
620,686	0,58
621,13	0,58
621,574	0,58
622,019	0,58
622,463	0,58
622,907	0,58
623,352	0,58
623,796	0,58
624,24	0,58
624,684	0,57
625,128	0,57
625,572	0,57
626,016	0,57
626,461	0,57
626,905	0,57
627,349	0,57
627,793	0,57
628,236	0,57
628,68	0,57
629,124	0,57
629,568	0,57
630,012	0,57
630,456	0,57
630,9	0,57
631,343	0,57
631,787	0,57
632,231	0,57
632,674	0,57
633,118	0,57
633,562	0,57
634,005	0,57
634,449	0,57
634,892	0,57
635,336	0,57
635,779	0,57
636,223	0,57
636,666	0,56
637,109	0,56
637,553	0,56
637,996	0,56
638,439	0,56
638,883	0,56
639,326	0,56
639,769	0,56
640,212	0,56
640,655	0,56
641,099	0,56
641,542	0,56
641,985	0,56
642,428	0,56
642,871	0,56
643,314	0,55
643,757	0,55
644,2	0,55
644,643	0,55
645,085	0,55
645,528	0,55
645,971	0,55
646,414	0,55
646,857	0,55
647,299	0,55
647,742	0,55
648,185	0,55
648,627	0,55
649,07	0,55
649,513	0,55
649,955	0,55
650,398	0,55
650,84	0,55
651,283	0,55
651,725	0,55
652,168	0,55
652,61	0,55
653,052	0,55
653,495	0,55
653,937	0,46
654,379	0,4
654,821	0,41
655,264	0,41
655,706	0,41
656,148	0,41
656,59	0,41
657,032	0,41
657,474	0,41
657,916	0,41
658,358	0,4
658,8	0,46
659,242	0,54
659,684	0,54
660,126	0,54
660,568	0,54
661,01	0,54
661,452	0,54
661,894	0,54
662,335	0,54
662,777	0,54
663,219	0,54
663,661	0,54
664,102	0,54
664,544	0,54
664,985	0,54
665,427	0,54
665,869	0,54
666,31	0,54
666,752	0,54
667,193	0,54
667,634	0,54
668,076	0,54
668,517	0,54
668,959	0,54
669,4	0,54
669,841	0,54
670,282	0,54
670,724	0,54
671,165	0,54
671,606	0,54
672,047	0,54
672,488	0,54
672,929	0,54
673,37	0,54
673,811	0,54
674,252	0,53
674,693	0,53
675,134	0,53
675,575	0,53
676,016	0,53
676,457	0,53
676,898	0,53
677,339	0,53
677,78	0,53
678,22	0,53
678,661	0,53
679,102	0,53
679,542	0,53
679,983	0,53
680,424	0,53
680,864	0,53
681,305	0,53
681,745	0,53
682,186	0,53
682,626	0,53
683,067	0,53
683,507	0,53
683,948	0,53
684,388	0,53
684,828	0,53
685,269	0,53
685,709	0,53
686,149	0,53
686,589	0,53
687,029	0,53
687,47	0,53
687,91	0,53
688,35	0,52
688,79	0,52
689,23	0,52
689,67	0,52
690,11	0,52
690,55	0,52
690,99	0,52
691,43	0,52
691,87	0,52
692,31	0,52
692,749	0,52
693,189	0,52
693,629	0,51
694,069	0,51
694,508	0,51
694,948	0,51
695,388	0,51
695,827	0,51
696,267	0,51
696,706	0,52
697,146	0,52
697,586	0,52
698,025	0,52
698,464	0,52
698,904	0,52
699,343	0,52
699,783	0,52
700,222	0,52
700,661	0,52
701,101	0,52
701,54	0,52
701,979	0,52
702,418	0,52
702,857	0,52
703,297	0,52
703,736	0,52
704,175	0,52
704,614	0,52
705,053	0,52
705,492	0,52
705,931	0,52
706,37	0,52
706,809	0,52
707,248	0,52
707,687	0,51
708,125	0,51
708,564	0,51
709,003	0,51
709,442	0,51
709,88	0,51
710,319	0,51
710,758	0,51
711,196	0,51
711,635	0,51
712,074	0,51
712,512	0,51
712,951	0,51
713,389	0,51
713,828	0,51
714,266	0,51
714,705	0,51
715,143	0,51
715,581	0,51
716,02	0,51
716,458	0,51
716,896	0,51
717,334	0,51
717,773	0,51
718,211	0,51
718,649	0,51
719,087	0,51
719,525	0,51
719,963	0,51
720,401	0,51
720,839	0,51
721,277	0,51
721,715	0,51
722,153	0,51
722,591	0,51
723,029	0,51
723,467	0,51
723,905	0,51
724,342	0,51
724,78	0,51
725,218	0,51
725,656	0,51
726,093	0,51
726,531	0,51
726,969	0,51
727,406	0,51
727,844	0,51
728,281	0,51
728,719	0,51
729,156	0,51
729,594	0,51
730,031	0,5
730,469	0,5
730,906	0,5
731,343	0,5
731,781	0,5
732,218	0,5
732,655	0,5
733,092	0,5
733,53	0,5
733,967	0,5
734,404	0,5
734,841	0,49
735,278	0,49
735,715	0,49
736,152	0,49
736,589	0,49
737,026	0,49
737,463	0,49
737,9	0,49
738,337	0,49
738,774	0,49
739,211	0,49
739,647	0,49
740,084	0,49
740,521	0,49
740,958	0,49
741,394	0,49
741,831	0,5
742,268	0,49
742,704	0,49
743,141	0,49
743,577	0,49
744,014	0,49
744,45	0,49
744,887	0,49
745,323	0,49
745,76	0,49
746,196	0,49
746,632	0,49
747,069	0,49
747,505	0,49
747,941	0,49
748,378	0,49
748,814	0,49
749,25	0,49
749,686	0,49
750,122	0,49
750,558	0,49
750,994	0,49
751,43	0,49
751,866	0,49
752,302	0,49
752,738	0,49
753,174	0,49
753,61	0,49
754,046	0,49
754,482	0,49
754,918	0,49
755,354	0,49
755,789	0,49
756,225	0,49
756,661	0,49
757,096	0,48
757,532	0,48
757,968	0,48
758,403	0,48
758,839	0,47
759,274	0,47
759,71	0,46
760,145	0,46
760,581	0,45
761,016	0,45
761,452	0,44
761,887	0,44
762,322	0,43
762,758	0,43
763,193	0,42
763,628	0,42
764,063	0,41
764,499	0,4
764,934	0,39
765,369	0,39
765,804	0,38
766,239	0,37
766,674	0,36
767,109	0,35
767,544	0,34
767,979	0,33
768,414	0,32
768,849	0,31
769,284	0,3
769,719	0,29
770,154	0,29
770,588	0,28
771,023	0,26
771,458	0,25
771,893	0,24
772,327	0,23
772,762	0,22
773,197	0,21
773,631	0,19
774,066	0,18
774,5	0,17
774,935	0,16
775,369	0,15
775,804	0,13
776,238	0,13
776,673	0,12
777,107	0,1
777,541	0,1
777,976	0,09
778,41	0,08
778,844	0,07
779,279	0,06
779,713	0,05
780,147	0,04
780,581	0,04
781,015	0,02
781,449	0,02
781,883	0,01
782,317	-0,01
782,751	-0,02
783,185	-0,03
783,619	-0,03
784,053	-0,04
784,487	-0,04
784,921	-0,05
785,355	-0,06
785,789	-0,07
786,223	-0,09
786,656	-0,1
787,09	-0,11
787,524	-0,12
787,957	-0,13
788,391	-0,15
788,825	-0,17
789,258	-0,19
789,692	-0,2
790,125	-0,22
790,559	-0,23
790,992	-0,25
791,426	-0,27
791,859	-0,29
792,293	-0,32
792,726	-0,34
793,159	-0,35
793,593	-0,37
794,026	-0,4
794,459	-0,43
794,892	-0,45
795,326	-0,48
795,759	-0,52
796,192	-0,56
796,625	-0,61
797,058	-0,63
797,491	-0,67
797,924	-0,71
798,357	-0,76
798,79	-0,8
799,223	-0,84
799,656	-0,9
800,089	-0,95
800,522	-0,99
800,955	-1,03
801,387	-1,09
801,82	-1,14
802,253	-1,2
802,686	-1,28
803,118	-1,34
803,551	-1,39
803,984	-1,44
804,416	-1,47
804,849	-1,5
805,281	-1,6
805,714	-1,95
806,146	-2,44
806,579	-2,7
807,011	-2,86
807,444	-2,96
807,876	-3,04
808,308	-3,08
808,741	-3,11
809,173	-3,16
809,605	-3,18
810,037	-3,26
810,47	-3,18
810,902	-2,98
811,334	-2,83
811,766	-2,67
812,198	-2,42
812,63	-1,99
813,062	-1,78
813,494	-1,69
813,926	-1,6
814,358	-1,55
814,79	-1,47
815,222	-1,41
815,654	-1,36
816,086	-1,3
816,518	-1,24
816,949	-1,19
817,381	-1,15
817,813	-1,13
818,245	-1,09
818,676	-1,05
819,108	-1,02
819,54	-1,01
819,971	-0,98
820,403	-0,93
820,834	-0,92
821,266	-0,88
821,697	-0,85
822,129	-0,83
822,56	-0,81
822,991	-0,78
823,423	-0,76
823,854	-0,74
824,286	-0,72
824,717	-0,71
825,148	-0,69
825,579	-0,68
826,01	-0,66
826,442	-0,65
826,873	-0,63
827,304	-0,6
827,735	-0,59
828,166	-0,6
828,597	-0,6
829,028	-0,59
829,459	-0,61
829,89	-0,6
830,321	-0,56
830,752	-0,58
831,183	-0,57
831,613	-0,57
832,044	-0,57
832,475	-0,57
832,906	-0,58
833,336	-0,59
833,767	-0,59
834,198	-0,57
834,628	-0,55
835,059	-0,58
835,49	-0,58
835,92	-0,55
836,351	-0,54
836,781	-0,55
837,212	-0,56
837,642	-0,56
838,072	-0,53
838,503	-0,55
838,933	-0,53
839,364	-0,54
839,794	-0,52
840,224	-0,52
840,654	-0,56
841,085	-0,57
841,515	-0,54
841,945	-0,55
842,375	-0,5
842,805	-0,49
843,235	-0,47
843,665	-0,48
844,095	-0,47
844,525	-0,49
844,955	-0,49
845,385	-0,47
845,815	-0,45
846,245	-0,47
846,675	-0,47
847,105	-0,49
847,534	-0,49
847,964	-0,48
848,394	-0,47
848,824	-0,5
849,253	-0,49
849,683	-0,48
850,112	-0,5
850,542	-0,53
850,972	-0,54
851,401	-0,52
851,831	-0,5
852,26	-0,51
852,69	-0,55
853,119	-0,53
853,548	-0,54
853,978	-0,55
854,407	-0,54
854,836	-0,54
855,266	-0,54
855,695	-0,55
856,124	-0,56
856,553	-0,57
856,983	-0,59
857,412	-0,58
857,841	-0,6
858,27	-0,6
858,699	-0,6
859,128	-0,63
859,557	-0,64
859,986	-0,64
860,415	-0,61
860,844	-0,59
861,273	-0,6
861,702	-0,6
862,13	-0,58
862,559	-0,6
862,988	-0,58
863,417	-0,57
863,845	-0,56
864,274	-0,57
864,703	-0,57
865,131	-0,57
865,56	-0,59
865,989	-0,61
866,417	-0,59
866,846	-0,59
867,274	-0,58
867,703	-0,6
868,131	-0,62
868,559	-0,63
868,988	-0,65
869,416	-0,63
869,844	-0,65
870,273	-0,67
870,701	-0,65
871,129	-0,67
871,557	-0,7
871,986	-0,7
872,414	-0,71
872,842	-0,67
873,27	-0,65
873,698	-0,62
874,126	-0,67
874,554	-0,65
874,982	-0,65
875,41	-0,68
875,838	-0,63
876,266	-0,6
876,694	-0,61
877,122	-0,6
877,549	-0,66
877,977	-0,64
878,405	-0,66
878,833	-0,63
879,26	-0,61
879,688	-0,61
880,116	-0,59
880,543	-0,57
880,971	-0,56
881,399	-0,59
881,826	-0,59
882,254	-0,57
882,681	-0,61
883,109	-0,57
883,536	-0,58
883,963	-0,6
884,391	-0,57
884,818	-0,55
885,245	-0,59
885,673	-0,61
886,1	-0,59
886,527	-0,6
886,954	-0,56
887,381	-0,57
887,809	-0,58
888,236	-0,59
888,663	-0,61
889,09	-0,65
889,517	-0,67
889,944	-0,67
890,371	-0,65
890,798	-0,65
891,225	-0,65
891,652	-0,69
892,078	-0,65
892,505	-0,68
892,932	-0,63
893,359	-0,64
893,786	-0,64
894,212	-0,6
894,639	-0,62
895,066	-0,66
895,492	-0,6
895,919	-0,6
896,346	-0,59
896,772	-0,6
897,199	-0,56
897,625	-0,6
898,052	-0,55
898,478	-0,54
898,904	-0,55
899,331	-0,55
899,757	-0,56
900,183	-0,58
900,61	-0,56
901,036	-0,57
901,462	-0,57
901,888	-0,56
902,315	-0,55
902,741	-0,61
903,167	-0,59
903,593	-0,62
904,019	-0,6
904,445	-0,56
904,871	-0,59
905,297	-0,61
905,723	-0,6
906,149	-0,6
906,575	-0,62
907,001	-0,62
907,427	-0,59
907,852	-0,59
908,278	-0,59
908,704	-0,57
909,13	-0,57
909,555	-0,56
909,981	-0,56
910,407	-0,56
910,832	-0,55
911,258	-0,55
911,684	-0,55
912,109	-0,55
912,535	-0,57
912,96	-0,52
913,386	-0,56
913,811	-0,55
914,236	-0,57
914,662	-0,55
915,087	-0,58
915,512	-0,58
915,938	-0,6
916,363	-0,59
916,788	-0,6
917,213	-0,57
917,639	-0,64
918,064	-0,61
918,489	-0,62
918,914	-0,62
919,339	-0,63
919,764	-0,59
920,189	-0,6
920,614	-0,61
921,039	-0,61
921,464	-0,58
921,889	-0,61
922,314	-0,62
922,738	-0,65
923,163	-0,66
923,588	-0,66
924,013	-0,66
924,437	-0,65
924,862	-0,66
925,287	-0,63
925,711	-0,63
926,136	-0,65
926,561	-0,63
926,985	-0,61
927,41	-0,58
927,834	-0,56
928,259	-0,54
928,683	-0,52
929,108	-0,5
929,532	-0,51
929,956	-0,49
930,381	-0,49
930,805	-0,49
931,229	-0,47
931,653	-0,46
932,078	-0,45
932,502	-0,46
932,926	-0,47
933,35	-0,47
933,774	-0,46
934,198	-0,45
934,622	-0,45
935,046	-0,45
935,47	-0,46
935,894	-0,45
936,318	-0,45
936,742	-0,45
937,166	-0,45
937,59	-0,45
938,014	-0,48
938,437	-0,49
938,861	-0,5
939,285	-0,51
939,709	-0,51
940,132	-0,52
940,556	-0,52
940,98	-0,53
941,403	-0,51
941,827	-0,51
942,25	-0,52
942,674	-0,51
943,097	-0,5
943,521	-0,51
943,944	-0,52
944,368	-0,5
944,791	-0,48
945,214	-0,5
945,638	-0,5
946,061	-0,53
946,484	-0,53
946,907	-0,52
947,331	-0,52
947,754	-0,56
948,177	-0,54
948,6	-0,53
949,023	-0,53
949,446	-0,53
949,869	-0,5
950,292	-0,51
950,715	-0,49
951,138	-0,48
951,561	-0,46
951,984	-0,46
952,407	-0,44
952,83	-0,43
953,252	-0,39
953,675	-0,39
954,098	-0,4
954,521	-0,39
954,943	-0,38
955,366	-0,38
955,789	-0,36
956,211	-0,37
956,634	-0,38
957,056	-0,35
957,479	-0,37
957,902	-0,38
958,324	-0,39
958,746	-0,38
959,169	-0,38
959,591	-0,39
960,014	-0,4
960,436	-0,4
960,858	-0,39
961,281	-0,39
961,703	-0,41
962,125	-0,39
962,547	-0,37
962,969	-0,38
963,391	-0,38
963,814	-0,4
964,236	-0,38
964,658	-0,35
965,08	-0,36
965,502	-0,36
965,924	-0,32
966,346	-0,32
966,768	-0,32
967,189	-0,34
967,611	-0,33
968,033	-0,33
968,455	-0,3
968,877	-0,31
969,298	-0,32
969,72	-0,33
970,142	-0,32
970,563	-0,33
970,985	-0,32
971,407	-0,31
971,828	-0,29
972,25	-0,28
972,671	-0,27
973,093	-0,28
973,514	-0,26
973,936	-0,23
974,357	-0,22
974,778	-0,22
975,2	-0,21
975,621	-0,21
976,042	-0,19
976,464	-0,18
976,885	-0,17
977,306	-0,17
977,727	-0,16
978,148	-0,16
978,57	-0,14
978,991	-0,13
979,412	-0,12
979,833	-0,11
980,254	-0,1
980,675	-0,1
981,096	-0,09
981,517	-0,07
981,937	-0,06
982,358	-0,05
982,779	-0,03
983,2	-0,03
983,621	-0,02
984,042	0
984,462	0,01
984,883	0,03
985,304	0,05
985,724	0,06
986,145	0,07
986,565	0,09
986,986	0,1
987,407	0,11
987,827	0,13
988,248	0,14
988,668	0,15
989,088	0,16
989,509	0,18
989,929	0,19
990,35	0,2
990,77	0,21
991,19	0,22
991,61	0,24
992,031	0,25
992,451	0,27
992,871	0,28
993,291	0,29
993,711	0,3
994,131	0,31
994,551	0,32
994,971	0,33
995,391	0,34
995,811	0,35
996,231	0,35
996,651	0,36
997,071	0,37
997,491	0,37
997,911	0,38
998,331	0,39
998,75	0,4
999,17	0,41
999,59	0,41
1000,009	0,42
1000,429	0,43
1000,849	0,44
1001,268	0,44
1001,688	0,45
1002,107	0,45
1002,527	0,46
1002,946	0,46
1003,366	0,46
1003,785	0,47
1004,205	0,47
1004,624	0,47
1005,044	0,48
1005,463	0,48
1005,882	0,48
1006,301	0,48
1006,721	0,48
1007,14	0,48
1007,559	0,49
1007,978	0,49
1008,397	0,49
1008,816	0,49
1009,235	0,49
1009,655	0,49
1010,074	0,49
1010,492	0,49
1010,911	0,49
1011,33	0,49
1011,749	0,49
1012,168	0,49
1012,587	0,49
1013,006	0,48
1013,425	0,48
1013,843	0,48
1014,262	0,48
1014,681	0,48
1015,099	0,48
1015,518	0,48
1015,937	0,48
1016,355	0,48
1016,774	0,48
1017,192	0,48
1017,611	0,48
1018,029	0,48
1018,448	0,48
1018,866	0,48
1019,285	0,48
1019,703	0,48
1020,121	0,48
1020,54	0,48
1020,958	0,48
1021,376	0,48
1021,794	0,48
1022,213	0,48
1022,631	0,48
1023,049	0,47
1023,467	0,47
1023,885	0,47
1024,303	0,47
1024,721	0,47
1025,139	0,47
1025,557	0,47
1025,975	0,47
1026,393	0,46
1026,811	0,46
1027,229	0,46
1027,647	0,46
1028,065	0,46
1028,482	0,46
1028,9	0,46
1029,318	0,46
1029,735	0,46
1030,153	0,46
1030,571	0,46
1030,988	0,46
1031,406	0,46
1031,823	0,46
1032,241	0,46
1032,659	0,47
1033,076	0,47
1033,493	0,47
1033,911	0,47
1034,328	0,47
1034,746	0,47
1035,163	0,47
1035,58	0,47
1035,997	0,47
1036,415	0,47
1036,832	0,47
1037,249	0,47
1037,666	0,47
1038,083	0,47
1038,501	0,47
1038,918	0,47
1039,335	0,47
1039,752	0,47
1040,169	0,47
1040,586	0,47
1041,003	0,47
1041,419	0,47
1041,836	0,47
1042,253	0,47
1042,67	0,47
1043,087	0,46
1043,504	0,46
1043,92	0,46
1044,337	0,46
1044,754	0,46
1045,17	0,46
1045,587	0,46
1046,004	0,46
1046,42	0,46
1046,837	0,46
1047,253	0,46
1047,67	0,46
1048,086	0,46
1048,503	0,46
1048,919	0,46
1049,335	0,46
1049,752	0,46
1050,168	0,46
1050,584	0,46
1051,001	0,46
1051,417	0,46
1051,833	0,46
1052,249	0,46
1052,665	0,46
1053,081	0,46
1053,497	0,47
1053,914	0,47
1054,33	0,47
1054,746	0,47
1055,162	0,47
1055,578	0,47
1055,993	0,47
1056,409	0,47
1056,825	0,48
1057,241	0,48
1057,657	0,48
1058,073	0,48
1058,488	0,48
1058,904	0,48
1059,32	0,47
1059,736	0,47
1060,151	0,47
1060,567	0,47
1060,982	0,47
1061,398	0,47
1061,813	0,47
1062,229	0,47
1062,644	0,47
1063,06	0,47
1063,475	0,47
1063,891	0,47
1064,306	0,47
1064,721	0,47
1065,137	0,47
1065,552	0,47
1065,967	0,47
1066,382	0,47
1066,798	0,47
1067,213	0,47
1067,628	0,47
1068,043	0,47
1068,458	0,47
1068,873	0,47
1069,288	0,47
1069,703	0,47
1070,118	0,47
1070,533	0,47
1070,948	0,47
1071,363	0,47
1071,778	0,47
1072,193	0,47
1072,607	0,47
1073,022	0,47
1073,437	0,47
1073,852	0,47
1074,266	0,47
1074,681	0,47
1075,096	0,47
1075,51	0,47
1075,925	0,47
1076,339	0,47
1076,754	0,47
1077,168	0,47
1077,583	0,47
1077,997	0,47
1078,412	0,46
1078,826	0,46
1079,24	0,46
1079,655	0,46
1080,069	0,46
1080,483	0,46
1080,897	0,46
1081,312	0,46
1081,726	0,46
1082,14	0,46
1082,554	0,45
1082,968	0,45
1083,382	0,45
1083,796	0,45
1084,21	0,45
1084,624	0,45
1085,038	0,45
1085,452	0,45
1085,866	0,45
1086,28	0,44
1086,694	0,44
1087,108	0,44
1087,521	0,44
1087,935	0,44
1088,349	0,44
1088,763	0,43
1089,176	0,43
1089,59	0,43
1090,004	0,42
1090,417	0,42
1090,831	0,41
1091,244	0,41
1091,658	0,41
1092,071	0,4
1092,485	0,4
1092,898	0,39
1093,312	0,39
1093,725	0,39
1094,138	0,39
1094,552	0,39
1094,965	0,38
1095,378	0,38
1095,791	0,38
1096,205	0,37
1096,618	0,37
1097,031	0,37
1097,444	0,36
1097,857	0,36
1098,27	0,36
1098,683	0,35
1099,096	0,35
1099,509	0,35
1099,922	0,34
1100,335	0,34
1100,748	0,33
1101,161	0,33
1101,574	0,32
1101,986	0,32
1102,399	0,32
1102,812	0,32
1103,225	0,32
1103,637	0,31
1104,05	0,31
1104,463	0,31
1104,875	0,31
1105,288	0,3
1105,7	0,3
1106,113	0,29
1106,525	0,29
1106,938	0,28
1107,35	0,27
1107,763	0,27
1108,175	0,27
1108,588	0,27
1109	0,26
1109,412	0,26
1109,824	0,26
1110,237	0,26
1110,649	0,25
1111,061	0,23
