Data from 18C-808nm-8A-cont_Absorbance__358__01787.txt Node

Date: Mon Jul 17 17:31:30 CEST 2023
User: Laser008
Spectrometer: MAYP115816
Trigger mode: 0
Integration Time (sec): 2,500000E-1
Scans to average: 10
Electric dark correction enabled: true
Nonlinearity correction enabled: true
Boxcar width: 5
XAxis mode: Wavelengths
Number of Pixels in Spectrum: 2068
>>>>>Begin Spectral Data<<<<<
198,914	-0,63
199,384	-0,42
199,855	-0,31
200,325	-0,25
200,796	-0,22
201,266	-0,18
201,737	-0,17
202,207	-0,15
202,677	-0,15
203,147	-0,15
203,618	-0,12
204,088	-0,12
204,558	-0,11
205,028	-0,11
205,498	-0,11
205,968	-0,11
206,439	-0,13
206,909	-0,12
207,379	-0,13
207,849	-0,12
208,319	-0,12
208,789	-0,13
209,258	-0,12
209,728	-0,13
210,198	-0,12
210,668	-0,12
211,138	-0,11
211,608	-0,1
212,077	-0,11
212,547	-0,11
213,017	-0,12
213,486	-0,12
213,956	-0,13
214,426	-0,14
214,895	-0,13
215,365	-0,15
215,834	-0,15
216,304	-0,16
216,773	-0,17
217,243	-0,18
217,712	-0,19
218,181	-0,19
218,651	-0,18
219,12	-0,18
219,589	-0,18
220,058	-0,17
220,528	-0,17
220,997	-0,18
221,466	-0,18
221,935	-0,18
222,404	-0,17
222,873	-0,16
223,342	-0,16
223,812	-0,16
224,281	-0,16
224,749	-0,16
225,218	-0,19
225,687	-0,19
226,156	-0,18
226,625	-0,17
227,094	-0,18
227,563	-0,18
228,031	-0,19
228,5	-0,19
228,969	-0,19
229,438	-0,19
229,906	-0,18
230,375	-0,17
230,844	-0,16
231,312	-0,16
231,781	-0,17
232,249	-0,15
232,718	-0,15
233,186	-0,15
233,655	-0,16
234,123	-0,15
234,591	-0,15
235,06	-0,15
235,528	-0,16
235,996	-0,15
236,465	-0,15
236,933	-0,14
237,401	-0,14
237,869	-0,14
238,337	-0,13
238,805	-0,12
239,274	-0,12
239,742	-0,11
240,21	-0,11
240,678	-0,1
241,146	-0,1
241,614	-0,1
242,081	-0,09
242,549	-0,09
243,017	-0,1
243,485	-0,09
243,953	-0,1
244,421	-0,09
244,888	-0,1
245,356	-0,1
245,824	-0,09
246,291	-0,09
246,759	-0,1
247,227	-0,11
247,694	-0,1
248,162	-0,09
248,629	-0,09
249,097	-0,09
249,564	-0,1
250,032	-0,11
250,499	-0,12
250,967	-0,13
251,434	-0,13
251,901	-0,13
252,369	-0,13
252,836	-0,14
253,303	-0,15
253,77	-0,17
254,237	-0,16
254,705	-0,16
255,172	-0,14
255,639	-0,14
256,106	-0,15
256,573	-0,15
257,04	-0,15
257,507	-0,16
257,974	-0,17
258,441	-0,15
258,908	-0,16
259,375	-0,17
259,841	-0,18
260,308	-0,18
260,775	-0,18
261,242	-0,18
261,709	-0,19
262,175	-0,2
262,642	-0,19
263,109	-0,19
263,575	-0,2
264,042	-0,18
264,508	-0,18
264,975	-0,2
265,441	-0,2
265,908	-0,21
266,374	-0,2
266,841	-0,19
267,307	-0,19
267,773	-0,19
268,24	-0,19
268,706	-0,19
269,172	-0,2
269,639	-0,21
270,105	-0,2
270,571	-0,21
271,037	-0,21
271,503	-0,22
271,969	-0,22
272,435	-0,21
272,902	-0,23
273,368	-0,25
273,834	-0,25
274,3	-0,25
274,765	-0,24
275,231	-0,24
275,697	-0,23
276,163	-0,22
276,629	-0,22
277,095	-0,24
277,56	-0,23
278,026	-0,23
278,492	-0,22
278,958	-0,22
279,423	-0,22
279,889	-0,22
280,354	-0,22
280,82	-0,22
281,286	-0,23
281,751	-0,23
282,217	-0,22
282,682	-0,22
283,147	-0,22
283,613	-0,23
284,078	-0,23
284,544	-0,23
285,009	-0,24
285,474	-0,24
285,939	-0,25
286,405	-0,23
286,87	-0,23
287,335	-0,22
287,8	-0,22
288,265	-0,2
288,73	-0,21
289,195	-0,23
289,66	-0,22
290,125	-0,2
290,59	-0,2
291,055	-0,19
291,52	-0,2
291,985	-0,19
292,45	-0,21
292,915	-0,21
293,38	-0,21
293,844	-0,2
294,309	-0,19
294,774	-0,19
295,239	-0,21
295,703	-0,21
296,168	-0,19
296,632	-0,19
297,097	-0,18
297,562	-0,16
298,026	-0,16
298,491	-0,17
298,955	-0,16
299,419	-0,15
299,884	-0,16
300,348	-0,15
300,813	-0,13
301,277	-0,15
301,741	-0,15
302,205	-0,15
302,67	-0,15
303,134	-0,15
303,598	-0,14
304,062	-0,13
304,526	-0,13
304,99	-0,15
305,454	-0,14
305,919	-0,14
306,383	-0,14
306,847	-0,13
307,31	-0,14
307,774	-0,16
308,238	-0,15
308,702	-0,15
309,166	-0,16
309,63	-0,16
310,094	-0,13
310,557	-0,12
311,021	-0,12
311,485	-0,12
311,948	-0,12
312,412	-0,11
312,876	-0,1
313,339	-0,1
313,803	-0,12
314,266	-0,11
314,73	-0,11
315,193	-0,12
315,657	-0,11
316,12	-0,11
316,584	-0,09
317,047	-0,08
317,51	-0,08
317,973	-0,07
318,437	-0,07
318,9	-0,06
319,363	-0,05
319,826	-0,04
320,29	-0,04
320,753	-0,05
321,216	-0,05
321,679	-0,06
322,142	-0,05
322,605	-0,06
323,068	-0,06
323,531	-0,07
323,994	-0,05
324,457	-0,06
324,92	-0,05
325,382	-0,05
325,845	-0,04
326,308	-0,03
326,771	-0,03
327,233	-0,02
327,696	-0,01
328,159	-0
328,622	0,01
329,084	0,01
329,547	0,02
330,009	0,01
330,472	0,03
330,934	0,03
331,397	0,03
331,859	0,04
332,322	0,04
332,784	0,04
333,246	0,05
333,709	0,04
334,171	0,04
334,633	0,04
335,096	0,05
335,558	0,04
336,02	0,05
336,482	0,05
336,944	0,06
337,406	0,07
337,868	0,08
338,331	0,08
338,793	0,09
339,255	0,1
339,717	0,11
340,178	0,11
340,64	0,13
341,102	0,14
341,564	0,15
342,026	0,16
342,488	0,16
342,949	0,17
343,411	0,2
343,873	0,23
344,335	0,27
344,796	0,3
345,258	0,34
345,719	0,39
346,181	0,43
346,643	0,47
347,104	0,5
347,566	0,54
348,027	0,57
348,488	0,59
348,95	0,61
349,411	0,64
349,873	0,66
350,334	0,68
350,795	0,7
351,256	0,71
351,718	0,72
352,179	0,73
352,64	0,73
353,101	0,73
353,562	0,74
354,023	0,74
354,484	0,74
354,945	0,75
355,406	0,75
355,867	0,75
356,328	0,75
356,789	0,75
357,25	0,75
357,711	0,76
358,172	0,76
358,633	0,76
359,093	0,76
359,554	0,76
360,015	0,76
360,476	0,77
360,936	0,77
361,397	0,77
361,858	0,77
362,318	0,77
362,779	0,77
363,239	0,77
363,7	0,77
364,16	0,77
364,621	0,77
365,081	0,77
365,541	0,77
366,002	0,77
366,462	0,77
366,922	0,77
367,383	0,77
367,843	0,77
368,303	0,77
368,763	0,77
369,223	0,77
369,684	0,77
370,144	0,77
370,604	0,77
371,064	0,77
371,524	0,77
371,984	0,77
372,444	0,77
372,904	0,77
373,363	0,77
373,823	0,77
374,283	0,77
374,743	0,77
375,203	0,77
375,663	0,77
376,122	0,77
376,582	0,77
377,042	0,77
377,501	0,77
377,961	0,77
378,42	0,77
378,88	0,77
379,34	0,77
379,799	0,77
380,259	0,77
380,718	0,77
381,177	0,76
381,637	0,76
382,096	0,76
382,555	0,76
383,015	0,76
383,474	0,76
383,933	0,76
384,393	0,76
384,852	0,76
385,311	0,76
385,77	0,76
386,229	0,76
386,688	0,76
387,147	0,76
387,606	0,76
388,065	0,76
388,524	0,76
388,983	0,76
389,442	0,76
389,901	0,76
390,36	0,76
390,819	0,76
391,277	0,76
391,736	0,76
392,195	0,76
392,654	0,75
393,112	0,75
393,571	0,75
394,03	0,75
394,488	0,75
394,947	0,75
395,405	0,75
395,864	0,75
396,322	0,75
396,781	0,75
397,239	0,75
397,698	0,75
398,156	0,75
398,614	0,75
399,073	0,75
399,531	0,75
399,989	0,75
400,447	0,75
400,905	0,75
401,364	0,75
401,822	0,75
402,28	0,75
402,738	0,75
403,196	0,75
403,654	0,75
404,112	0,75
404,57	0,75
405,028	0,75
405,486	0,75
405,944	0,75
406,402	0,75
406,859	0,75
407,317	0,75
407,775	0,75
408,233	0,75
408,691	0,75
409,148	0,75
409,606	0,74
410,064	0,74
410,521	0,74
410,979	0,74
411,436	0,74
411,894	0,74
412,351	0,74
412,809	0,74
413,266	0,74
413,724	0,74
414,181	0,74
414,638	0,74
415,096	0,74
415,553	0,74
416,01	0,74
416,467	0,74
416,925	0,74
417,382	0,74
417,839	0,74
418,296	0,74
418,753	0,74
419,21	0,74
419,667	0,74
420,124	0,74
420,581	0,74
421,038	0,74
421,495	0,74
421,952	0,74
422,409	0,74
422,866	0,74
423,322	0,74
423,779	0,74
424,236	0,74
424,693	0,74
425,149	0,74
425,606	0,74
426,063	0,74
426,519	0,74
426,976	0,74
427,433	0,74
427,889	0,74
428,346	0,74
428,802	0,74
429,258	0,74
429,715	0,74
430,171	0,74
430,628	0,74
431,084	0,74
431,54	0,74
431,997	0,74
432,453	0,74
432,909	0,74
433,365	0,74
433,821	0,73
434,277	0,73
434,734	0,73
435,19	0,73
435,646	0,73
436,102	0,73
436,558	0,73
437,014	0,73
437,47	0,73
437,925	0,73
438,381	0,74
438,837	0,74
439,293	0,74
439,749	0,74
440,205	0,74
440,66	0,74
441,116	0,74
441,572	0,74
442,027	0,74
442,483	0,74
442,939	0,74
443,394	0,74
443,85	0,74
444,305	0,74
444,761	0,74
445,216	0,74
445,672	0,74
446,127	0,74
446,582	0,74
447,038	0,74
447,493	0,74
447,948	0,74
448,403	0,74
448,859	0,74
449,314	0,74
449,769	0,74
450,224	0,74
450,679	0,74
451,134	0,74
451,589	0,74
452,044	0,74
452,499	0,74
452,954	0,74
453,409	0,74
453,864	0,74
454,319	0,74
454,774	0,74
455,229	0,74
455,684	0,74
456,138	0,74
456,593	0,74
457,048	0,74
457,503	0,74
457,957	0,74
458,412	0,74
458,866	0,75
459,321	0,75
459,776	0,75
460,23	0,75
460,685	0,75
461,139	0,75
461,593	0,75
462,048	0,75
462,502	0,75
462,957	0,75
463,411	0,75
463,865	0,75
464,319	0,76
464,774	0,76
465,228	0,76
465,682	0,76
466,136	0,76
466,59	0,76
467,044	0,76
467,499	0,76
467,953	0,76
468,407	0,76
468,861	0,76
469,315	0,76
469,768	0,77
470,222	0,77
470,676	0,77
471,13	0,77
471,584	0,77
472,038	0,77
472,491	0,77
472,945	0,77
473,399	0,77
473,852	0,77
474,306	0,77
474,76	0,78
475,213	0,78
475,667	0,78
476,12	0,78
476,574	0,78
477,027	0,78
477,481	0,78
477,934	0,79
478,388	0,79
478,841	0,79
479,294	0,79
479,748	0,79
480,201	0,79
480,654	0,8
481,107	0,8
481,561	0,8
482,014	0,8
482,467	0,8
482,92	0,81
483,373	0,81
483,826	0,81
484,279	0,81
484,732	0,81
485,185	0,81
485,638	0,82
486,091	0,82
486,544	0,82
486,997	0,82
487,449	0,82
487,902	0,83
488,355	0,83
488,808	0,83
489,26	0,84
489,713	0,84
490,166	0,84
490,618	0,84
491,071	0,85
491,523	0,85
491,976	0,85
492,429	0,86
492,881	0,86
493,333	0,86
493,786	0,87
494,238	0,87
494,691	0,87
495,143	0,88
495,595	0,88
496,048	0,88
496,5	0,89
496,952	0,89
497,404	0,89
497,856	0,9
498,309	0,9
498,761	0,9
499,213	0,91
499,665	0,91
500,117	0,92
500,569	0,92
501,021	0,92
501,473	0,93
501,925	0,93
502,377	0,94
502,828	0,94
503,28	0,94
503,732	0,95
504,184	0,95
504,636	0,96
505,087	0,96
505,539	0,96
505,991	0,97
506,442	0,97
506,894	0,98
507,345	0,98
507,797	0,98
508,249	0,99
508,7	0,99
509,151	1
509,603	1
510,054	1
510,506	1,01
510,957	1,01
511,408	1,02
511,86	1,02
512,311	1,02
512,762	1,03
513,213	1,03
513,665	1,03
514,116	1,04
514,567	1,04
515,018	1,04
515,469	1,05
515,92	1,05
516,371	1,05
516,822	1,06
517,273	1,06
517,724	1,06
518,175	1,07
518,626	1,07
519,076	1,07
519,527	1,07
519,978	1,08
520,429	1,08
520,88	1,08
521,33	1,08
521,781	1,08
522,232	1,09
522,682	1,09
523,133	1,09
523,583	1,09
524,034	1,09
524,484	1,09
524,935	1,09
525,385	1,09
525,836	1,09
526,286	1,09
526,736	1,09
527,187	1,09
527,637	1,09
528,087	1,09
528,538	1,09
528,988	1,09
529,438	1,09
529,888	1,09
530,338	1,09
530,788	1,09
531,238	1,09
531,688	1,08
532,139	1,08
532,589	1,08
533,038	1,08
533,488	1,08
533,938	1,08
534,388	1,07
534,838	1,07
535,288	1,07
535,738	1,06
536,187	1,06
536,637	1,06
537,087	1,05
537,537	1,05
537,986	1,05
538,436	1,04
538,885	1,04
539,335	1,03
539,785	1,03
540,234	1,02
540,684	1,02
541,133	1,01
541,582	1,01
542,032	1
542,481	1
542,931	0,99
543,38	0,99
543,829	0,98
544,278	0,98
544,728	0,98
545,177	0,97
545,626	0,97
546,075	0,96
546,524	0,96
546,973	0,95
547,422	0,95
547,871	0,95
548,32	0,94
548,769	0,94
549,218	0,93
549,667	0,93
550,116	0,93
550,565	0,92
551,014	0,92
551,463	0,91
551,911	0,91
552,36	0,9
552,809	0,9
553,258	0,89
553,706	0,89
554,155	0,88
554,603	0,88
555,052	0,87
555,501	0,87
555,949	0,86
556,398	0,86
556,846	0,86
557,294	0,85
557,743	0,85
558,191	0,84
558,64	0,84
559,088	0,83
559,536	0,82
559,985	0,82
560,433	0,81
560,881	0,81
561,329	0,81
561,777	0,8
562,225	0,8
562,674	0,79
563,122	0,79
563,57	0,78
564,018	0,78
564,466	0,78
564,914	0,77
565,362	0,77
565,809	0,76
566,257	0,76
566,705	0,75
567,153	0,75
567,601	0,75
568,048	0,74
568,496	0,74
568,944	0,73
569,392	0,73
569,839	0,73
570,287	0,72
570,734	0,72
571,182	0,71
571,63	0,71
572,077	0,71
572,525	0,7
572,972	0,7
573,419	0,7
573,867	0,69
574,314	0,69
574,761	0,69
575,209	0,68
575,656	0,68
576,103	0,67
576,551	0,67
576,998	0,67
577,445	0,67
577,892	0,66
578,339	0,66
578,786	0,66
579,233	0,65
579,68	0,65
580,127	0,65
580,574	0,64
581,021	0,64
581,468	0,64
581,915	0,64
582,362	0,63
582,809	0,63
583,255	0,63
583,702	0,63
584,149	0,63
584,596	0,62
585,042	0,62
585,489	0,62
585,936	0,61
586,382	0,61
586,829	0,61
587,275	0,61
587,722	0,61
588,168	0,6
588,615	0,6
589,061	0,6
589,508	0,6
589,954	0,59
590,4	0,59
590,847	0,59
591,293	0,59
591,739	0,59
592,185	0,58
592,632	0,58
593,078	0,58
593,524	0,58
593,97	0,58
594,416	0,58
594,862	0,58
595,308	0,57
595,754	0,57
596,2	0,57
596,646	0,57
597,092	0,57
597,538	0,57
597,984	0,56
598,43	0,56
598,876	0,56
599,321	0,56
599,767	0,56
600,213	0,56
600,659	0,56
601,104	0,55
601,55	0,55
601,995	0,55
602,441	0,55
602,887	0,55
603,332	0,55
603,778	0,54
604,223	0,54
604,668	0,54
605,114	0,54
605,559	0,54
606,005	0,54
606,45	0,54
606,895	0,54
607,341	0,54
607,786	0,53
608,231	0,53
608,676	0,53
609,121	0,52
609,566	0,52
610,012	0,51
610,457	0,51
610,902	0,51
611,347	0,51
611,792	0,5
612,237	0,5
612,682	0,5
613,127	0,5
613,571	0,5
614,016	0,5
614,461	0,51
614,906	0,51
615,351	0,51
615,795	0,51
616,24	0,51
616,685	0,51
617,129	0,51
617,574	0,51
618,019	0,51
618,463	0,51
618,908	0,51
619,352	0,51
619,797	0,51
620,241	0,51
620,686	0,5
621,13	0,5
621,574	0,5
622,019	0,5
622,463	0,5
622,907	0,5
623,352	0,5
623,796	0,5
624,24	0,49
624,684	0,49
625,128	0,49
625,572	0,49
626,016	0,49
626,461	0,49
626,905	0,49
627,349	0,49
627,793	0,49
628,236	0,49
628,68	0,49
629,124	0,49
629,568	0,49
630,012	0,49
630,456	0,49
630,9	0,49
631,343	0,49
631,787	0,49
632,231	0,49
632,674	0,49
633,118	0,49
633,562	0,49
634,005	0,49
634,449	0,49
634,892	0,49
635,336	0,49
635,779	0,49
636,223	0,49
636,666	0,49
637,109	0,49
637,553	0,48
637,996	0,48
638,439	0,48
638,883	0,48
639,326	0,48
639,769	0,48
640,212	0,48
640,655	0,48
641,099	0,48
641,542	0,48
641,985	0,48
642,428	0,48
642,871	0,48
643,314	0,47
643,757	0,47
644,2	0,47
644,643	0,47
645,085	0,47
645,528	0,47
645,971	0,47
646,414	0,47
646,857	0,47
647,299	0,47
647,742	0,47
648,185	0,47
648,627	0,47
649,07	0,47
649,513	0,47
649,955	0,47
650,398	0,47
650,84	0,47
651,283	0,47
651,725	0,47
652,168	0,47
652,61	0,47
653,052	0,47
653,495	0,47
653,937	0,38
654,379	0,33
654,821	0,33
655,264	0,33
655,706	0,33
656,148	0,33
656,59	0,33
657,032	0,33
657,474	0,33
657,916	0,33
658,358	0,32
658,8	0,39
659,242	0,47
659,684	0,47
660,126	0,47
660,568	0,47
661,01	0,46
661,452	0,46
661,894	0,46
662,335	0,46
662,777	0,46
663,219	0,46
663,661	0,46
664,102	0,46
664,544	0,46
664,985	0,46
665,427	0,46
665,869	0,46
666,31	0,46
666,752	0,46
667,193	0,46
667,634	0,46
668,076	0,46
668,517	0,46
668,959	0,46
669,4	0,46
669,841	0,46
670,282	0,46
670,724	0,46
671,165	0,46
671,606	0,46
672,047	0,46
672,488	0,46
672,929	0,46
673,37	0,46
673,811	0,46
674,252	0,46
674,693	0,45
675,134	0,45
675,575	0,45
676,016	0,45
676,457	0,45
676,898	0,45
677,339	0,45
677,78	0,45
678,22	0,45
678,661	0,45
679,102	0,45
679,542	0,45
679,983	0,45
680,424	0,45
680,864	0,45
681,305	0,45
681,745	0,45
682,186	0,45
682,626	0,45
683,067	0,45
683,507	0,45
683,948	0,45
684,388	0,45
684,828	0,45
685,269	0,45
685,709	0,45
686,149	0,45
686,589	0,45
687,029	0,45
687,47	0,44
687,91	0,44
688,35	0,44
688,79	0,44
689,23	0,44
689,67	0,44
690,11	0,44
690,55	0,44
690,99	0,44
691,43	0,44
691,87	0,44
692,31	0,44
692,749	0,44
693,189	0,44
693,629	0,43
694,069	0,43
694,508	0,43
694,948	0,43
695,388	0,43
695,827	0,43
696,267	0,43
696,706	0,43
697,146	0,44
697,586	0,44
698,025	0,44
698,464	0,44
698,904	0,44
699,343	0,44
699,783	0,44
700,222	0,44
700,661	0,44
701,101	0,44
701,54	0,44
701,979	0,44
702,418	0,44
702,857	0,44
703,297	0,44
703,736	0,44
704,175	0,44
704,614	0,44
705,053	0,44
705,492	0,44
705,931	0,44
706,37	0,44
706,809	0,44
707,248	0,44
707,687	0,43
708,125	0,43
708,564	0,43
709,003	0,43
709,442	0,43
709,88	0,43
710,319	0,43
710,758	0,43
711,196	0,43
711,635	0,43
712,074	0,43
712,512	0,43
712,951	0,43
713,389	0,43
713,828	0,43
714,266	0,42
714,705	0,42
715,143	0,42
715,581	0,42
716,02	0,42
716,458	0,42
716,896	0,43
717,334	0,43
717,773	0,43
718,211	0,43
718,649	0,43
719,087	0,43
719,525	0,43
719,963	0,43
720,401	0,43
720,839	0,43
721,277	0,43
721,715	0,43
722,153	0,43
722,591	0,43
723,029	0,43
723,467	0,43
723,905	0,43
724,342	0,43
724,78	0,43
725,218	0,43
725,656	0,43
726,093	0,43
726,531	0,43
726,969	0,43
727,406	0,43
727,844	0,43
728,281	0,43
728,719	0,43
729,156	0,43
729,594	0,43
730,031	0,43
730,469	0,43
730,906	0,42
731,343	0,42
731,781	0,42
732,218	0,42
732,655	0,42
733,092	0,42
733,53	0,42
733,967	0,42
734,404	0,42
734,841	0,42
735,278	0,42
735,715	0,41
736,152	0,41
736,589	0,41
737,026	0,41
737,463	0,41
737,9	0,41
738,337	0,41
738,774	0,41
739,211	0,41
739,647	0,41
740,084	0,41
740,521	0,41
740,958	0,41
741,394	0,41
741,831	0,41
742,268	0,41
742,704	0,41
743,141	0,41
743,577	0,41
744,014	0,41
744,45	0,41
744,887	0,41
745,323	0,41
745,76	0,41
746,196	0,41
746,632	0,41
747,069	0,4
747,505	0,4
747,941	0,4
748,378	0,4
748,814	0,4
749,25	0,4
749,686	0,4
750,122	0,41
750,558	0,41
750,994	0,41
751,43	0,41
751,866	0,41
752,302	0,41
752,738	0,41
753,174	0,42
753,61	0,42
754,046	0,42
754,482	0,42
754,918	0,42
755,354	0,42
755,789	0,42
756,225	0,41
756,661	0,41
757,096	0,41
757,532	0,41
757,968	0,41
758,403	0,41
758,839	0,4
759,274	0,4
759,71	0,4
760,145	0,39
760,581	0,38
761,016	0,38
761,452	0,38
761,887	0,37
762,322	0,37
762,758	0,36
763,193	0,36
763,628	0,35
764,063	0,35
764,499	0,34
764,934	0,33
765,369	0,33
765,804	0,32
766,239	0,32
766,674	0,31
767,109	0,3
767,544	0,29
767,979	0,28
768,414	0,28
768,849	0,27
769,284	0,26
769,719	0,25
770,154	0,24
770,588	0,23
771,023	0,22
771,458	0,21
771,893	0,2
772,327	0,18
772,762	0,17
773,197	0,16
773,631	0,15
774,066	0,15
774,5	0,14
774,935	0,13
775,369	0,12
775,804	0,11
776,238	0,1
776,673	0,09
777,107	0,09
777,541	0,08
777,976	0,06
778,41	0,06
778,844	0,05
779,279	0,04
779,713	0,03
780,147	0,02
780,581	0,01
781,015	-0
781,449	-0,01
781,883	-0,02
782,317	-0,03
782,751	-0,04
783,185	-0,05
783,619	-0,06
784,053	-0,06
784,487	-0,07
784,921	-0,08
785,355	-0,09
785,789	-0,1
786,223	-0,1
786,656	-0,12
787,09	-0,13
787,524	-0,13
787,957	-0,14
788,391	-0,16
788,825	-0,18
789,258	-0,2
789,692	-0,21
790,125	-0,23
790,559	-0,24
790,992	-0,26
791,426	-0,28
791,859	-0,29
792,293	-0,33
792,726	-0,34
793,159	-0,36
793,593	-0,38
794,026	-0,4
794,459	-0,43
794,892	-0,45
795,326	-0,48
795,759	-0,52
796,192	-0,56
796,625	-0,6
797,058	-0,62
797,491	-0,67
797,924	-0,7
798,357	-0,75
798,79	-0,8
799,223	-0,84
799,656	-0,89
800,089	-0,94
800,522	-0,98
800,955	-1,03
801,387	-1,08
801,82	-1,14
802,253	-1,2
802,686	-1,28
803,118	-1,33
803,551	-1,39
803,984	-1,43
804,416	-1,47
804,849	-1,5
805,281	-1,63
805,714	-2
806,146	-2,45
806,579	-2,71
807,011	-2,87
807,444	-2,97
807,876	-3,05
808,308	-3,08
808,741	-3,11
809,173	-3,16
809,605	-3,18
810,037	-3,26
810,47	-3,17
810,902	-2,97
811,334	-2,82
811,766	-2,65
812,198	-2,4
812,63	-1,97
813,062	-1,77
813,494	-1,67
813,926	-1,59
814,358	-1,54
814,79	-1,46
815,222	-1,4
815,654	-1,35
816,086	-1,29
816,518	-1,23
816,949	-1,18
817,381	-1,14
817,813	-1,12
818,245	-1,08
818,676	-1,04
819,108	-1
819,54	-0,99
819,971	-0,97
820,403	-0,92
820,834	-0,9
821,266	-0,86
821,697	-0,84
822,129	-0,82
822,56	-0,8
822,991	-0,78
823,423	-0,75
823,854	-0,74
824,286	-0,72
824,717	-0,71
825,148	-0,7
825,579	-0,69
826,01	-0,67
826,442	-0,67
826,873	-0,65
827,304	-0,62
827,735	-0,61
828,166	-0,61
828,597	-0,61
829,028	-0,59
829,459	-0,6
829,89	-0,6
830,321	-0,56
830,752	-0,57
831,183	-0,55
831,613	-0,55
832,044	-0,54
832,475	-0,53
832,906	-0,55
833,336	-0,55
833,767	-0,56
834,198	-0,55
834,628	-0,53
835,059	-0,56
835,49	-0,57
835,92	-0,55
836,351	-0,55
836,781	-0,55
837,212	-0,56
837,642	-0,56
838,072	-0,54
838,503	-0,55
838,933	-0,53
839,364	-0,54
839,794	-0,51
840,224	-0,5
840,654	-0,55
841,085	-0,55
841,515	-0,52
841,945	-0,53
842,375	-0,48
842,805	-0,47
843,235	-0,46
843,665	-0,48
844,095	-0,47
844,525	-0,49
844,955	-0,49
845,385	-0,47
845,815	-0,45
846,245	-0,48
846,675	-0,49
847,105	-0,51
847,534	-0,5
847,964	-0,49
848,394	-0,47
848,824	-0,5
849,253	-0,49
849,683	-0,49
850,112	-0,51
850,542	-0,54
850,972	-0,53
851,401	-0,51
851,831	-0,5
852,26	-0,51
852,69	-0,55
853,119	-0,54
853,548	-0,55
853,978	-0,55
854,407	-0,54
854,836	-0,53
855,266	-0,52
855,695	-0,55
856,124	-0,55
856,553	-0,56
856,983	-0,58
857,412	-0,57
857,841	-0,58
858,27	-0,58
858,699	-0,58
859,128	-0,62
859,557	-0,63
859,986	-0,64
860,415	-0,62
860,844	-0,6
861,273	-0,6
861,702	-0,6
862,13	-0,58
862,559	-0,6
862,988	-0,57
863,417	-0,56
863,845	-0,55
864,274	-0,56
864,703	-0,56
865,131	-0,55
865,56	-0,57
865,989	-0,6
866,417	-0,57
866,846	-0,57
867,274	-0,57
867,703	-0,6
868,131	-0,61
868,559	-0,61
868,988	-0,62
869,416	-0,62
869,844	-0,62
870,273	-0,65
870,701	-0,62
871,129	-0,65
871,557	-0,67
871,986	-0,67
872,414	-0,68
872,842	-0,65
873,27	-0,63
873,698	-0,61
874,126	-0,64
874,554	-0,63
874,982	-0,63
875,41	-0,65
875,838	-0,61
876,266	-0,59
876,694	-0,6
877,122	-0,59
877,549	-0,64
877,977	-0,61
878,405	-0,63
878,833	-0,6
879,26	-0,58
879,688	-0,58
880,116	-0,56
880,543	-0,54
880,971	-0,53
881,399	-0,55
881,826	-0,56
882,254	-0,55
882,681	-0,59
883,109	-0,55
883,536	-0,56
883,963	-0,58
884,391	-0,56
884,818	-0,55
885,245	-0,59
885,673	-0,61
886,1	-0,57
886,527	-0,56
886,954	-0,53
887,381	-0,55
887,809	-0,56
888,236	-0,57
888,663	-0,58
889,09	-0,62
889,517	-0,64
889,944	-0,63
890,371	-0,62
890,798	-0,63
891,225	-0,64
891,652	-0,67
892,078	-0,63
892,505	-0,67
892,932	-0,62
893,359	-0,63
893,786	-0,63
894,212	-0,6
894,639	-0,62
895,066	-0,64
895,492	-0,58
895,919	-0,59
896,346	-0,58
896,772	-0,59
897,199	-0,55
897,625	-0,58
898,052	-0,55
898,478	-0,53
898,904	-0,54
899,331	-0,54
899,757	-0,55
900,183	-0,58
900,61	-0,56
901,036	-0,56
901,462	-0,56
901,888	-0,56
902,315	-0,55
902,741	-0,6
903,167	-0,59
903,593	-0,62
904,019	-0,6
904,445	-0,57
904,871	-0,6
905,297	-0,61
905,723	-0,6
906,149	-0,6
906,575	-0,6
907,001	-0,59
907,427	-0,57
907,852	-0,56
908,278	-0,56
908,704	-0,55
909,13	-0,53
909,555	-0,53
909,981	-0,52
910,407	-0,53
910,832	-0,52
911,258	-0,53
911,684	-0,53
912,109	-0,53
912,535	-0,55
912,96	-0,5
913,386	-0,53
913,811	-0,54
914,236	-0,55
914,662	-0,54
915,087	-0,58
915,512	-0,58
915,938	-0,6
916,363	-0,59
916,788	-0,61
917,213	-0,59
917,639	-0,64
918,064	-0,62
918,489	-0,62
918,914	-0,62
919,339	-0,63
919,764	-0,6
920,189	-0,59
920,614	-0,61
921,039	-0,62
921,464	-0,58
921,889	-0,61
922,314	-0,62
922,738	-0,66
923,163	-0,67
923,588	-0,66
924,013	-0,64
924,437	-0,64
924,862	-0,66
925,287	-0,61
925,711	-0,62
926,136	-0,64
926,561	-0,61
926,985	-0,6
927,41	-0,56
927,834	-0,54
928,259	-0,51
928,683	-0,51
929,108	-0,48
929,532	-0,48
929,956	-0,48
930,381	-0,47
930,805	-0,47
931,229	-0,47
931,653	-0,45
932,078	-0,45
932,502	-0,47
932,926	-0,48
933,35	-0,47
933,774	-0,46
934,198	-0,45
934,622	-0,44
935,046	-0,45
935,47	-0,45
935,894	-0,44
936,318	-0,45
936,742	-0,45
937,166	-0,45
937,59	-0,45
938,014	-0,47
938,437	-0,48
938,861	-0,49
939,285	-0,51
939,709	-0,5
940,132	-0,5
940,556	-0,51
940,98	-0,51
941,403	-0,5
941,827	-0,49
942,25	-0,5
942,674	-0,5
943,097	-0,49
943,521	-0,49
943,944	-0,5
944,368	-0,49
944,791	-0,48
945,214	-0,48
945,638	-0,48
946,061	-0,51
946,484	-0,52
946,907	-0,51
947,331	-0,51
947,754	-0,55
948,177	-0,52
948,6	-0,52
949,023	-0,52
949,446	-0,52
949,869	-0,5
950,292	-0,5
950,715	-0,47
951,138	-0,46
951,561	-0,43
951,984	-0,43
952,407	-0,42
952,83	-0,4
953,252	-0,36
953,675	-0,36
954,098	-0,37
954,521	-0,37
954,943	-0,36
955,366	-0,35
955,789	-0,34
956,211	-0,37
956,634	-0,37
957,056	-0,35
957,479	-0,35
957,902	-0,38
958,324	-0,37
958,746	-0,36
959,169	-0,37
959,591	-0,38
960,014	-0,4
960,436	-0,39
960,858	-0,39
961,281	-0,39
961,703	-0,4
962,125	-0,4
962,547	-0,39
962,969	-0,39
963,391	-0,39
963,814	-0,4
964,236	-0,39
964,658	-0,36
965,08	-0,37
965,502	-0,36
965,924	-0,34
966,346	-0,34
966,768	-0,33
967,189	-0,35
967,611	-0,34
968,033	-0,34
968,455	-0,33
968,877	-0,33
969,298	-0,35
969,72	-0,34
970,142	-0,34
970,563	-0,34
970,985	-0,32
971,407	-0,31
971,828	-0,28
972,25	-0,28
972,671	-0,26
973,093	-0,26
973,514	-0,24
973,936	-0,22
974,357	-0,22
974,778	-0,22
975,2	-0,21
975,621	-0,2
976,042	-0,18
976,464	-0,17
976,885	-0,17
977,306	-0,16
977,727	-0,15
978,148	-0,14
978,57	-0,12
978,991	-0,11
979,412	-0,1
979,833	-0,09
980,254	-0,08
980,675	-0,09
981,096	-0,08
981,517	-0,06
981,937	-0,06
982,358	-0,04
982,779	-0,03
983,2	-0,03
983,621	-0,03
984,042	-0,01
984,462	0
984,883	0,01
985,304	0,03
985,724	0,04
986,145	0,05
986,565	0,06
986,986	0,07
987,407	0,08
987,827	0,09
988,248	0,11
988,668	0,12
989,088	0,13
989,509	0,14
989,929	0,15
990,35	0,16
990,77	0,18
991,19	0,18
991,61	0,2
992,031	0,21
992,451	0,22
992,871	0,23
993,291	0,24
993,711	0,25
994,131	0,26
994,551	0,27
994,971	0,27
995,391	0,28
995,811	0,29
996,231	0,29
996,651	0,3
997,071	0,3
997,491	0,31
997,911	0,32
998,331	0,33
998,75	0,33
999,17	0,34
999,59	0,34
1000,009	0,35
1000,429	0,35
1000,849	0,36
1001,268	0,36
1001,688	0,37
1002,107	0,37
1002,527	0,38
1002,946	0,38
1003,366	0,38
1003,785	0,38
1004,205	0,39
1004,624	0,39
1005,044	0,39
1005,463	0,39
1005,882	0,4
1006,301	0,4
1006,721	0,4
1007,14	0,4
1007,559	0,4
1007,978	0,4
1008,397	0,41
1008,816	0,41
1009,235	0,41
1009,655	0,41
1010,074	0,41
1010,492	0,41
1010,911	0,41
1011,33	0,4
1011,749	0,4
1012,168	0,4
1012,587	0,4
1013,006	0,4
1013,425	0,4
1013,843	0,4
1014,262	0,4
1014,681	0,4
1015,099	0,4
1015,518	0,4
1015,937	0,4
1016,355	0,4
1016,774	0,39
1017,192	0,39
1017,611	0,39
1018,029	0,39
1018,448	0,39
1018,866	0,39
1019,285	0,39
1019,703	0,39
1020,121	0,39
1020,54	0,39
1020,958	0,39
1021,376	0,39
1021,794	0,39
1022,213	0,39
1022,631	0,39
1023,049	0,39
1023,467	0,39
1023,885	0,39
1024,303	0,39
1024,721	0,38
1025,139	0,38
1025,557	0,38
1025,975	0,38
1026,393	0,38
1026,811	0,38
1027,229	0,38
1027,647	0,38
1028,065	0,38
1028,482	0,38
1028,9	0,38
1029,318	0,38
1029,735	0,38
1030,153	0,38
1030,571	0,38
1030,988	0,38
1031,406	0,38
1031,823	0,38
1032,241	0,38
1032,659	0,38
1033,076	0,38
1033,493	0,38
1033,911	0,38
1034,328	0,38
1034,746	0,38
1035,163	0,38
1035,58	0,38
1035,997	0,38
1036,415	0,39
1036,832	0,39
1037,249	0,39
1037,666	0,39
1038,083	0,39
1038,501	0,39
1038,918	0,38
1039,335	0,38
1039,752	0,38
1040,169	0,39
1040,586	0,39
1041,003	0,38
1041,419	0,39
1041,836	0,38
1042,253	0,38
1042,67	0,38
1043,087	0,38
1043,504	0,39
1043,92	0,38
1044,337	0,38
1044,754	0,38
1045,17	0,38
1045,587	0,38
1046,004	0,38
1046,42	0,38
1046,837	0,38
1047,253	0,38
1047,67	0,39
1048,086	0,39
1048,503	0,39
1048,919	0,39
1049,335	0,38
1049,752	0,39
1050,168	0,38
1050,584	0,38
1051,001	0,38
1051,417	0,38
1051,833	0,38
1052,249	0,38
1052,665	0,39
1053,081	0,39
1053,497	0,39
1053,914	0,39
1054,33	0,39
1054,746	0,39
1055,162	0,39
1055,578	0,39
1055,993	0,39
1056,409	0,39
1056,825	0,39
1057,241	0,39
1057,657	0,39
1058,073	0,39
1058,488	0,39
1058,904	0,39
1059,32	0,39
1059,736	0,39
1060,151	0,39
1060,567	0,39
1060,982	0,39
1061,398	0,39
1061,813	0,39
1062,229	0,39
1062,644	0,39
1063,06	0,39
1063,475	0,39
1063,891	0,39
1064,306	0,39
1064,721	0,39
1065,137	0,38
1065,552	0,38
1065,967	0,38
1066,382	0,38
1066,798	0,38
1067,213	0,38
1067,628	0,38
1068,043	0,39
1068,458	0,39
1068,873	0,39
1069,288	0,39
1069,703	0,38
1070,118	0,38
1070,533	0,38
1070,948	0,38
1071,363	0,38
1071,778	0,38
1072,193	0,38
1072,607	0,38
1073,022	0,38
1073,437	0,38
1073,852	0,38
1074,266	0,38
1074,681	0,38
1075,096	0,38
1075,51	0,38
1075,925	0,38
1076,339	0,38
1076,754	0,38
1077,168	0,38
1077,583	0,38
1077,997	0,38
1078,412	0,38
1078,826	0,38
1079,24	0,38
1079,655	0,38
1080,069	0,38
1080,483	0,38
1080,897	0,38
1081,312	0,38
1081,726	0,38
1082,14	0,38
1082,554	0,38
1082,968	0,38
1083,382	0,38
1083,796	0,37
1084,21	0,38
1084,624	0,37
1085,038	0,37
1085,452	0,37
1085,866	0,37
1086,28	0,37
1086,694	0,37
1087,108	0,37
1087,521	0,36
1087,935	0,36
1088,349	0,36
1088,763	0,36
1089,176	0,35
1089,59	0,35
1090,004	0,35
1090,417	0,35
1090,831	0,34
1091,244	0,34
1091,658	0,33
1092,071	0,33
1092,485	0,33
1092,898	0,32
1093,312	0,32
1093,725	0,32
1094,138	0,32
1094,552	0,32
1094,965	0,32
1095,378	0,31
1095,791	0,31
1096,205	0,31
1096,618	0,3
1097,031	0,3
1097,444	0,3
1097,857	0,3
1098,27	0,29
1098,683	0,29
1099,096	0,28
1099,509	0,28
1099,922	0,28
1100,335	0,28
1100,748	0,27
1101,161	0,27
1101,574	0,26
1101,986	0,26
1102,399	0,26
1102,812	0,26
1103,225	0,26
1103,637	0,25
1104,05	0,25
1104,463	0,25
1104,875	0,25
1105,288	0,24
1105,7	0,23
1106,113	0,23
1106,525	0,23
1106,938	0,22
1107,35	0,21
1107,763	0,21
1108,175	0,21
1108,588	0,2
1109	0,2
1109,412	0,19
1109,824	0,19
1110,237	0,19
1110,649	0,19
1111,061	0,18
