Data from 18C-808nm-8A-cont_Absorbance__90__01519.txt Node

Date: Mon Jul 17 17:20:20 CEST 2023
User: Laser008
Spectrometer: MAYP115816
Trigger mode: 0
Integration Time (sec): 2,500000E-1
Scans to average: 10
Electric dark correction enabled: true
Nonlinearity correction enabled: true
Boxcar width: 5
XAxis mode: Wavelengths
Number of Pixels in Spectrum: 2068
>>>>>Begin Spectral Data<<<<<
198,914	-0,63
199,384	-0,44
199,855	-0,31
200,325	-0,23
200,796	-0,2
201,266	-0,15
201,737	-0,16
202,207	-0,15
202,677	-0,14
203,147	-0,11
203,618	-0,09
204,088	-0,07
204,558	-0,06
205,028	-0,05
205,498	-0,06
205,968	-0,05
206,439	-0,07
206,909	-0,06
207,379	-0,06
207,849	-0,06
208,319	-0,08
208,789	-0,08
209,258	-0,08
209,728	-0,09
210,198	-0,1
210,668	-0,1
211,138	-0,1
211,608	-0,1
212,077	-0,1
212,547	-0,1
213,017	-0,1
213,486	-0,1
213,956	-0,11
214,426	-0,12
214,895	-0,12
215,365	-0,13
215,834	-0,13
216,304	-0,13
216,773	-0,14
217,243	-0,16
217,712	-0,17
218,181	-0,17
218,651	-0,17
219,12	-0,16
219,589	-0,16
220,058	-0,15
220,528	-0,15
220,997	-0,16
221,466	-0,17
221,935	-0,17
222,404	-0,16
222,873	-0,16
223,342	-0,15
223,812	-0,15
224,281	-0,15
224,749	-0,15
225,218	-0,16
225,687	-0,17
226,156	-0,15
226,625	-0,14
227,094	-0,14
227,563	-0,14
228,031	-0,15
228,5	-0,16
228,969	-0,17
229,438	-0,16
229,906	-0,15
230,375	-0,14
230,844	-0,13
231,312	-0,13
231,781	-0,14
232,249	-0,13
232,718	-0,13
233,186	-0,11
233,655	-0,11
234,123	-0,1
234,591	-0,11
235,06	-0,12
235,528	-0,13
235,996	-0,13
236,465	-0,13
236,933	-0,12
237,401	-0,12
237,869	-0,11
238,337	-0,11
238,805	-0,11
239,274	-0,11
239,742	-0,1
240,21	-0,1
240,678	-0,09
241,146	-0,08
241,614	-0,08
242,081	-0,09
242,549	-0,09
243,017	-0,1
243,485	-0,1
243,953	-0,1
244,421	-0,09
244,888	-0,09
245,356	-0,09
245,824	-0,09
246,291	-0,1
246,759	-0,11
247,227	-0,11
247,694	-0,1
248,162	-0,09
248,629	-0,09
249,097	-0,09
249,564	-0,1
250,032	-0,11
250,499	-0,11
250,967	-0,12
251,434	-0,12
251,901	-0,11
252,369	-0,12
252,836	-0,13
253,303	-0,14
253,77	-0,14
254,237	-0,14
254,705	-0,13
255,172	-0,12
255,639	-0,12
256,106	-0,13
256,573	-0,13
257,04	-0,13
257,507	-0,13
257,974	-0,14
258,441	-0,12
258,908	-0,13
259,375	-0,14
259,841	-0,15
260,308	-0,16
260,775	-0,16
261,242	-0,15
261,709	-0,16
262,175	-0,18
262,642	-0,18
263,109	-0,16
263,575	-0,18
264,042	-0,16
264,508	-0,15
264,975	-0,17
265,441	-0,18
265,908	-0,19
266,374	-0,18
266,841	-0,17
267,307	-0,16
267,773	-0,16
268,24	-0,17
268,706	-0,17
269,172	-0,18
269,639	-0,2
270,105	-0,18
270,571	-0,18
271,037	-0,18
271,503	-0,2
271,969	-0,2
272,435	-0,19
272,902	-0,21
273,368	-0,22
273,834	-0,21
274,3	-0,21
274,765	-0,2
275,231	-0,2
275,697	-0,19
276,163	-0,19
276,629	-0,17
277,095	-0,18
277,56	-0,18
278,026	-0,19
278,492	-0,17
278,958	-0,18
279,423	-0,18
279,889	-0,17
280,354	-0,18
280,82	-0,19
281,286	-0,2
281,751	-0,2
282,217	-0,19
282,682	-0,19
283,147	-0,19
283,613	-0,18
284,078	-0,18
284,544	-0,2
285,009	-0,22
285,474	-0,2
285,939	-0,23
286,405	-0,22
286,87	-0,21
287,335	-0,2
287,8	-0,19
288,265	-0,18
288,73	-0,2
289,195	-0,22
289,66	-0,21
290,125	-0,2
290,59	-0,21
291,055	-0,19
291,52	-0,2
291,985	-0,21
292,45	-0,23
292,915	-0,23
293,38	-0,23
293,844	-0,21
294,309	-0,2
294,774	-0,19
295,239	-0,2
295,703	-0,2
296,168	-0,19
296,632	-0,18
297,097	-0,16
297,562	-0,16
298,026	-0,16
298,491	-0,16
298,955	-0,16
299,419	-0,16
299,884	-0,16
300,348	-0,14
300,813	-0,13
301,277	-0,14
301,741	-0,14
302,205	-0,15
302,67	-0,13
303,134	-0,13
303,598	-0,13
304,062	-0,12
304,526	-0,12
304,99	-0,12
305,454	-0,12
305,919	-0,12
306,383	-0,12
306,847	-0,11
307,31	-0,11
307,774	-0,11
308,238	-0,11
308,702	-0,11
309,166	-0,13
309,63	-0,12
310,094	-0,1
310,557	-0,09
311,021	-0,09
311,485	-0,1
311,948	-0,11
312,412	-0,11
312,876	-0,1
313,339	-0,1
313,803	-0,1
314,266	-0,09
314,73	-0,1
315,193	-0,1
315,657	-0,09
316,12	-0,09
316,584	-0,07
317,047	-0,07
317,51	-0,05
317,973	-0,05
318,437	-0,04
318,9	-0,03
319,363	-0,03
319,826	-0,03
320,29	-0,04
320,753	-0,04
321,216	-0,03
321,679	-0,04
322,142	-0,04
322,605	-0,05
323,068	-0,05
323,531	-0,05
323,994	-0,05
324,457	-0,05
324,92	-0,04
325,382	-0,03
325,845	-0,03
326,308	-0,02
326,771	-0,02
327,233	-0,01
327,696	0,01
328,159	0,01
328,622	0,02
329,084	0,02
329,547	0,03
330,009	0,03
330,472	0,03
330,934	0,03
331,397	0,03
331,859	0,04
332,322	0,04
332,784	0,04
333,246	0,05
333,709	0,04
334,171	0,04
334,633	0,05
335,096	0,05
335,558	0,05
336,02	0,06
336,482	0,06
336,944	0,07
337,406	0,08
337,868	0,08
338,331	0,08
338,793	0,09
339,255	0,1
339,717	0,1
340,178	0,11
340,64	0,11
341,102	0,11
341,564	0,12
342,026	0,12
342,488	0,13
342,949	0,14
343,411	0,16
343,873	0,18
344,335	0,21
344,796	0,24
345,258	0,28
345,719	0,31
346,181	0,35
346,643	0,39
347,104	0,42
347,566	0,44
348,027	0,46
348,488	0,48
348,95	0,49
349,411	0,51
349,873	0,53
350,334	0,54
350,795	0,55
351,256	0,56
351,718	0,56
352,179	0,56
352,64	0,57
353,101	0,57
353,562	0,57
354,023	0,57
354,484	0,57
354,945	0,58
355,406	0,58
355,867	0,58
356,328	0,58
356,789	0,58
357,25	0,58
357,711	0,59
358,172	0,59
358,633	0,59
359,093	0,59
359,554	0,59
360,015	0,59
360,476	0,59
360,936	0,59
361,397	0,59
361,858	0,59
362,318	0,59
362,779	0,59
363,239	0,59
363,7	0,6
364,16	0,6
364,621	0,6
365,081	0,6
365,541	0,6
366,002	0,59
366,462	0,59
366,922	0,59
367,383	0,59
367,843	0,59
368,303	0,59
368,763	0,59
369,223	0,59
369,684	0,59
370,144	0,59
370,604	0,59
371,064	0,59
371,524	0,59
371,984	0,59
372,444	0,59
372,904	0,59
373,363	0,59
373,823	0,59
374,283	0,59
374,743	0,59
375,203	0,59
375,663	0,59
376,122	0,59
376,582	0,59
377,042	0,59
377,501	0,59
377,961	0,59
378,42	0,59
378,88	0,59
379,34	0,59
379,799	0,59
380,259	0,59
380,718	0,59
381,177	0,59
381,637	0,59
382,096	0,58
382,555	0,58
383,015	0,58
383,474	0,58
383,933	0,58
384,393	0,58
384,852	0,58
385,311	0,58
385,77	0,58
386,229	0,58
386,688	0,58
387,147	0,58
387,606	0,58
388,065	0,58
388,524	0,58
388,983	0,58
389,442	0,58
389,901	0,58
390,36	0,58
390,819	0,58
391,277	0,58
391,736	0,58
392,195	0,58
392,654	0,58
393,112	0,58
393,571	0,58
394,03	0,58
394,488	0,58
394,947	0,58
395,405	0,58
395,864	0,58
396,322	0,58
396,781	0,58
397,239	0,58
397,698	0,58
398,156	0,57
398,614	0,57
399,073	0,57
399,531	0,57
399,989	0,57
400,447	0,57
400,905	0,57
401,364	0,57
401,822	0,57
402,28	0,57
402,738	0,57
403,196	0,57
403,654	0,57
404,112	0,57
404,57	0,57
405,028	0,57
405,486	0,57
405,944	0,57
406,402	0,57
406,859	0,57
407,317	0,57
407,775	0,57
408,233	0,57
408,691	0,57
409,148	0,57
409,606	0,57
410,064	0,57
410,521	0,57
410,979	0,57
411,436	0,57
411,894	0,57
412,351	0,57
412,809	0,57
413,266	0,57
413,724	0,57
414,181	0,56
414,638	0,56
415,096	0,56
415,553	0,56
416,01	0,56
416,467	0,56
416,925	0,56
417,382	0,56
417,839	0,56
418,296	0,56
418,753	0,56
419,21	0,56
419,667	0,56
420,124	0,56
420,581	0,56
421,038	0,56
421,495	0,56
421,952	0,56
422,409	0,56
422,866	0,56
423,322	0,56
423,779	0,56
424,236	0,56
424,693	0,56
425,149	0,56
425,606	0,56
426,063	0,56
426,519	0,56
426,976	0,56
427,433	0,56
427,889	0,56
428,346	0,56
428,802	0,56
429,258	0,56
429,715	0,56
430,171	0,56
430,628	0,56
431,084	0,56
431,54	0,56
431,997	0,56
432,453	0,56
432,909	0,56
433,365	0,56
433,821	0,56
434,277	0,56
434,734	0,56
435,19	0,56
435,646	0,56
436,102	0,56
436,558	0,56
437,014	0,56
437,47	0,56
437,925	0,56
438,381	0,56
438,837	0,56
439,293	0,56
439,749	0,56
440,205	0,56
440,66	0,56
441,116	0,56
441,572	0,56
442,027	0,56
442,483	0,56
442,939	0,56
443,394	0,56
443,85	0,56
444,305	0,56
444,761	0,56
445,216	0,56
445,672	0,56
446,127	0,56
446,582	0,56
447,038	0,56
447,493	0,56
447,948	0,56
448,403	0,56
448,859	0,56
449,314	0,56
449,769	0,56
450,224	0,56
450,679	0,56
451,134	0,56
451,589	0,56
452,044	0,56
452,499	0,56
452,954	0,56
453,409	0,56
453,864	0,56
454,319	0,56
454,774	0,56
455,229	0,56
455,684	0,56
456,138	0,56
456,593	0,56
457,048	0,56
457,503	0,56
457,957	0,56
458,412	0,56
458,866	0,56
459,321	0,56
459,776	0,56
460,23	0,56
460,685	0,57
461,139	0,57
461,593	0,57
462,048	0,57
462,502	0,57
462,957	0,57
463,411	0,57
463,865	0,57
464,319	0,57
464,774	0,57
465,228	0,57
465,682	0,57
466,136	0,57
466,59	0,57
467,044	0,58
467,499	0,58
467,953	0,58
468,407	0,58
468,861	0,58
469,315	0,58
469,768	0,58
470,222	0,58
470,676	0,58
471,13	0,58
471,584	0,58
472,038	0,58
472,491	0,58
472,945	0,58
473,399	0,58
473,852	0,58
474,306	0,59
474,76	0,59
475,213	0,59
475,667	0,59
476,12	0,59
476,574	0,59
477,027	0,59
477,481	0,59
477,934	0,59
478,388	0,59
478,841	0,59
479,294	0,6
479,748	0,6
480,201	0,6
480,654	0,6
481,107	0,6
481,561	0,6
482,014	0,6
482,467	0,61
482,92	0,61
483,373	0,61
483,826	0,61
484,279	0,61
484,732	0,61
485,185	0,61
485,638	0,62
486,091	0,62
486,544	0,62
486,997	0,62
487,449	0,62
487,902	0,62
488,355	0,63
488,808	0,63
489,26	0,63
489,713	0,63
490,166	0,63
490,618	0,64
491,071	0,64
491,523	0,64
491,976	0,64
492,429	0,65
492,881	0,65
493,333	0,65
493,786	0,65
494,238	0,66
494,691	0,66
495,143	0,66
495,595	0,66
496,048	0,67
496,5	0,67
496,952	0,67
497,404	0,67
497,856	0,68
498,309	0,68
498,761	0,68
499,213	0,68
499,665	0,69
500,117	0,69
500,569	0,69
501,021	0,7
501,473	0,7
501,925	0,7
502,377	0,71
502,828	0,71
503,28	0,71
503,732	0,72
504,184	0,72
504,636	0,72
505,087	0,73
505,539	0,73
505,991	0,73
506,442	0,74
506,894	0,74
507,345	0,74
507,797	0,74
508,249	0,75
508,7	0,75
509,151	0,75
509,603	0,76
510,054	0,76
510,506	0,76
510,957	0,77
511,408	0,77
511,86	0,77
512,311	0,78
512,762	0,78
513,213	0,78
513,665	0,79
514,116	0,79
514,567	0,79
515,018	0,79
515,469	0,8
515,92	0,8
516,371	0,8
516,822	0,8
517,273	0,81
517,724	0,81
518,175	0,81
518,626	0,81
519,076	0,81
519,527	0,82
519,978	0,82
520,429	0,82
520,88	0,82
521,33	0,82
521,781	0,83
522,232	0,83
522,682	0,83
523,133	0,83
523,583	0,83
524,034	0,83
524,484	0,83
524,935	0,83
525,385	0,83
525,836	0,83
526,286	0,83
526,736	0,84
527,187	0,84
527,637	0,84
528,087	0,83
528,538	0,83
528,988	0,83
529,438	0,83
529,888	0,83
530,338	0,83
530,788	0,83
531,238	0,83
531,688	0,83
532,139	0,83
532,589	0,83
533,038	0,83
533,488	0,82
533,938	0,82
534,388	0,82
534,838	0,82
535,288	0,82
535,738	0,81
536,187	0,81
536,637	0,81
537,087	0,81
537,537	0,8
537,986	0,8
538,436	0,8
538,885	0,79
539,335	0,79
539,785	0,79
540,234	0,78
540,684	0,78
541,133	0,78
541,582	0,77
542,032	0,77
542,481	0,77
542,931	0,76
543,38	0,76
543,829	0,75
544,278	0,75
544,728	0,75
545,177	0,74
545,626	0,74
546,075	0,74
546,524	0,73
546,973	0,73
547,422	0,73
547,871	0,73
548,32	0,72
548,769	0,72
549,218	0,72
549,667	0,72
550,116	0,71
550,565	0,71
551,014	0,71
551,463	0,7
551,911	0,7
552,36	0,7
552,809	0,69
553,258	0,69
553,706	0,69
554,155	0,68
554,603	0,68
555,052	0,68
555,501	0,67
555,949	0,67
556,398	0,67
556,846	0,66
557,294	0,66
557,743	0,66
558,191	0,65
558,64	0,65
559,088	0,64
559,536	0,64
559,985	0,64
560,433	0,63
560,881	0,63
561,329	0,63
561,777	0,62
562,225	0,62
562,674	0,62
563,122	0,62
563,57	0,61
564,018	0,61
564,466	0,61
564,914	0,6
565,362	0,6
565,809	0,6
566,257	0,59
566,705	0,59
567,153	0,59
567,601	0,59
568,048	0,58
568,496	0,58
568,944	0,58
569,392	0,57
569,839	0,57
570,287	0,57
570,734	0,57
571,182	0,56
571,63	0,56
572,077	0,56
572,525	0,56
572,972	0,55
573,419	0,55
573,867	0,55
574,314	0,54
574,761	0,54
575,209	0,54
575,656	0,54
576,103	0,53
576,551	0,53
576,998	0,53
577,445	0,53
577,892	0,53
578,339	0,52
578,786	0,52
579,233	0,52
579,68	0,52
580,127	0,51
580,574	0,51
581,021	0,51
581,468	0,51
581,915	0,51
582,362	0,5
582,809	0,5
583,255	0,5
583,702	0,5
584,149	0,5
584,596	0,5
585,042	0,49
585,489	0,49
585,936	0,49
586,382	0,49
586,829	0,49
587,275	0,49
587,722	0,48
588,168	0,48
588,615	0,48
589,061	0,48
589,508	0,48
589,954	0,48
590,4	0,48
590,847	0,47
591,293	0,47
591,739	0,47
592,185	0,47
592,632	0,47
593,078	0,47
593,524	0,47
593,97	0,47
594,416	0,47
594,862	0,46
595,308	0,46
595,754	0,46
596,2	0,46
596,646	0,46
597,092	0,46
597,538	0,46
597,984	0,46
598,43	0,45
598,876	0,45
599,321	0,45
599,767	0,45
600,213	0,45
600,659	0,45
601,104	0,45
601,55	0,45
601,995	0,45
602,441	0,45
602,887	0,44
603,332	0,44
603,778	0,44
604,223	0,44
604,668	0,44
605,114	0,44
605,559	0,44
606,005	0,44
606,45	0,44
606,895	0,44
607,341	0,44
607,786	0,44
608,231	0,43
608,676	0,43
609,121	0,43
609,566	0,42
610,012	0,42
610,457	0,42
610,902	0,41
611,347	0,41
611,792	0,41
612,237	0,41
612,682	0,41
613,127	0,41
613,571	0,41
614,016	0,41
614,461	0,41
614,906	0,41
615,351	0,41
615,795	0,41
616,24	0,41
616,685	0,41
617,129	0,41
617,574	0,41
618,019	0,41
618,463	0,41
618,908	0,41
619,352	0,41
619,797	0,41
620,241	0,41
620,686	0,41
621,13	0,41
621,574	0,41
622,019	0,41
622,463	0,41
622,907	0,41
623,352	0,41
623,796	0,41
624,24	0,41
624,684	0,41
625,128	0,41
625,572	0,41
626,016	0,41
626,461	0,41
626,905	0,41
627,349	0,41
627,793	0,41
628,236	0,4
628,68	0,4
629,124	0,4
629,568	0,4
630,012	0,4
630,456	0,4
630,9	0,4
631,343	0,4
631,787	0,4
632,231	0,4
632,674	0,4
633,118	0,4
633,562	0,4
634,005	0,4
634,449	0,4
634,892	0,4
635,336	0,4
635,779	0,4
636,223	0,4
636,666	0,4
637,109	0,4
637,553	0,4
637,996	0,4
638,439	0,4
638,883	0,4
639,326	0,4
639,769	0,39
640,212	0,39
640,655	0,39
641,099	0,39
641,542	0,39
641,985	0,39
642,428	0,39
642,871	0,39
643,314	0,39
643,757	0,39
644,2	0,39
644,643	0,39
645,085	0,39
645,528	0,39
645,971	0,39
646,414	0,39
646,857	0,39
647,299	0,39
647,742	0,39
648,185	0,39
648,627	0,39
649,07	0,39
649,513	0,39
649,955	0,39
650,398	0,39
650,84	0,39
651,283	0,39
651,725	0,39
652,168	0,39
652,61	0,39
653,052	0,39
653,495	0,39
653,937	0,3
654,379	0,24
654,821	0,25
655,264	0,25
655,706	0,25
656,148	0,25
656,59	0,25
657,032	0,25
657,474	0,25
657,916	0,25
658,358	0,24
658,8	0,3
659,242	0,38
659,684	0,38
660,126	0,38
660,568	0,38
661,01	0,38
661,452	0,38
661,894	0,38
662,335	0,38
662,777	0,38
663,219	0,38
663,661	0,38
664,102	0,38
664,544	0,38
664,985	0,38
665,427	0,38
665,869	0,38
666,31	0,38
666,752	0,38
667,193	0,38
667,634	0,38
668,076	0,38
668,517	0,38
668,959	0,38
669,4	0,38
669,841	0,38
670,282	0,38
670,724	0,38
671,165	0,38
671,606	0,38
672,047	0,38
672,488	0,38
672,929	0,38
673,37	0,38
673,811	0,38
674,252	0,38
674,693	0,37
675,134	0,37
675,575	0,37
676,016	0,37
676,457	0,37
676,898	0,37
677,339	0,37
677,78	0,37
678,22	0,37
678,661	0,37
679,102	0,37
679,542	0,37
679,983	0,37
680,424	0,37
680,864	0,37
681,305	0,37
681,745	0,37
682,186	0,37
682,626	0,37
683,067	0,37
683,507	0,37
683,948	0,37
684,388	0,37
684,828	0,37
685,269	0,37
685,709	0,37
686,149	0,37
686,589	0,37
687,029	0,36
687,47	0,36
687,91	0,36
688,35	0,36
688,79	0,36
689,23	0,36
689,67	0,36
690,11	0,36
690,55	0,36
690,99	0,36
691,43	0,36
691,87	0,36
692,31	0,36
692,749	0,36
693,189	0,36
693,629	0,36
694,069	0,36
694,508	0,36
694,948	0,36
695,388	0,36
695,827	0,36
696,267	0,36
696,706	0,36
697,146	0,36
697,586	0,36
698,025	0,36
698,464	0,36
698,904	0,36
699,343	0,36
699,783	0,36
700,222	0,36
700,661	0,36
701,101	0,36
701,54	0,36
701,979	0,36
702,418	0,36
702,857	0,36
703,297	0,36
703,736	0,36
704,175	0,36
704,614	0,36
705,053	0,36
705,492	0,36
705,931	0,36
706,37	0,36
706,809	0,36
707,248	0,36
707,687	0,36
708,125	0,36
708,564	0,36
709,003	0,36
709,442	0,36
709,88	0,36
710,319	0,36
710,758	0,36
711,196	0,35
711,635	0,35
712,074	0,35
712,512	0,35
712,951	0,35
713,389	0,35
713,828	0,35
714,266	0,35
714,705	0,35
715,143	0,35
715,581	0,35
716,02	0,35
716,458	0,35
716,896	0,35
717,334	0,35
717,773	0,34
718,211	0,34
718,649	0,35
719,087	0,35
719,525	0,35
719,963	0,35
720,401	0,35
720,839	0,35
721,277	0,35
721,715	0,35
722,153	0,35
722,591	0,35
723,029	0,35
723,467	0,35
723,905	0,35
724,342	0,35
724,78	0,35
725,218	0,35
725,656	0,35
726,093	0,35
726,531	0,35
726,969	0,35
727,406	0,35
727,844	0,35
728,281	0,35
728,719	0,35
729,156	0,35
729,594	0,35
730,031	0,35
730,469	0,35
730,906	0,34
731,343	0,34
731,781	0,34
732,218	0,34
732,655	0,34
733,092	0,34
733,53	0,34
733,967	0,34
734,404	0,34
734,841	0,34
735,278	0,34
735,715	0,34
736,152	0,34
736,589	0,34
737,026	0,34
737,463	0,34
737,9	0,34
738,337	0,34
738,774	0,34
739,211	0,34
739,647	0,34
740,084	0,34
740,521	0,34
740,958	0,34
741,394	0,34
741,831	0,33
742,268	0,33
742,704	0,33
743,141	0,33
743,577	0,33
744,014	0,33
744,45	0,33
744,887	0,33
745,323	0,33
745,76	0,33
746,196	0,32
746,632	0,32
747,069	0,32
747,505	0,32
747,941	0,32
748,378	0,32
748,814	0,33
749,25	0,33
749,686	0,33
750,122	0,33
750,558	0,33
750,994	0,33
751,43	0,34
751,866	0,34
752,302	0,34
752,738	0,34
753,174	0,34
753,61	0,34
754,046	0,34
754,482	0,34
754,918	0,34
755,354	0,34
755,789	0,34
756,225	0,34
756,661	0,34
757,096	0,34
757,532	0,33
757,968	0,33
758,403	0,33
758,839	0,33
759,274	0,33
759,71	0,32
760,145	0,32
760,581	0,31
761,016	0,31
761,452	0,31
761,887	0,3
762,322	0,3
762,758	0,3
763,193	0,29
763,628	0,29
764,063	0,28
764,499	0,28
764,934	0,27
765,369	0,27
765,804	0,26
766,239	0,26
766,674	0,25
767,109	0,24
767,544	0,24
767,979	0,23
768,414	0,23
768,849	0,22
769,284	0,21
769,719	0,2
770,154	0,2
770,588	0,19
771,023	0,18
771,458	0,17
771,893	0,16
772,327	0,15
772,762	0,14
773,197	0,13
773,631	0,12
774,066	0,12
774,5	0,11
774,935	0,1
775,369	0,1
775,804	0,09
776,238	0,08
776,673	0,07
777,107	0,07
777,541	0,06
777,976	0,05
778,41	0,05
778,844	0,04
779,279	0,04
779,713	0,03
780,147	0,02
780,581	0,01
781,015	0
781,449	-0
781,883	-0,01
782,317	-0,03
782,751	-0,04
783,185	-0,05
783,619	-0,06
784,053	-0,07
784,487	-0,07
784,921	-0,08
785,355	-0,09
785,789	-0,1
786,223	-0,1
786,656	-0,12
787,09	-0,12
787,524	-0,13
787,957	-0,14
788,391	-0,16
788,825	-0,17
789,258	-0,19
789,692	-0,2
790,125	-0,22
790,559	-0,24
790,992	-0,25
791,426	-0,28
791,859	-0,29
792,293	-0,32
792,726	-0,34
793,159	-0,36
793,593	-0,38
794,026	-0,4
794,459	-0,43
794,892	-0,46
795,326	-0,48
795,759	-0,52
796,192	-0,56
796,625	-0,61
797,058	-0,63
797,491	-0,67
797,924	-0,71
798,357	-0,76
798,79	-0,8
799,223	-0,84
799,656	-0,89
800,089	-0,94
800,522	-0,98
800,955	-1,03
801,387	-1,08
801,82	-1,14
802,253	-1,2
802,686	-1,28
803,118	-1,34
803,551	-1,39
803,984	-1,43
804,416	-1,47
804,849	-1,51
805,281	-1,63
805,714	-1,94
806,146	-2,41
806,579	-2,68
807,011	-2,85
807,444	-2,95
807,876	-3,04
808,308	-3,08
808,741	-3,11
809,173	-3,16
809,605	-3,18
810,037	-3,26
810,47	-3,18
810,902	-2,99
811,334	-2,84
811,766	-2,69
812,198	-2,46
812,63	-2,02
813,062	-1,8
813,494	-1,7
813,926	-1,61
814,358	-1,56
814,79	-1,47
815,222	-1,41
815,654	-1,37
816,086	-1,3
816,518	-1,25
816,949	-1,19
817,381	-1,15
817,813	-1,13
818,245	-1,09
818,676	-1,05
819,108	-1,01
819,54	-1
819,971	-0,97
820,403	-0,92
820,834	-0,9
821,266	-0,86
821,697	-0,84
822,129	-0,83
822,56	-0,81
822,991	-0,78
823,423	-0,76
823,854	-0,75
824,286	-0,73
824,717	-0,72
825,148	-0,7
825,579	-0,69
826,01	-0,67
826,442	-0,66
826,873	-0,64
827,304	-0,6
827,735	-0,6
828,166	-0,6
828,597	-0,59
829,028	-0,59
829,459	-0,6
829,89	-0,6
830,321	-0,56
830,752	-0,57
831,183	-0,56
831,613	-0,55
832,044	-0,55
832,475	-0,54
832,906	-0,55
833,336	-0,55
833,767	-0,55
834,198	-0,53
834,628	-0,51
835,059	-0,54
835,49	-0,55
835,92	-0,52
836,351	-0,52
836,781	-0,52
837,212	-0,54
837,642	-0,53
838,072	-0,52
838,503	-0,53
838,933	-0,51
839,364	-0,53
839,794	-0,51
840,224	-0,5
840,654	-0,54
841,085	-0,56
841,515	-0,53
841,945	-0,53
842,375	-0,5
842,805	-0,48
843,235	-0,46
843,665	-0,47
844,095	-0,46
844,525	-0,47
844,955	-0,47
845,385	-0,45
845,815	-0,43
846,245	-0,45
846,675	-0,45
847,105	-0,46
847,534	-0,47
847,964	-0,45
848,394	-0,44
848,824	-0,47
849,253	-0,46
849,683	-0,46
850,112	-0,46
850,542	-0,5
850,972	-0,5
851,401	-0,48
851,831	-0,46
852,26	-0,47
852,69	-0,51
853,119	-0,51
853,548	-0,51
853,978	-0,51
854,407	-0,49
854,836	-0,5
855,266	-0,48
855,695	-0,5
856,124	-0,51
856,553	-0,53
856,983	-0,55
857,412	-0,54
857,841	-0,55
858,27	-0,55
858,699	-0,55
859,128	-0,59
859,557	-0,59
859,986	-0,61
860,415	-0,59
860,844	-0,55
861,273	-0,55
861,702	-0,57
862,13	-0,54
862,559	-0,57
862,988	-0,54
863,417	-0,53
863,845	-0,51
864,274	-0,52
864,703	-0,52
865,131	-0,52
865,56	-0,53
865,989	-0,55
866,417	-0,52
866,846	-0,52
867,274	-0,51
867,703	-0,54
868,131	-0,56
868,559	-0,56
868,988	-0,58
869,416	-0,56
869,844	-0,57
870,273	-0,61
870,701	-0,6
871,129	-0,62
871,557	-0,65
871,986	-0,65
872,414	-0,65
872,842	-0,61
873,27	-0,6
873,698	-0,57
874,126	-0,62
874,554	-0,6
874,982	-0,58
875,41	-0,61
875,838	-0,56
876,266	-0,54
876,694	-0,55
877,122	-0,54
877,549	-0,6
877,977	-0,57
878,405	-0,59
878,833	-0,56
879,26	-0,55
879,688	-0,55
880,116	-0,53
880,543	-0,51
880,971	-0,51
881,399	-0,53
881,826	-0,53
882,254	-0,52
882,681	-0,55
883,109	-0,52
883,536	-0,52
883,963	-0,55
884,391	-0,54
884,818	-0,51
885,245	-0,55
885,673	-0,55
886,1	-0,53
886,527	-0,52
886,954	-0,49
887,381	-0,51
887,809	-0,53
888,236	-0,55
888,663	-0,55
889,09	-0,6
889,517	-0,62
889,944	-0,62
890,371	-0,61
890,798	-0,62
891,225	-0,62
891,652	-0,64
892,078	-0,61
892,505	-0,64
892,932	-0,59
893,359	-0,59
893,786	-0,58
894,212	-0,56
894,639	-0,57
895,066	-0,6
895,492	-0,54
895,919	-0,54
896,346	-0,54
896,772	-0,55
897,199	-0,51
897,625	-0,55
898,052	-0,51
898,478	-0,5
898,904	-0,5
899,331	-0,5
899,757	-0,52
900,183	-0,54
900,61	-0,52
901,036	-0,53
901,462	-0,53
901,888	-0,52
902,315	-0,5
902,741	-0,56
903,167	-0,55
903,593	-0,58
904,019	-0,56
904,445	-0,53
904,871	-0,56
905,297	-0,58
905,723	-0,58
906,149	-0,57
906,575	-0,58
907,001	-0,59
907,427	-0,56
907,852	-0,55
908,278	-0,55
908,704	-0,53
909,13	-0,52
909,555	-0,51
909,981	-0,5
910,407	-0,5
910,832	-0,49
911,258	-0,49
911,684	-0,48
912,109	-0,48
912,535	-0,5
912,96	-0,47
913,386	-0,51
913,811	-0,51
914,236	-0,53
914,662	-0,51
915,087	-0,54
915,512	-0,54
915,938	-0,57
916,363	-0,56
916,788	-0,57
917,213	-0,54
917,639	-0,58
918,064	-0,56
918,489	-0,56
918,914	-0,56
919,339	-0,58
919,764	-0,55
920,189	-0,54
920,614	-0,56
921,039	-0,57
921,464	-0,52
921,889	-0,56
922,314	-0,58
922,738	-0,61
923,163	-0,61
923,588	-0,61
924,013	-0,6
924,437	-0,6
924,862	-0,62
925,287	-0,57
925,711	-0,58
926,136	-0,6
926,561	-0,57
926,985	-0,56
927,41	-0,53
927,834	-0,51
928,259	-0,48
928,683	-0,46
929,108	-0,43
929,532	-0,45
929,956	-0,44
930,381	-0,43
930,805	-0,43
931,229	-0,44
931,653	-0,42
932,078	-0,41
932,502	-0,42
932,926	-0,43
933,35	-0,43
933,774	-0,42
934,198	-0,4
934,622	-0,39
935,046	-0,4
935,47	-0,41
935,894	-0,4
936,318	-0,4
936,742	-0,41
937,166	-0,42
937,59	-0,41
938,014	-0,44
938,437	-0,44
938,861	-0,46
939,285	-0,47
939,709	-0,46
940,132	-0,46
940,556	-0,46
940,98	-0,46
941,403	-0,44
941,827	-0,45
942,25	-0,46
942,674	-0,45
943,097	-0,45
943,521	-0,45
943,944	-0,46
944,368	-0,45
944,791	-0,44
945,214	-0,46
945,638	-0,48
946,061	-0,51
946,484	-0,51
946,907	-0,49
947,331	-0,49
947,754	-0,53
948,177	-0,51
948,6	-0,5
949,023	-0,5
949,446	-0,5
949,869	-0,47
950,292	-0,47
950,715	-0,44
951,138	-0,42
951,561	-0,4
951,984	-0,4
952,407	-0,39
952,83	-0,38
953,252	-0,34
953,675	-0,33
954,098	-0,34
954,521	-0,34
954,943	-0,33
955,366	-0,33
955,789	-0,32
956,211	-0,34
956,634	-0,35
957,056	-0,33
957,479	-0,34
957,902	-0,36
958,324	-0,36
958,746	-0,35
959,169	-0,35
959,591	-0,35
960,014	-0,37
960,436	-0,36
960,858	-0,35
961,281	-0,35
961,703	-0,36
962,125	-0,36
962,547	-0,35
962,969	-0,36
963,391	-0,36
963,814	-0,37
964,236	-0,36
964,658	-0,33
965,08	-0,34
965,502	-0,33
965,924	-0,31
966,346	-0,3
966,768	-0,3
967,189	-0,31
967,611	-0,31
968,033	-0,3
968,455	-0,29
968,877	-0,3
969,298	-0,32
969,72	-0,33
970,142	-0,32
970,563	-0,33
970,985	-0,31
971,407	-0,29
971,828	-0,28
972,25	-0,27
972,671	-0,26
973,093	-0,25
973,514	-0,23
973,936	-0,21
974,357	-0,2
974,778	-0,2
975,2	-0,2
975,621	-0,2
976,042	-0,19
976,464	-0,18
976,885	-0,17
977,306	-0,17
977,727	-0,16
978,148	-0,16
978,57	-0,14
978,991	-0,12
979,412	-0,11
979,833	-0,1
980,254	-0,09
980,675	-0,09
981,096	-0,09
981,517	-0,07
981,937	-0,06
982,358	-0,04
982,779	-0,03
983,2	-0,03
983,621	-0,03
984,042	-0,01
984,462	-0
984,883	0
985,304	0,02
985,724	0,03
986,145	0,04
986,565	0,05
986,986	0,06
987,407	0,07
987,827	0,08
988,248	0,1
988,668	0,11
989,088	0,11
989,509	0,12
989,929	0,13
990,35	0,14
990,77	0,15
991,19	0,16
991,61	0,16
992,031	0,17
992,451	0,18
992,871	0,18
993,291	0,19
993,711	0,2
994,131	0,2
994,551	0,21
994,971	0,21
995,391	0,22
995,811	0,23
996,231	0,23
996,651	0,23
997,071	0,24
997,491	0,24
997,911	0,25
998,331	0,26
998,75	0,26
999,17	0,26
999,59	0,27
1000,009	0,27
1000,429	0,27
1000,849	0,28
1001,268	0,28
1001,688	0,28
1002,107	0,29
1002,527	0,29
1002,946	0,29
1003,366	0,29
1003,785	0,3
1004,205	0,3
1004,624	0,3
1005,044	0,3
1005,463	0,31
1005,882	0,31
1006,301	0,31
1006,721	0,31
1007,14	0,31
1007,559	0,31
1007,978	0,31
1008,397	0,31
1008,816	0,31
1009,235	0,31
1009,655	0,31
1010,074	0,31
1010,492	0,31
1010,911	0,31
1011,33	0,31
1011,749	0,31
1012,168	0,31
1012,587	0,3
1013,006	0,3
1013,425	0,3
1013,843	0,3
1014,262	0,3
1014,681	0,3
1015,099	0,3
1015,518	0,3
1015,937	0,3
1016,355	0,3
1016,774	0,3
1017,192	0,3
1017,611	0,3
1018,029	0,3
1018,448	0,3
1018,866	0,3
1019,285	0,3
1019,703	0,3
1020,121	0,3
1020,54	0,3
1020,958	0,3
1021,376	0,3
1021,794	0,3
1022,213	0,3
1022,631	0,3
1023,049	0,3
1023,467	0,3
1023,885	0,3
1024,303	0,3
1024,721	0,3
1025,139	0,3
1025,557	0,3
1025,975	0,3
1026,393	0,29
1026,811	0,29
1027,229	0,29
1027,647	0,29
1028,065	0,29
1028,482	0,29
1028,9	0,29
1029,318	0,29
1029,735	0,29
1030,153	0,29
1030,571	0,29
1030,988	0,29
1031,406	0,29
1031,823	0,29
1032,241	0,29
1032,659	0,29
1033,076	0,29
1033,493	0,29
1033,911	0,29
1034,328	0,29
1034,746	0,29
1035,163	0,29
1035,58	0,29
1035,997	0,29
1036,415	0,29
1036,832	0,29
1037,249	0,29
1037,666	0,29
1038,083	0,29
1038,501	0,29
1038,918	0,29
1039,335	0,29
1039,752	0,29
1040,169	0,29
1040,586	0,29
1041,003	0,29
1041,419	0,29
1041,836	0,29
1042,253	0,29
1042,67	0,29
1043,087	0,29
1043,504	0,29
1043,92	0,29
1044,337	0,29
1044,754	0,29
1045,17	0,29
1045,587	0,28
1046,004	0,28
1046,42	0,28
1046,837	0,28
1047,253	0,28
1047,67	0,28
1048,086	0,28
1048,503	0,28
1048,919	0,28
1049,335	0,29
1049,752	0,29
1050,168	0,29
1050,584	0,29
1051,001	0,29
1051,417	0,29
1051,833	0,29
1052,249	0,29
1052,665	0,29
1053,081	0,29
1053,497	0,29
1053,914	0,29
1054,33	0,29
1054,746	0,29
1055,162	0,29
1055,578	0,29
1055,993	0,29
1056,409	0,29
1056,825	0,29
1057,241	0,29
1057,657	0,29
1058,073	0,29
1058,488	0,29
1058,904	0,29
1059,32	0,29
1059,736	0,3
1060,151	0,3
1060,567	0,3
1060,982	0,3
1061,398	0,3
1061,813	0,3
1062,229	0,3
1062,644	0,3
1063,06	0,29
1063,475	0,29
1063,891	0,29
1064,306	0,29
1064,721	0,29
1065,137	0,29
1065,552	0,29
1065,967	0,29
1066,382	0,29
1066,798	0,29
1067,213	0,29
1067,628	0,29
1068,043	0,29
1068,458	0,29
1068,873	0,29
1069,288	0,29
1069,703	0,29
1070,118	0,29
1070,533	0,29
1070,948	0,29
1071,363	0,29
1071,778	0,29
1072,193	0,29
1072,607	0,29
1073,022	0,29
1073,437	0,29
1073,852	0,3
1074,266	0,3
1074,681	0,3
1075,096	0,3
1075,51	0,29
1075,925	0,29
1076,339	0,29
1076,754	0,29
1077,168	0,29
1077,583	0,29
1077,997	0,29
1078,412	0,29
1078,826	0,29
1079,24	0,29
1079,655	0,29
1080,069	0,29
1080,483	0,29
1080,897	0,29
1081,312	0,29
1081,726	0,29
1082,14	0,29
1082,554	0,29
1082,968	0,29
1083,382	0,28
1083,796	0,28
1084,21	0,28
1084,624	0,28
1085,038	0,28
1085,452	0,28
1085,866	0,28
1086,28	0,28
1086,694	0,28
1087,108	0,27
1087,521	0,27
1087,935	0,27
1088,349	0,27
1088,763	0,27
1089,176	0,27
1089,59	0,26
1090,004	0,26
1090,417	0,26
1090,831	0,26
1091,244	0,26
1091,658	0,25
1092,071	0,25
1092,485	0,25
1092,898	0,25
1093,312	0,25
1093,725	0,25
1094,138	0,24
1094,552	0,24
1094,965	0,24
1095,378	0,24
1095,791	0,24
1096,205	0,24
1096,618	0,24
1097,031	0,23
1097,444	0,23
1097,857	0,23
1098,27	0,23
1098,683	0,23
1099,096	0,22
1099,509	0,22
1099,922	0,22
1100,335	0,21
1100,748	0,21
1101,161	0,21
1101,574	0,2
1101,986	0,2
1102,399	0,2
1102,812	0,19
1103,225	0,19
1103,637	0,19
1104,05	0,19
1104,463	0,19
1104,875	0,19
1105,288	0,18
1105,7	0,18
1106,113	0,18
1106,525	0,17
1106,938	0,17
1107,35	0,17
1107,763	0,17
1108,175	0,16
1108,588	0,16
1109	0,15
1109,412	0,15
1109,824	0,15
1110,237	0,15
1110,649	0,15
1111,061	0,13
