Data from 18C-808nm-8A-cont_Absorbance__130__01559.txt Node

Date: Mon Jul 17 17:22:00 CEST 2023
User: Laser008
Spectrometer: MAYP115816
Trigger mode: 0
Integration Time (sec): 2,500000E-1
Scans to average: 10
Electric dark correction enabled: true
Nonlinearity correction enabled: true
Boxcar width: 5
XAxis mode: Wavelengths
Number of Pixels in Spectrum: 2068
>>>>>Begin Spectral Data<<<<<
198,914	-0,61
199,384	-0,42
199,855	-0,31
200,325	-0,24
200,796	-0,21
201,266	-0,16
201,737	-0,14
202,207	-0,13
202,677	-0,13
203,147	-0,11
203,618	-0,09
204,088	-0,08
204,558	-0,07
205,028	-0,07
205,498	-0,08
205,968	-0,08
206,439	-0,1
206,909	-0,11
207,379	-0,11
207,849	-0,11
208,319	-0,12
208,789	-0,13
209,258	-0,12
209,728	-0,13
210,198	-0,13
210,668	-0,13
211,138	-0,12
211,608	-0,11
212,077	-0,11
212,547	-0,1
213,017	-0,11
213,486	-0,11
213,956	-0,11
214,426	-0,12
214,895	-0,12
215,365	-0,12
215,834	-0,12
216,304	-0,13
216,773	-0,12
217,243	-0,14
217,712	-0,16
218,181	-0,15
218,651	-0,15
219,12	-0,15
219,589	-0,15
220,058	-0,14
220,528	-0,15
220,997	-0,16
221,466	-0,17
221,935	-0,18
222,404	-0,17
222,873	-0,16
223,342	-0,16
223,812	-0,16
224,281	-0,15
224,749	-0,15
225,218	-0,16
225,687	-0,17
226,156	-0,16
226,625	-0,14
227,094	-0,15
227,563	-0,15
228,031	-0,16
228,5	-0,17
228,969	-0,18
229,438	-0,17
229,906	-0,17
230,375	-0,15
230,844	-0,15
231,312	-0,14
231,781	-0,15
232,249	-0,14
232,718	-0,14
233,186	-0,12
233,655	-0,11
234,123	-0,11
234,591	-0,11
235,06	-0,12
235,528	-0,13
235,996	-0,12
236,465	-0,12
236,933	-0,12
237,401	-0,11
237,869	-0,11
238,337	-0,12
238,805	-0,11
239,274	-0,1
239,742	-0,1
240,21	-0,09
240,678	-0,09
241,146	-0,08
241,614	-0,08
242,081	-0,07
242,549	-0,07
243,017	-0,08
243,485	-0,08
243,953	-0,08
244,421	-0,07
244,888	-0,08
245,356	-0,08
245,824	-0,08
246,291	-0,08
246,759	-0,09
247,227	-0,1
247,694	-0,09
248,162	-0,08
248,629	-0,08
249,097	-0,09
249,564	-0,1
250,032	-0,1
250,499	-0,1
250,967	-0,11
251,434	-0,11
251,901	-0,11
252,369	-0,11
252,836	-0,12
253,303	-0,13
253,77	-0,15
254,237	-0,14
254,705	-0,14
255,172	-0,13
255,639	-0,13
256,106	-0,14
256,573	-0,15
257,04	-0,15
257,507	-0,16
257,974	-0,17
258,441	-0,16
258,908	-0,15
259,375	-0,16
259,841	-0,16
260,308	-0,16
260,775	-0,16
261,242	-0,15
261,709	-0,15
262,175	-0,16
262,642	-0,15
263,109	-0,14
263,575	-0,16
264,042	-0,15
264,508	-0,15
264,975	-0,17
265,441	-0,19
265,908	-0,2
266,374	-0,19
266,841	-0,19
267,307	-0,2
267,773	-0,19
268,24	-0,19
268,706	-0,19
269,172	-0,19
269,639	-0,2
270,105	-0,18
270,571	-0,18
271,037	-0,17
271,503	-0,18
271,969	-0,18
272,435	-0,17
272,902	-0,19
273,368	-0,21
273,834	-0,2
274,3	-0,21
274,765	-0,21
275,231	-0,22
275,697	-0,2
276,163	-0,2
276,629	-0,19
277,095	-0,19
277,56	-0,19
278,026	-0,19
278,492	-0,17
278,958	-0,18
279,423	-0,18
279,889	-0,17
280,354	-0,17
280,82	-0,18
281,286	-0,2
281,751	-0,2
282,217	-0,19
282,682	-0,19
283,147	-0,2
283,613	-0,2
284,078	-0,2
284,544	-0,21
285,009	-0,21
285,474	-0,21
285,939	-0,22
286,405	-0,22
286,87	-0,21
287,335	-0,21
287,8	-0,2
288,265	-0,19
288,73	-0,2
289,195	-0,23
289,66	-0,22
290,125	-0,21
290,59	-0,21
291,055	-0,2
291,52	-0,19
291,985	-0,2
292,45	-0,21
292,915	-0,21
293,38	-0,21
293,844	-0,2
294,309	-0,18
294,774	-0,17
295,239	-0,18
295,703	-0,19
296,168	-0,18
296,632	-0,17
297,097	-0,16
297,562	-0,15
298,026	-0,15
298,491	-0,15
298,955	-0,15
299,419	-0,15
299,884	-0,15
300,348	-0,14
300,813	-0,14
301,277	-0,15
301,741	-0,15
302,205	-0,15
302,67	-0,15
303,134	-0,15
303,598	-0,15
304,062	-0,13
304,526	-0,12
304,99	-0,14
305,454	-0,14
305,919	-0,13
306,383	-0,12
306,847	-0,11
307,31	-0,12
307,774	-0,12
308,238	-0,12
308,702	-0,12
309,166	-0,14
309,63	-0,13
310,094	-0,1
310,557	-0,1
311,021	-0,1
311,485	-0,1
311,948	-0,1
312,412	-0,09
312,876	-0,08
313,339	-0,09
313,803	-0,1
314,266	-0,09
314,73	-0,09
315,193	-0,1
315,657	-0,08
316,12	-0,09
316,584	-0,07
317,047	-0,07
317,51	-0,06
317,973	-0,07
318,437	-0,05
318,9	-0,04
319,363	-0,03
319,826	-0,02
320,29	-0,03
320,753	-0,04
321,216	-0,04
321,679	-0,04
322,142	-0,04
322,605	-0,06
323,068	-0,05
323,531	-0,05
323,994	-0,04
324,457	-0,04
324,92	-0,04
325,382	-0,03
325,845	-0,02
326,308	-0,01
326,771	-0
327,233	0
327,696	0,01
328,159	0,02
328,622	0,03
329,084	0,02
329,547	0,03
330,009	0,03
330,472	0,05
330,934	0,05
331,397	0,06
331,859	0,05
332,322	0,05
332,784	0,05
333,246	0,06
333,709	0,06
334,171	0,07
334,633	0,07
335,096	0,06
335,558	0,06
336,02	0,06
336,482	0,06
336,944	0,07
337,406	0,08
337,868	0,09
338,331	0,09
338,793	0,09
339,255	0,09
339,717	0,1
340,178	0,11
340,64	0,12
341,102	0,12
341,564	0,12
342,026	0,13
342,488	0,14
342,949	0,16
343,411	0,19
343,873	0,21
344,335	0,24
344,796	0,28
345,258	0,31
345,719	0,35
346,181	0,39
346,643	0,42
347,104	0,45
347,566	0,48
348,027	0,5
348,488	0,51
348,95	0,53
349,411	0,54
349,873	0,56
350,334	0,57
350,795	0,59
351,256	0,59
351,718	0,6
352,179	0,61
352,64	0,61
353,101	0,61
353,562	0,61
354,023	0,62
354,484	0,62
354,945	0,62
355,406	0,62
355,867	0,62
356,328	0,63
356,789	0,63
357,25	0,63
357,711	0,63
358,172	0,63
358,633	0,63
359,093	0,63
359,554	0,64
360,015	0,64
360,476	0,64
360,936	0,64
361,397	0,64
361,858	0,64
362,318	0,64
362,779	0,64
363,239	0,64
363,7	0,64
364,16	0,64
364,621	0,64
365,081	0,64
365,541	0,64
366,002	0,64
366,462	0,64
366,922	0,64
367,383	0,64
367,843	0,64
368,303	0,64
368,763	0,64
369,223	0,64
369,684	0,64
370,144	0,64
370,604	0,64
371,064	0,64
371,524	0,64
371,984	0,64
372,444	0,64
372,904	0,64
373,363	0,64
373,823	0,64
374,283	0,64
374,743	0,64
375,203	0,64
375,663	0,64
376,122	0,64
376,582	0,64
377,042	0,64
377,501	0,64
377,961	0,64
378,42	0,64
378,88	0,64
379,34	0,64
379,799	0,64
380,259	0,63
380,718	0,63
381,177	0,63
381,637	0,63
382,096	0,63
382,555	0,63
383,015	0,63
383,474	0,63
383,933	0,63
384,393	0,63
384,852	0,63
385,311	0,63
385,77	0,63
386,229	0,63
386,688	0,63
387,147	0,63
387,606	0,63
388,065	0,63
388,524	0,63
388,983	0,63
389,442	0,63
389,901	0,63
390,36	0,63
390,819	0,63
391,277	0,63
391,736	0,63
392,195	0,63
392,654	0,63
393,112	0,63
393,571	0,62
394,03	0,62
394,488	0,62
394,947	0,62
395,405	0,62
395,864	0,62
396,322	0,62
396,781	0,62
397,239	0,62
397,698	0,62
398,156	0,62
398,614	0,62
399,073	0,62
399,531	0,62
399,989	0,62
400,447	0,62
400,905	0,62
401,364	0,62
401,822	0,62
402,28	0,62
402,738	0,62
403,196	0,62
403,654	0,62
404,112	0,62
404,57	0,62
405,028	0,62
405,486	0,62
405,944	0,62
406,402	0,62
406,859	0,62
407,317	0,62
407,775	0,62
408,233	0,62
408,691	0,62
409,148	0,62
409,606	0,62
410,064	0,62
410,521	0,62
410,979	0,62
411,436	0,62
411,894	0,62
412,351	0,62
412,809	0,61
413,266	0,61
413,724	0,61
414,181	0,61
414,638	0,61
415,096	0,61
415,553	0,61
416,01	0,61
416,467	0,61
416,925	0,61
417,382	0,61
417,839	0,61
418,296	0,61
418,753	0,61
419,21	0,61
419,667	0,61
420,124	0,61
420,581	0,61
421,038	0,61
421,495	0,61
421,952	0,61
422,409	0,61
422,866	0,61
423,322	0,61
423,779	0,61
424,236	0,61
424,693	0,61
425,149	0,61
425,606	0,61
426,063	0,61
426,519	0,61
426,976	0,61
427,433	0,61
427,889	0,61
428,346	0,61
428,802	0,61
429,258	0,61
429,715	0,61
430,171	0,61
430,628	0,61
431,084	0,61
431,54	0,61
431,997	0,61
432,453	0,61
432,909	0,61
433,365	0,61
433,821	0,61
434,277	0,61
434,734	0,61
435,19	0,61
435,646	0,61
436,102	0,61
436,558	0,61
437,014	0,61
437,47	0,61
437,925	0,61
438,381	0,61
438,837	0,61
439,293	0,61
439,749	0,61
440,205	0,61
440,66	0,61
441,116	0,61
441,572	0,61
442,027	0,61
442,483	0,61
442,939	0,61
443,394	0,61
443,85	0,61
444,305	0,61
444,761	0,61
445,216	0,61
445,672	0,61
446,127	0,61
446,582	0,61
447,038	0,61
447,493	0,61
447,948	0,61
448,403	0,61
448,859	0,61
449,314	0,61
449,769	0,61
450,224	0,61
450,679	0,61
451,134	0,61
451,589	0,61
452,044	0,61
452,499	0,61
452,954	0,61
453,409	0,61
453,864	0,61
454,319	0,61
454,774	0,61
455,229	0,61
455,684	0,61
456,138	0,61
456,593	0,61
457,048	0,61
457,503	0,61
457,957	0,61
458,412	0,61
458,866	0,61
459,321	0,61
459,776	0,61
460,23	0,61
460,685	0,62
461,139	0,62
461,593	0,62
462,048	0,62
462,502	0,62
462,957	0,62
463,411	0,62
463,865	0,62
464,319	0,62
464,774	0,62
465,228	0,62
465,682	0,62
466,136	0,62
466,59	0,62
467,044	0,63
467,499	0,63
467,953	0,63
468,407	0,63
468,861	0,63
469,315	0,63
469,768	0,63
470,222	0,63
470,676	0,63
471,13	0,63
471,584	0,63
472,038	0,63
472,491	0,63
472,945	0,63
473,399	0,63
473,852	0,63
474,306	0,64
474,76	0,64
475,213	0,64
475,667	0,64
476,12	0,64
476,574	0,64
477,027	0,64
477,481	0,64
477,934	0,64
478,388	0,64
478,841	0,65
479,294	0,65
479,748	0,65
480,201	0,65
480,654	0,65
481,107	0,65
481,561	0,66
482,014	0,66
482,467	0,66
482,92	0,66
483,373	0,66
483,826	0,66
484,279	0,66
484,732	0,66
485,185	0,67
485,638	0,67
486,091	0,67
486,544	0,67
486,997	0,67
487,449	0,67
487,902	0,68
488,355	0,68
488,808	0,68
489,26	0,68
489,713	0,69
490,166	0,69
490,618	0,69
491,071	0,69
491,523	0,69
491,976	0,7
492,429	0,7
492,881	0,7
493,333	0,7
493,786	0,71
494,238	0,71
494,691	0,71
495,143	0,71
495,595	0,72
496,048	0,72
496,5	0,72
496,952	0,73
497,404	0,73
497,856	0,73
498,309	0,73
498,761	0,74
499,213	0,74
499,665	0,74
500,117	0,75
500,569	0,75
501,021	0,75
501,473	0,76
501,925	0,76
502,377	0,76
502,828	0,77
503,28	0,77
503,732	0,77
504,184	0,78
504,636	0,78
505,087	0,78
505,539	0,79
505,991	0,79
506,442	0,79
506,894	0,79
507,345	0,8
507,797	0,8
508,249	0,8
508,7	0,81
509,151	0,81
509,603	0,81
510,054	0,82
510,506	0,82
510,957	0,82
511,408	0,83
511,86	0,83
512,311	0,83
512,762	0,84
513,213	0,84
513,665	0,84
514,116	0,84
514,567	0,85
515,018	0,85
515,469	0,85
515,92	0,86
516,371	0,86
516,822	0,86
517,273	0,86
517,724	0,87
518,175	0,87
518,626	0,87
519,076	0,87
519,527	0,88
519,978	0,88
520,429	0,88
520,88	0,88
521,33	0,88
521,781	0,88
522,232	0,89
522,682	0,89
523,133	0,89
523,583	0,89
524,034	0,89
524,484	0,89
524,935	0,89
525,385	0,89
525,836	0,89
526,286	0,89
526,736	0,89
527,187	0,89
527,637	0,89
528,087	0,89
528,538	0,89
528,988	0,89
529,438	0,89
529,888	0,89
530,338	0,89
530,788	0,89
531,238	0,89
531,688	0,89
532,139	0,89
532,589	0,88
533,038	0,88
533,488	0,88
533,938	0,88
534,388	0,88
534,838	0,88
535,288	0,87
535,738	0,87
536,187	0,87
536,637	0,87
537,087	0,86
537,537	0,86
537,986	0,86
538,436	0,85
538,885	0,85
539,335	0,85
539,785	0,84
540,234	0,84
540,684	0,84
541,133	0,83
541,582	0,83
542,032	0,82
542,481	0,82
542,931	0,82
543,38	0,81
543,829	0,81
544,278	0,8
544,728	0,8
545,177	0,8
545,626	0,79
546,075	0,79
546,524	0,79
546,973	0,78
547,422	0,78
547,871	0,78
548,32	0,78
548,769	0,77
549,218	0,77
549,667	0,77
550,116	0,77
550,565	0,76
551,014	0,76
551,463	0,76
551,911	0,75
552,36	0,75
552,809	0,75
553,258	0,74
553,706	0,74
554,155	0,74
554,603	0,73
555,052	0,73
555,501	0,73
555,949	0,72
556,398	0,72
556,846	0,72
557,294	0,71
557,743	0,71
558,191	0,7
558,64	0,7
559,088	0,7
559,536	0,69
559,985	0,69
560,433	0,69
560,881	0,68
561,329	0,68
561,777	0,68
562,225	0,67
562,674	0,67
563,122	0,67
563,57	0,66
564,018	0,66
564,466	0,66
564,914	0,65
565,362	0,65
565,809	0,65
566,257	0,64
566,705	0,64
567,153	0,64
567,601	0,64
568,048	0,63
568,496	0,63
568,944	0,63
569,392	0,62
569,839	0,62
570,287	0,62
570,734	0,62
571,182	0,61
571,63	0,61
572,077	0,61
572,525	0,6
572,972	0,6
573,419	0,6
573,867	0,6
574,314	0,59
574,761	0,59
575,209	0,59
575,656	0,58
576,103	0,58
576,551	0,58
576,998	0,58
577,445	0,58
577,892	0,57
578,339	0,57
578,786	0,57
579,233	0,57
579,68	0,56
580,127	0,56
580,574	0,56
581,021	0,56
581,468	0,55
581,915	0,55
582,362	0,55
582,809	0,55
583,255	0,55
583,702	0,55
584,149	0,54
584,596	0,54
585,042	0,54
585,489	0,54
585,936	0,54
586,382	0,53
586,829	0,53
587,275	0,53
587,722	0,53
588,168	0,53
588,615	0,53
589,061	0,53
589,508	0,52
589,954	0,52
590,4	0,52
590,847	0,52
591,293	0,52
591,739	0,52
592,185	0,52
592,632	0,51
593,078	0,51
593,524	0,51
593,97	0,51
594,416	0,51
594,862	0,51
595,308	0,51
595,754	0,51
596,2	0,51
596,646	0,5
597,092	0,5
597,538	0,5
597,984	0,5
598,43	0,5
598,876	0,5
599,321	0,5
599,767	0,5
600,213	0,5
600,659	0,5
601,104	0,49
601,55	0,49
601,995	0,49
602,441	0,49
602,887	0,49
603,332	0,49
603,778	0,49
604,223	0,49
604,668	0,49
605,114	0,48
605,559	0,48
606,005	0,48
606,45	0,48
606,895	0,48
607,341	0,48
607,786	0,48
608,231	0,48
608,676	0,47
609,121	0,47
609,566	0,46
610,012	0,46
610,457	0,46
610,902	0,45
611,347	0,45
611,792	0,45
612,237	0,45
612,682	0,45
613,127	0,45
613,571	0,45
614,016	0,45
614,461	0,45
614,906	0,46
615,351	0,46
615,795	0,46
616,24	0,46
616,685	0,46
617,129	0,46
617,574	0,46
618,019	0,46
618,463	0,46
618,908	0,46
619,352	0,46
619,797	0,46
620,241	0,46
620,686	0,46
621,13	0,45
621,574	0,45
622,019	0,45
622,463	0,45
622,907	0,45
623,352	0,45
623,796	0,45
624,24	0,45
624,684	0,45
625,128	0,45
625,572	0,45
626,016	0,45
626,461	0,45
626,905	0,45
627,349	0,45
627,793	0,45
628,236	0,45
628,68	0,45
629,124	0,45
629,568	0,45
630,012	0,45
630,456	0,45
630,9	0,45
631,343	0,45
631,787	0,45
632,231	0,45
632,674	0,44
633,118	0,44
633,562	0,44
634,005	0,44
634,449	0,44
634,892	0,44
635,336	0,44
635,779	0,44
636,223	0,44
636,666	0,44
637,109	0,44
637,553	0,44
637,996	0,44
638,439	0,44
638,883	0,44
639,326	0,44
639,769	0,44
640,212	0,44
640,655	0,44
641,099	0,44
641,542	0,44
641,985	0,43
642,428	0,43
642,871	0,43
643,314	0,43
643,757	0,43
644,2	0,43
644,643	0,43
645,085	0,43
645,528	0,43
645,971	0,43
646,414	0,43
646,857	0,43
647,299	0,43
647,742	0,43
648,185	0,43
648,627	0,43
649,07	0,43
649,513	0,43
649,955	0,43
650,398	0,43
650,84	0,43
651,283	0,43
651,725	0,43
652,168	0,43
652,61	0,43
653,052	0,43
653,495	0,43
653,937	0,34
654,379	0,29
654,821	0,29
655,264	0,29
655,706	0,29
656,148	0,29
656,59	0,29
657,032	0,29
657,474	0,29
657,916	0,29
658,358	0,28
658,8	0,35
659,242	0,43
659,684	0,43
660,126	0,43
660,568	0,43
661,01	0,42
661,452	0,42
661,894	0,42
662,335	0,42
662,777	0,42
663,219	0,42
663,661	0,42
664,102	0,42
664,544	0,42
664,985	0,42
665,427	0,42
665,869	0,42
666,31	0,42
666,752	0,42
667,193	0,42
667,634	0,42
668,076	0,42
668,517	0,42
668,959	0,42
669,4	0,42
669,841	0,42
670,282	0,42
670,724	0,42
671,165	0,42
671,606	0,42
672,047	0,42
672,488	0,42
672,929	0,42
673,37	0,42
673,811	0,42
674,252	0,42
674,693	0,42
675,134	0,42
675,575	0,41
676,016	0,41
676,457	0,41
676,898	0,41
677,339	0,41
677,78	0,41
678,22	0,41
678,661	0,41
679,102	0,41
679,542	0,41
679,983	0,41
680,424	0,41
680,864	0,41
681,305	0,41
681,745	0,41
682,186	0,41
682,626	0,41
683,067	0,41
683,507	0,41
683,948	0,41
684,388	0,41
684,828	0,41
685,269	0,41
685,709	0,41
686,149	0,41
686,589	0,41
687,029	0,41
687,47	0,41
687,91	0,41
688,35	0,4
688,79	0,4
689,23	0,41
689,67	0,41
690,11	0,41
690,55	0,41
690,99	0,41
691,43	0,4
691,87	0,4
692,31	0,4
692,749	0,4
693,189	0,4
693,629	0,4
694,069	0,4
694,508	0,4
694,948	0,4
695,388	0,4
695,827	0,4
696,267	0,4
696,706	0,4
697,146	0,4
697,586	0,4
698,025	0,4
698,464	0,4
698,904	0,41
699,343	0,41
699,783	0,41
700,222	0,41
700,661	0,41
701,101	0,41
701,54	0,41
701,979	0,41
702,418	0,41
702,857	0,41
703,297	0,41
703,736	0,41
704,175	0,41
704,614	0,41
705,053	0,41
705,492	0,4
705,931	0,4
706,37	0,4
706,809	0,4
707,248	0,4
707,687	0,4
708,125	0,4
708,564	0,4
709,003	0,4
709,442	0,4
709,88	0,4
710,319	0,4
710,758	0,4
711,196	0,4
711,635	0,4
712,074	0,39
712,512	0,39
712,951	0,39
713,389	0,39
713,828	0,39
714,266	0,39
714,705	0,39
715,143	0,39
715,581	0,39
716,02	0,39
716,458	0,39
716,896	0,39
717,334	0,39
717,773	0,39
718,211	0,39
718,649	0,39
719,087	0,39
719,525	0,39
719,963	0,39
720,401	0,39
720,839	0,39
721,277	0,39
721,715	0,39
722,153	0,39
722,591	0,39
723,029	0,39
723,467	0,39
723,905	0,39
724,342	0,39
724,78	0,39
725,218	0,39
725,656	0,39
726,093	0,39
726,531	0,39
726,969	0,39
727,406	0,39
727,844	0,39
728,281	0,39
728,719	0,39
729,156	0,39
729,594	0,39
730,031	0,39
730,469	0,39
730,906	0,39
731,343	0,39
731,781	0,39
732,218	0,39
732,655	0,39
733,092	0,39
733,53	0,38
733,967	0,38
734,404	0,38
734,841	0,38
735,278	0,38
735,715	0,38
736,152	0,38
736,589	0,38
737,026	0,38
737,463	0,38
737,9	0,38
738,337	0,38
738,774	0,38
739,211	0,38
739,647	0,38
740,084	0,38
740,521	0,38
740,958	0,38
741,394	0,38
741,831	0,38
742,268	0,38
742,704	0,38
743,141	0,37
743,577	0,37
744,014	0,37
744,45	0,37
744,887	0,37
745,323	0,37
745,76	0,37
746,196	0,37
746,632	0,37
747,069	0,37
747,505	0,37
747,941	0,37
748,378	0,37
748,814	0,37
749,25	0,37
749,686	0,37
750,122	0,37
750,558	0,37
750,994	0,37
751,43	0,37
751,866	0,38
752,302	0,38
752,738	0,38
753,174	0,38
753,61	0,38
754,046	0,38
754,482	0,38
754,918	0,38
755,354	0,38
755,789	0,38
756,225	0,38
756,661	0,37
757,096	0,37
757,532	0,37
757,968	0,37
758,403	0,37
758,839	0,37
759,274	0,36
759,71	0,36
760,145	0,36
760,581	0,35
761,016	0,35
761,452	0,34
761,887	0,34
762,322	0,34
762,758	0,33
763,193	0,33
763,628	0,32
764,063	0,32
764,499	0,31
764,934	0,3
765,369	0,3
765,804	0,29
766,239	0,29
766,674	0,28
767,109	0,27
767,544	0,27
767,979	0,26
768,414	0,25
768,849	0,24
769,284	0,24
769,719	0,23
770,154	0,22
770,588	0,22
771,023	0,2
771,458	0,19
771,893	0,18
772,327	0,17
772,762	0,16
773,197	0,16
773,631	0,15
774,066	0,14
774,5	0,14
774,935	0,13
775,369	0,11
775,804	0,11
776,238	0,1
776,673	0,09
777,107	0,08
777,541	0,07
777,976	0,07
778,41	0,05
778,844	0,04
779,279	0,04
779,713	0,03
780,147	0,03
780,581	0,01
781,015	0
781,449	-0,01
781,883	-0,01
782,317	-0,02
782,751	-0,03
783,185	-0,04
783,619	-0,05
784,053	-0,07
784,487	-0,07
784,921	-0,08
785,355	-0,09
785,789	-0,09
786,223	-0,11
786,656	-0,12
787,09	-0,13
787,524	-0,14
787,957	-0,15
788,391	-0,16
788,825	-0,17
789,258	-0,18
789,692	-0,2
790,125	-0,22
790,559	-0,23
790,992	-0,25
791,426	-0,27
791,859	-0,29
792,293	-0,32
792,726	-0,34
793,159	-0,36
793,593	-0,38
794,026	-0,4
794,459	-0,42
794,892	-0,45
795,326	-0,48
795,759	-0,52
796,192	-0,56
796,625	-0,61
797,058	-0,63
797,491	-0,68
797,924	-0,72
798,357	-0,77
798,79	-0,81
799,223	-0,86
799,656	-0,91
800,089	-0,96
800,522	-1
800,955	-1,04
801,387	-1,1
801,82	-1,15
802,253	-1,22
802,686	-1,3
803,118	-1,35
803,551	-1,4
803,984	-1,45
804,416	-1,49
804,849	-1,52
805,281	-1,63
805,714	-2
806,146	-2,46
806,579	-2,71
807,011	-2,87
807,444	-2,97
807,876	-3,05
808,308	-3,09
808,741	-3,11
809,173	-3,17
809,605	-3,19
810,037	-3,26
810,47	-3,18
810,902	-2,98
811,334	-2,83
811,766	-2,67
812,198	-2,43
812,63	-2,01
813,062	-1,8
813,494	-1,7
813,926	-1,61
814,358	-1,56
814,79	-1,48
815,222	-1,42
815,654	-1,37
816,086	-1,3
816,518	-1,25
816,949	-1,2
817,381	-1,15
817,813	-1,14
818,245	-1,1
818,676	-1,06
819,108	-1,02
819,54	-1,01
819,971	-0,99
820,403	-0,94
820,834	-0,92
821,266	-0,88
821,697	-0,85
822,129	-0,84
822,56	-0,81
822,991	-0,79
823,423	-0,76
823,854	-0,75
824,286	-0,72
824,717	-0,71
825,148	-0,69
825,579	-0,69
826,01	-0,67
826,442	-0,67
826,873	-0,65
827,304	-0,61
827,735	-0,6
828,166	-0,61
828,597	-0,61
829,028	-0,6
829,459	-0,6
829,89	-0,61
830,321	-0,56
830,752	-0,57
831,183	-0,56
831,613	-0,55
832,044	-0,55
832,475	-0,53
832,906	-0,54
833,336	-0,54
833,767	-0,55
834,198	-0,54
834,628	-0,52
835,059	-0,54
835,49	-0,55
835,92	-0,52
836,351	-0,52
836,781	-0,52
837,212	-0,53
837,642	-0,53
838,072	-0,51
838,503	-0,52
838,933	-0,49
839,364	-0,51
839,794	-0,49
840,224	-0,48
840,654	-0,52
841,085	-0,52
841,515	-0,5
841,945	-0,51
842,375	-0,46
842,805	-0,45
843,235	-0,44
843,665	-0,46
844,095	-0,44
844,525	-0,46
844,955	-0,47
845,385	-0,45
845,815	-0,44
846,245	-0,46
846,675	-0,47
847,105	-0,48
847,534	-0,49
847,964	-0,47
848,394	-0,46
848,824	-0,49
849,253	-0,48
849,683	-0,48
850,112	-0,49
850,542	-0,52
850,972	-0,52
851,401	-0,5
851,831	-0,48
852,26	-0,49
852,69	-0,52
853,119	-0,51
853,548	-0,52
853,978	-0,52
854,407	-0,51
854,836	-0,51
855,266	-0,49
855,695	-0,51
856,124	-0,52
856,553	-0,53
856,983	-0,55
857,412	-0,54
857,841	-0,55
858,27	-0,55
858,699	-0,55
859,128	-0,58
859,557	-0,59
859,986	-0,61
860,415	-0,59
860,844	-0,56
861,273	-0,57
861,702	-0,58
862,13	-0,55
862,559	-0,57
862,988	-0,55
863,417	-0,53
863,845	-0,52
864,274	-0,53
864,703	-0,52
865,131	-0,52
865,56	-0,53
865,989	-0,55
866,417	-0,52
866,846	-0,53
867,274	-0,52
867,703	-0,55
868,131	-0,57
868,559	-0,56
868,988	-0,59
869,416	-0,57
869,844	-0,58
870,273	-0,61
870,701	-0,59
871,129	-0,62
871,557	-0,64
871,986	-0,64
872,414	-0,66
872,842	-0,62
873,27	-0,61
873,698	-0,57
874,126	-0,62
874,554	-0,6
874,982	-0,6
875,41	-0,62
875,838	-0,58
876,266	-0,55
876,694	-0,56
877,122	-0,55
877,549	-0,6
877,977	-0,58
878,405	-0,6
878,833	-0,56
879,26	-0,55
879,688	-0,56
880,116	-0,55
880,543	-0,53
880,971	-0,52
881,399	-0,55
881,826	-0,56
882,254	-0,54
882,681	-0,58
883,109	-0,54
883,536	-0,56
883,963	-0,57
884,391	-0,55
884,818	-0,54
885,245	-0,58
885,673	-0,6
886,1	-0,56
886,527	-0,56
886,954	-0,53
887,381	-0,55
887,809	-0,57
888,236	-0,58
888,663	-0,59
889,09	-0,63
889,517	-0,64
889,944	-0,63
890,371	-0,62
890,798	-0,61
891,225	-0,61
891,652	-0,63
892,078	-0,59
892,505	-0,61
892,932	-0,57
893,359	-0,58
893,786	-0,58
894,212	-0,54
894,639	-0,56
895,066	-0,58
895,492	-0,54
895,919	-0,55
896,346	-0,54
896,772	-0,55
897,199	-0,53
897,625	-0,56
898,052	-0,52
898,478	-0,49
898,904	-0,51
899,331	-0,51
899,757	-0,54
900,183	-0,56
900,61	-0,53
901,036	-0,54
901,462	-0,53
901,888	-0,51
902,315	-0,5
902,741	-0,56
903,167	-0,54
903,593	-0,58
904,019	-0,55
904,445	-0,51
904,871	-0,53
905,297	-0,57
905,723	-0,56
906,149	-0,56
906,575	-0,57
907,001	-0,57
907,427	-0,53
907,852	-0,52
908,278	-0,52
908,704	-0,51
909,13	-0,49
909,555	-0,49
909,981	-0,48
910,407	-0,48
910,832	-0,48
911,258	-0,48
911,684	-0,48
912,109	-0,49
912,535	-0,51
912,96	-0,47
913,386	-0,51
913,811	-0,51
914,236	-0,52
914,662	-0,5
915,087	-0,54
915,512	-0,54
915,938	-0,56
916,363	-0,55
916,788	-0,56
917,213	-0,54
917,639	-0,6
918,064	-0,57
918,489	-0,58
918,914	-0,57
919,339	-0,58
919,764	-0,55
920,189	-0,55
920,614	-0,57
921,039	-0,58
921,464	-0,55
921,889	-0,57
922,314	-0,58
922,738	-0,6
923,163	-0,62
923,588	-0,62
924,013	-0,62
924,437	-0,62
924,862	-0,63
925,287	-0,59
925,711	-0,59
926,136	-0,6
926,561	-0,58
926,985	-0,58
927,41	-0,55
927,834	-0,53
928,259	-0,49
928,683	-0,47
929,108	-0,44
929,532	-0,45
929,956	-0,45
930,381	-0,44
930,805	-0,44
931,229	-0,44
931,653	-0,42
932,078	-0,41
932,502	-0,42
932,926	-0,44
933,35	-0,44
933,774	-0,43
934,198	-0,4
934,622	-0,39
935,046	-0,4
935,47	-0,41
935,894	-0,41
936,318	-0,41
936,742	-0,41
937,166	-0,42
937,59	-0,42
938,014	-0,43
938,437	-0,45
938,861	-0,47
939,285	-0,47
939,709	-0,47
940,132	-0,47
940,556	-0,47
940,98	-0,46
941,403	-0,45
941,827	-0,45
942,25	-0,47
942,674	-0,46
943,097	-0,45
943,521	-0,45
943,944	-0,47
944,368	-0,47
944,791	-0,45
945,214	-0,48
945,638	-0,48
946,061	-0,51
946,484	-0,52
946,907	-0,5
947,331	-0,51
947,754	-0,55
948,177	-0,52
948,6	-0,52
949,023	-0,51
949,446	-0,51
949,869	-0,48
950,292	-0,48
950,715	-0,45
951,138	-0,44
951,561	-0,41
951,984	-0,4
952,407	-0,39
952,83	-0,37
953,252	-0,33
953,675	-0,33
954,098	-0,33
954,521	-0,32
954,943	-0,32
955,366	-0,32
955,789	-0,3
956,211	-0,32
956,634	-0,34
957,056	-0,32
957,479	-0,33
957,902	-0,36
958,324	-0,36
958,746	-0,36
959,169	-0,37
959,591	-0,37
960,014	-0,39
960,436	-0,39
960,858	-0,39
961,281	-0,38
961,703	-0,39
962,125	-0,39
962,547	-0,37
962,969	-0,37
963,391	-0,37
963,814	-0,38
964,236	-0,37
964,658	-0,34
965,08	-0,34
965,502	-0,32
965,924	-0,3
966,346	-0,3
966,768	-0,29
967,189	-0,32
967,611	-0,32
968,033	-0,31
968,455	-0,29
968,877	-0,3
969,298	-0,31
969,72	-0,33
970,142	-0,32
970,563	-0,32
970,985	-0,32
971,407	-0,3
971,828	-0,28
972,25	-0,27
972,671	-0,25
973,093	-0,26
973,514	-0,24
973,936	-0,22
974,357	-0,2
974,778	-0,21
975,2	-0,2
975,621	-0,19
976,042	-0,18
976,464	-0,17
976,885	-0,17
977,306	-0,17
977,727	-0,16
978,148	-0,15
978,57	-0,14
978,991	-0,13
979,412	-0,11
979,833	-0,1
980,254	-0,1
980,675	-0,1
981,096	-0,08
981,517	-0,06
981,937	-0,05
982,358	-0,04
982,779	-0,03
983,2	-0,02
983,621	-0,02
984,042	-0
984,462	0,01
984,883	0,02
985,304	0,03
985,724	0,04
986,145	0,05
986,565	0,06
986,986	0,08
987,407	0,09
987,827	0,1
988,248	0,11
988,668	0,11
989,088	0,12
989,509	0,13
989,929	0,15
990,35	0,16
990,77	0,17
991,19	0,17
991,61	0,18
992,031	0,19
992,451	0,2
992,871	0,21
993,291	0,22
993,711	0,23
994,131	0,24
994,551	0,25
994,971	0,25
995,391	0,26
995,811	0,26
996,231	0,27
996,651	0,27
997,071	0,28
997,491	0,28
997,911	0,29
998,331	0,29
998,75	0,3
999,17	0,3
999,59	0,3
1000,009	0,31
1000,429	0,31
1000,849	0,32
1001,268	0,32
1001,688	0,32
1002,107	0,33
1002,527	0,33
1002,946	0,33
1003,366	0,34
1003,785	0,34
1004,205	0,34
1004,624	0,34
1005,044	0,35
1005,463	0,35
1005,882	0,35
1006,301	0,35
1006,721	0,35
1007,14	0,35
1007,559	0,35
1007,978	0,35
1008,397	0,36
1008,816	0,36
1009,235	0,36
1009,655	0,35
1010,074	0,35
1010,492	0,35
1010,911	0,35
1011,33	0,35
1011,749	0,35
1012,168	0,35
1012,587	0,35
1013,006	0,35
1013,425	0,35
1013,843	0,35
1014,262	0,35
1014,681	0,34
1015,099	0,34
1015,518	0,34
1015,937	0,34
1016,355	0,34
1016,774	0,34
1017,192	0,34
1017,611	0,34
1018,029	0,34
1018,448	0,34
1018,866	0,34
1019,285	0,34
1019,703	0,34
1020,121	0,34
1020,54	0,34
1020,958	0,34
1021,376	0,34
1021,794	0,34
1022,213	0,34
1022,631	0,34
1023,049	0,34
1023,467	0,34
1023,885	0,34
1024,303	0,34
1024,721	0,34
1025,139	0,34
1025,557	0,34
1025,975	0,34
1026,393	0,34
1026,811	0,34
1027,229	0,33
1027,647	0,33
1028,065	0,33
1028,482	0,33
1028,9	0,33
1029,318	0,33
1029,735	0,33
1030,153	0,33
1030,571	0,33
1030,988	0,33
1031,406	0,33
1031,823	0,33
1032,241	0,33
1032,659	0,33
1033,076	0,33
1033,493	0,33
1033,911	0,33
1034,328	0,33
1034,746	0,33
1035,163	0,33
1035,58	0,33
1035,997	0,33
1036,415	0,34
1036,832	0,34
1037,249	0,33
1037,666	0,33
1038,083	0,33
1038,501	0,33
1038,918	0,33
1039,335	0,33
1039,752	0,33
1040,169	0,33
1040,586	0,33
1041,003	0,33
1041,419	0,33
1041,836	0,33
1042,253	0,33
1042,67	0,33
1043,087	0,33
1043,504	0,33
1043,92	0,33
1044,337	0,33
1044,754	0,33
1045,17	0,33
1045,587	0,33
1046,004	0,33
1046,42	0,33
1046,837	0,33
1047,253	0,33
1047,67	0,33
1048,086	0,33
1048,503	0,33
1048,919	0,33
1049,335	0,33
1049,752	0,33
1050,168	0,33
1050,584	0,33
1051,001	0,33
1051,417	0,33
1051,833	0,33
1052,249	0,33
1052,665	0,33
1053,081	0,33
1053,497	0,33
1053,914	0,33
1054,33	0,34
1054,746	0,34
1055,162	0,34
1055,578	0,34
1055,993	0,34
1056,409	0,34
1056,825	0,34
1057,241	0,34
1057,657	0,34
1058,073	0,34
1058,488	0,34
1058,904	0,34
1059,32	0,34
1059,736	0,34
1060,151	0,34
1060,567	0,34
1060,982	0,34
1061,398	0,34
1061,813	0,34
1062,229	0,34
1062,644	0,34
1063,06	0,34
1063,475	0,34
1063,891	0,34
1064,306	0,34
1064,721	0,33
1065,137	0,33
1065,552	0,33
1065,967	0,33
1066,382	0,33
1066,798	0,33
1067,213	0,34
1067,628	0,34
1068,043	0,34
1068,458	0,34
1068,873	0,34
1069,288	0,34
1069,703	0,34
1070,118	0,34
1070,533	0,34
1070,948	0,34
1071,363	0,34
1071,778	0,34
1072,193	0,34
1072,607	0,34
1073,022	0,34
1073,437	0,34
1073,852	0,34
1074,266	0,34
1074,681	0,34
1075,096	0,34
1075,51	0,33
1075,925	0,34
1076,339	0,34
1076,754	0,33
1077,168	0,33
1077,583	0,33
1077,997	0,33
1078,412	0,33
1078,826	0,33
1079,24	0,33
1079,655	0,33
1080,069	0,33
1080,483	0,33
1080,897	0,33
1081,312	0,33
1081,726	0,33
1082,14	0,33
1082,554	0,33
1082,968	0,33
1083,382	0,33
1083,796	0,32
1084,21	0,32
1084,624	0,32
1085,038	0,32
1085,452	0,32
1085,866	0,32
1086,28	0,32
1086,694	0,32
1087,108	0,32
1087,521	0,32
1087,935	0,31
1088,349	0,31
1088,763	0,31
1089,176	0,31
1089,59	0,3
1090,004	0,3
1090,417	0,3
1090,831	0,29
1091,244	0,29
1091,658	0,29
1092,071	0,29
1092,485	0,29
1092,898	0,28
1093,312	0,28
1093,725	0,28
1094,138	0,28
1094,552	0,28
1094,965	0,28
1095,378	0,28
1095,791	0,27
1096,205	0,27
1096,618	0,27
1097,031	0,26
1097,444	0,26
1097,857	0,26
1098,27	0,26
1098,683	0,25
1099,096	0,25
1099,509	0,25
1099,922	0,25
1100,335	0,24
1100,748	0,24
1101,161	0,24
1101,574	0,24
1101,986	0,23
1102,399	0,23
1102,812	0,23
1103,225	0,23
1103,637	0,22
1104,05	0,22
1104,463	0,21
1104,875	0,21
1105,288	0,21
1105,7	0,2
1106,113	0,2
1106,525	0,2
1106,938	0,19
1107,35	0,19
1107,763	0,19
1108,175	0,19
1108,588	0,18
1109	0,18
1109,412	0,17
1109,824	0,18
1110,237	0,18
1110,649	0,19
1111,061	0,18
