Data from 18C-808nm-8A-cont_Absorbance__104__01533.txt Node

Date: Mon Jul 17 17:20:55 CEST 2023
User: Laser008
Spectrometer: MAYP115816
Trigger mode: 0
Integration Time (sec): 2,500000E-1
Scans to average: 10
Electric dark correction enabled: true
Nonlinearity correction enabled: true
Boxcar width: 5
XAxis mode: Wavelengths
Number of Pixels in Spectrum: 2068
>>>>>Begin Spectral Data<<<<<
198,914	-0,71
199,384	-0,49
199,855	-0,37
200,325	-0,27
200,796	-0,24
201,266	-0,19
201,737	-0,17
202,207	-0,15
202,677	-0,14
203,147	-0,13
203,618	-0,1
204,088	-0,08
204,558	-0,06
205,028	-0,06
205,498	-0,06
205,968	-0,07
206,439	-0,08
206,909	-0,08
207,379	-0,08
207,849	-0,08
208,319	-0,08
208,789	-0,08
209,258	-0,08
209,728	-0,1
210,198	-0,1
210,668	-0,1
211,138	-0,1
211,608	-0,1
212,077	-0,11
212,547	-0,11
213,017	-0,11
213,486	-0,12
213,956	-0,13
214,426	-0,14
214,895	-0,13
215,365	-0,13
215,834	-0,13
216,304	-0,14
216,773	-0,14
217,243	-0,15
217,712	-0,15
218,181	-0,15
218,651	-0,15
219,12	-0,14
219,589	-0,15
220,058	-0,13
220,528	-0,15
220,997	-0,16
221,466	-0,16
221,935	-0,17
222,404	-0,16
222,873	-0,15
223,342	-0,15
223,812	-0,15
224,281	-0,15
224,749	-0,15
225,218	-0,16
225,687	-0,16
226,156	-0,16
226,625	-0,15
227,094	-0,15
227,563	-0,16
228,031	-0,17
228,5	-0,17
228,969	-0,18
229,438	-0,17
229,906	-0,17
230,375	-0,16
230,844	-0,15
231,312	-0,16
231,781	-0,16
232,249	-0,15
232,718	-0,16
233,186	-0,13
233,655	-0,13
234,123	-0,13
234,591	-0,14
235,06	-0,13
235,528	-0,14
235,996	-0,14
236,465	-0,13
236,933	-0,12
237,401	-0,12
237,869	-0,12
238,337	-0,13
238,805	-0,12
239,274	-0,12
239,742	-0,11
240,21	-0,11
240,678	-0,1
241,146	-0,1
241,614	-0,1
242,081	-0,09
242,549	-0,09
243,017	-0,09
243,485	-0,09
243,953	-0,09
244,421	-0,08
244,888	-0,09
245,356	-0,09
245,824	-0,09
246,291	-0,09
246,759	-0,11
247,227	-0,11
247,694	-0,1
248,162	-0,1
248,629	-0,09
249,097	-0,1
249,564	-0,11
250,032	-0,11
250,499	-0,11
250,967	-0,12
251,434	-0,12
251,901	-0,12
252,369	-0,12
252,836	-0,13
253,303	-0,14
253,77	-0,15
254,237	-0,15
254,705	-0,15
255,172	-0,14
255,639	-0,14
256,106	-0,15
256,573	-0,15
257,04	-0,15
257,507	-0,16
257,974	-0,16
258,441	-0,14
258,908	-0,15
259,375	-0,17
259,841	-0,17
260,308	-0,17
260,775	-0,18
261,242	-0,17
261,709	-0,18
262,175	-0,18
262,642	-0,17
263,109	-0,17
263,575	-0,18
264,042	-0,17
264,508	-0,16
264,975	-0,17
265,441	-0,17
265,908	-0,17
266,374	-0,17
266,841	-0,17
267,307	-0,19
267,773	-0,18
268,24	-0,18
268,706	-0,19
269,172	-0,19
269,639	-0,21
270,105	-0,19
270,571	-0,2
271,037	-0,2
271,503	-0,21
271,969	-0,2
272,435	-0,18
272,902	-0,19
273,368	-0,2
273,834	-0,2
274,3	-0,2
274,765	-0,21
275,231	-0,21
275,697	-0,19
276,163	-0,19
276,629	-0,19
277,095	-0,19
277,56	-0,19
278,026	-0,2
278,492	-0,19
278,958	-0,19
279,423	-0,18
279,889	-0,17
280,354	-0,18
280,82	-0,18
281,286	-0,2
281,751	-0,2
282,217	-0,18
282,682	-0,18
283,147	-0,18
283,613	-0,18
284,078	-0,19
284,544	-0,2
285,009	-0,21
285,474	-0,2
285,939	-0,22
286,405	-0,21
286,87	-0,21
287,335	-0,21
287,8	-0,21
288,265	-0,19
288,73	-0,21
289,195	-0,22
289,66	-0,22
290,125	-0,2
290,59	-0,21
291,055	-0,2
291,52	-0,2
291,985	-0,2
292,45	-0,22
292,915	-0,22
293,38	-0,22
293,844	-0,21
294,309	-0,2
294,774	-0,2
295,239	-0,2
295,703	-0,2
296,168	-0,19
296,632	-0,19
297,097	-0,17
297,562	-0,16
298,026	-0,16
298,491	-0,17
298,955	-0,16
299,419	-0,15
299,884	-0,16
300,348	-0,15
300,813	-0,14
301,277	-0,15
301,741	-0,15
302,205	-0,15
302,67	-0,15
303,134	-0,14
303,598	-0,14
304,062	-0,13
304,526	-0,12
304,99	-0,13
305,454	-0,13
305,919	-0,14
306,383	-0,13
306,847	-0,13
307,31	-0,14
307,774	-0,15
308,238	-0,15
308,702	-0,15
309,166	-0,17
309,63	-0,17
310,094	-0,14
310,557	-0,14
311,021	-0,14
311,485	-0,14
311,948	-0,13
312,412	-0,12
312,876	-0,11
313,339	-0,11
313,803	-0,11
314,266	-0,1
314,73	-0,11
315,193	-0,11
315,657	-0,1
316,12	-0,09
316,584	-0,08
317,047	-0,09
317,51	-0,07
317,973	-0,07
318,437	-0,06
318,9	-0,05
319,363	-0,04
319,826	-0,03
320,29	-0,04
320,753	-0,04
321,216	-0,04
321,679	-0,04
322,142	-0,04
322,605	-0,06
323,068	-0,05
323,531	-0,05
323,994	-0,04
324,457	-0,05
324,92	-0,04
325,382	-0,04
325,845	-0,04
326,308	-0,03
326,771	-0,03
327,233	-0,02
327,696	-0,01
328,159	-0
328,622	-0
329,084	-0,01
329,547	0,01
330,009	0,01
330,472	0,02
330,934	0,04
331,397	0,04
331,859	0,06
332,322	0,06
332,784	0,06
333,246	0,06
333,709	0,06
334,171	0,07
334,633	0,07
335,096	0,06
335,558	0,06
336,02	0,06
336,482	0,06
336,944	0,07
337,406	0,08
337,868	0,08
338,331	0,08
338,793	0,1
339,255	0,1
339,717	0,1
340,178	0,12
340,64	0,12
341,102	0,13
341,564	0,13
342,026	0,13
342,488	0,14
342,949	0,16
343,411	0,18
343,873	0,21
344,335	0,23
344,796	0,27
345,258	0,3
345,719	0,34
346,181	0,38
346,643	0,42
347,104	0,45
347,566	0,47
348,027	0,49
348,488	0,51
348,95	0,52
349,411	0,54
349,873	0,56
350,334	0,57
350,795	0,59
351,256	0,59
351,718	0,6
352,179	0,6
352,64	0,61
353,101	0,61
353,562	0,61
354,023	0,61
354,484	0,62
354,945	0,62
355,406	0,62
355,867	0,62
356,328	0,62
356,789	0,62
357,25	0,63
357,711	0,63
358,172	0,63
358,633	0,63
359,093	0,63
359,554	0,63
360,015	0,63
360,476	0,63
360,936	0,64
361,397	0,64
361,858	0,64
362,318	0,64
362,779	0,64
363,239	0,64
363,7	0,64
364,16	0,64
364,621	0,64
365,081	0,64
365,541	0,64
366,002	0,64
366,462	0,64
366,922	0,64
367,383	0,64
367,843	0,64
368,303	0,64
368,763	0,64
369,223	0,64
369,684	0,64
370,144	0,64
370,604	0,64
371,064	0,64
371,524	0,64
371,984	0,64
372,444	0,64
372,904	0,64
373,363	0,64
373,823	0,64
374,283	0,64
374,743	0,63
375,203	0,63
375,663	0,63
376,122	0,63
376,582	0,63
377,042	0,63
377,501	0,63
377,961	0,63
378,42	0,63
378,88	0,63
379,34	0,63
379,799	0,63
380,259	0,63
380,718	0,63
381,177	0,63
381,637	0,63
382,096	0,63
382,555	0,63
383,015	0,63
383,474	0,63
383,933	0,63
384,393	0,63
384,852	0,63
385,311	0,63
385,77	0,63
386,229	0,63
386,688	0,63
387,147	0,63
387,606	0,63
388,065	0,63
388,524	0,63
388,983	0,63
389,442	0,63
389,901	0,63
390,36	0,62
390,819	0,62
391,277	0,62
391,736	0,62
392,195	0,62
392,654	0,62
393,112	0,62
393,571	0,62
394,03	0,62
394,488	0,62
394,947	0,62
395,405	0,62
395,864	0,62
396,322	0,62
396,781	0,62
397,239	0,62
397,698	0,62
398,156	0,62
398,614	0,62
399,073	0,62
399,531	0,62
399,989	0,62
400,447	0,62
400,905	0,62
401,364	0,62
401,822	0,62
402,28	0,62
402,738	0,62
403,196	0,62
403,654	0,62
404,112	0,62
404,57	0,62
405,028	0,62
405,486	0,62
405,944	0,61
406,402	0,61
406,859	0,61
407,317	0,61
407,775	0,61
408,233	0,61
408,691	0,61
409,148	0,61
409,606	0,61
410,064	0,61
410,521	0,61
410,979	0,61
411,436	0,61
411,894	0,61
412,351	0,61
412,809	0,61
413,266	0,61
413,724	0,61
414,181	0,61
414,638	0,61
415,096	0,61
415,553	0,61
416,01	0,61
416,467	0,61
416,925	0,61
417,382	0,61
417,839	0,61
418,296	0,61
418,753	0,61
419,21	0,61
419,667	0,61
420,124	0,61
420,581	0,61
421,038	0,61
421,495	0,61
421,952	0,61
422,409	0,61
422,866	0,61
423,322	0,61
423,779	0,61
424,236	0,61
424,693	0,61
425,149	0,61
425,606	0,61
426,063	0,61
426,519	0,61
426,976	0,61
427,433	0,61
427,889	0,61
428,346	0,61
428,802	0,61
429,258	0,61
429,715	0,61
430,171	0,61
430,628	0,61
431,084	0,61
431,54	0,61
431,997	0,61
432,453	0,61
432,909	0,61
433,365	0,61
433,821	0,6
434,277	0,6
434,734	0,6
435,19	0,6
435,646	0,6
436,102	0,6
436,558	0,6
437,014	0,6
437,47	0,6
437,925	0,6
438,381	0,6
438,837	0,61
439,293	0,61
439,749	0,61
440,205	0,61
440,66	0,61
441,116	0,61
441,572	0,61
442,027	0,61
442,483	0,61
442,939	0,61
443,394	0,61
443,85	0,61
444,305	0,61
444,761	0,61
445,216	0,61
445,672	0,61
446,127	0,61
446,582	0,61
447,038	0,61
447,493	0,61
447,948	0,61
448,403	0,61
448,859	0,61
449,314	0,61
449,769	0,61
450,224	0,61
450,679	0,61
451,134	0,61
451,589	0,61
452,044	0,61
452,499	0,61
452,954	0,61
453,409	0,61
453,864	0,61
454,319	0,61
454,774	0,61
455,229	0,61
455,684	0,61
456,138	0,61
456,593	0,61
457,048	0,61
457,503	0,61
457,957	0,61
458,412	0,61
458,866	0,61
459,321	0,61
459,776	0,61
460,23	0,61
460,685	0,61
461,139	0,61
461,593	0,62
462,048	0,62
462,502	0,62
462,957	0,62
463,411	0,62
463,865	0,62
464,319	0,62
464,774	0,62
465,228	0,62
465,682	0,62
466,136	0,62
466,59	0,62
467,044	0,62
467,499	0,62
467,953	0,63
468,407	0,63
468,861	0,63
469,315	0,63
469,768	0,63
470,222	0,63
470,676	0,63
471,13	0,63
471,584	0,63
472,038	0,63
472,491	0,63
472,945	0,63
473,399	0,63
473,852	0,63
474,306	0,63
474,76	0,63
475,213	0,64
475,667	0,64
476,12	0,64
476,574	0,64
477,027	0,64
477,481	0,64
477,934	0,64
478,388	0,64
478,841	0,64
479,294	0,65
479,748	0,65
480,201	0,65
480,654	0,65
481,107	0,65
481,561	0,65
482,014	0,65
482,467	0,66
482,92	0,66
483,373	0,66
483,826	0,66
484,279	0,66
484,732	0,66
485,185	0,66
485,638	0,67
486,091	0,67
486,544	0,67
486,997	0,67
487,449	0,67
487,902	0,67
488,355	0,68
488,808	0,68
489,26	0,68
489,713	0,68
490,166	0,68
490,618	0,69
491,071	0,69
491,523	0,69
491,976	0,69
492,429	0,69
492,881	0,7
493,333	0,7
493,786	0,7
494,238	0,7
494,691	0,71
495,143	0,71
495,595	0,71
496,048	0,72
496,5	0,72
496,952	0,72
497,404	0,72
497,856	0,73
498,309	0,73
498,761	0,73
499,213	0,74
499,665	0,74
500,117	0,74
500,569	0,75
501,021	0,75
501,473	0,75
501,925	0,76
502,377	0,76
502,828	0,76
503,28	0,77
503,732	0,77
504,184	0,77
504,636	0,77
505,087	0,78
505,539	0,78
505,991	0,78
506,442	0,79
506,894	0,79
507,345	0,79
507,797	0,8
508,249	0,8
508,7	0,8
509,151	0,81
509,603	0,81
510,054	0,81
510,506	0,82
510,957	0,82
511,408	0,82
511,86	0,82
512,311	0,83
512,762	0,83
513,213	0,83
513,665	0,83
514,116	0,84
514,567	0,84
515,018	0,84
515,469	0,85
515,92	0,85
516,371	0,85
516,822	0,86
517,273	0,86
517,724	0,86
518,175	0,86
518,626	0,86
519,076	0,87
519,527	0,87
519,978	0,87
520,429	0,87
520,88	0,87
521,33	0,88
521,781	0,88
522,232	0,88
522,682	0,88
523,133	0,88
523,583	0,88
524,034	0,88
524,484	0,89
524,935	0,89
525,385	0,89
525,836	0,89
526,286	0,89
526,736	0,89
527,187	0,89
527,637	0,89
528,087	0,89
528,538	0,89
528,988	0,88
529,438	0,88
529,888	0,88
530,338	0,88
530,788	0,88
531,238	0,88
531,688	0,88
532,139	0,88
532,589	0,88
533,038	0,88
533,488	0,87
533,938	0,87
534,388	0,87
534,838	0,87
535,288	0,87
535,738	0,86
536,187	0,86
536,637	0,86
537,087	0,86
537,537	0,85
537,986	0,85
538,436	0,85
538,885	0,84
539,335	0,84
539,785	0,84
540,234	0,83
540,684	0,83
541,133	0,83
541,582	0,82
542,032	0,82
542,481	0,81
542,931	0,81
543,38	0,81
543,829	0,8
544,278	0,8
544,728	0,8
545,177	0,79
545,626	0,79
546,075	0,79
546,524	0,78
546,973	0,78
547,422	0,78
547,871	0,78
548,32	0,77
548,769	0,77
549,218	0,77
549,667	0,77
550,116	0,76
550,565	0,76
551,014	0,76
551,463	0,75
551,911	0,75
552,36	0,75
552,809	0,74
553,258	0,74
553,706	0,74
554,155	0,73
554,603	0,73
555,052	0,73
555,501	0,72
555,949	0,72
556,398	0,72
556,846	0,71
557,294	0,71
557,743	0,71
558,191	0,7
558,64	0,7
559,088	0,69
559,536	0,69
559,985	0,69
560,433	0,68
560,881	0,68
561,329	0,68
561,777	0,67
562,225	0,67
562,674	0,67
563,122	0,67
563,57	0,66
564,018	0,66
564,466	0,66
564,914	0,65
565,362	0,65
565,809	0,65
566,257	0,64
566,705	0,64
567,153	0,64
567,601	0,64
568,048	0,63
568,496	0,63
568,944	0,63
569,392	0,62
569,839	0,62
570,287	0,62
570,734	0,62
571,182	0,61
571,63	0,61
572,077	0,61
572,525	0,61
572,972	0,6
573,419	0,6
573,867	0,6
574,314	0,59
574,761	0,59
575,209	0,59
575,656	0,59
576,103	0,58
576,551	0,58
576,998	0,58
577,445	0,58
577,892	0,58
578,339	0,57
578,786	0,57
579,233	0,57
579,68	0,57
580,127	0,56
580,574	0,56
581,021	0,56
581,468	0,56
581,915	0,56
582,362	0,55
582,809	0,55
583,255	0,55
583,702	0,55
584,149	0,55
584,596	0,55
585,042	0,54
585,489	0,54
585,936	0,54
586,382	0,54
586,829	0,54
587,275	0,54
587,722	0,53
588,168	0,53
588,615	0,53
589,061	0,53
589,508	0,53
589,954	0,53
590,4	0,52
590,847	0,52
591,293	0,52
591,739	0,52
592,185	0,52
592,632	0,52
593,078	0,52
593,524	0,52
593,97	0,51
594,416	0,51
594,862	0,51
595,308	0,51
595,754	0,51
596,2	0,51
596,646	0,51
597,092	0,51
597,538	0,51
597,984	0,5
598,43	0,5
598,876	0,5
599,321	0,5
599,767	0,5
600,213	0,5
600,659	0,5
601,104	0,5
601,55	0,5
601,995	0,5
602,441	0,49
602,887	0,49
603,332	0,49
603,778	0,49
604,223	0,49
604,668	0,49
605,114	0,49
605,559	0,49
606,005	0,49
606,45	0,49
606,895	0,49
607,341	0,49
607,786	0,48
608,231	0,48
608,676	0,48
609,121	0,47
609,566	0,47
610,012	0,47
610,457	0,46
610,902	0,46
611,347	0,46
611,792	0,46
612,237	0,45
612,682	0,45
613,127	0,45
613,571	0,45
614,016	0,46
614,461	0,46
614,906	0,46
615,351	0,46
615,795	0,46
616,24	0,46
616,685	0,46
617,129	0,46
617,574	0,46
618,019	0,46
618,463	0,46
618,908	0,46
619,352	0,46
619,797	0,46
620,241	0,46
620,686	0,46
621,13	0,46
621,574	0,46
622,019	0,46
622,463	0,46
622,907	0,46
623,352	0,46
623,796	0,45
624,24	0,45
624,684	0,45
625,128	0,45
625,572	0,45
626,016	0,45
626,461	0,45
626,905	0,45
627,349	0,45
627,793	0,45
628,236	0,45
628,68	0,45
629,124	0,45
629,568	0,45
630,012	0,45
630,456	0,45
630,9	0,45
631,343	0,45
631,787	0,45
632,231	0,45
632,674	0,45
633,118	0,45
633,562	0,45
634,005	0,45
634,449	0,45
634,892	0,45
635,336	0,45
635,779	0,45
636,223	0,45
636,666	0,45
637,109	0,45
637,553	0,45
637,996	0,45
638,439	0,45
638,883	0,45
639,326	0,45
639,769	0,44
640,212	0,44
640,655	0,44
641,099	0,44
641,542	0,44
641,985	0,44
642,428	0,44
642,871	0,44
643,314	0,44
643,757	0,44
644,2	0,44
644,643	0,44
645,085	0,44
645,528	0,44
645,971	0,44
646,414	0,44
646,857	0,44
647,299	0,44
647,742	0,44
648,185	0,43
648,627	0,43
649,07	0,43
649,513	0,43
649,955	0,43
650,398	0,43
650,84	0,43
651,283	0,44
651,725	0,44
652,168	0,44
652,61	0,44
653,052	0,44
653,495	0,44
653,937	0,35
654,379	0,29
654,821	0,3
655,264	0,3
655,706	0,3
656,148	0,3
656,59	0,3
657,032	0,3
657,474	0,3
657,916	0,3
658,358	0,29
658,8	0,35
659,242	0,43
659,684	0,43
660,126	0,43
660,568	0,43
661,01	0,43
661,452	0,43
661,894	0,43
662,335	0,43
662,777	0,43
663,219	0,43
663,661	0,43
664,102	0,43
664,544	0,43
664,985	0,43
665,427	0,43
665,869	0,43
666,31	0,43
666,752	0,43
667,193	0,43
667,634	0,43
668,076	0,43
668,517	0,43
668,959	0,43
669,4	0,43
669,841	0,43
670,282	0,43
670,724	0,43
671,165	0,43
671,606	0,43
672,047	0,43
672,488	0,43
672,929	0,43
673,37	0,43
673,811	0,43
674,252	0,43
674,693	0,42
675,134	0,42
675,575	0,42
676,016	0,42
676,457	0,42
676,898	0,42
677,339	0,42
677,78	0,42
678,22	0,42
678,661	0,42
679,102	0,42
679,542	0,42
679,983	0,42
680,424	0,42
680,864	0,42
681,305	0,42
681,745	0,42
682,186	0,42
682,626	0,42
683,067	0,42
683,507	0,42
683,948	0,42
684,388	0,42
684,828	0,42
685,269	0,42
685,709	0,42
686,149	0,42
686,589	0,42
687,029	0,41
687,47	0,41
687,91	0,41
688,35	0,41
688,79	0,41
689,23	0,41
689,67	0,41
690,11	0,41
690,55	0,41
690,99	0,41
691,43	0,41
691,87	0,41
692,31	0,41
692,749	0,41
693,189	0,41
693,629	0,41
694,069	0,41
694,508	0,41
694,948	0,41
695,388	0,41
695,827	0,41
696,267	0,41
696,706	0,41
697,146	0,41
697,586	0,41
698,025	0,41
698,464	0,41
698,904	0,41
699,343	0,41
699,783	0,41
700,222	0,41
700,661	0,41
701,101	0,41
701,54	0,41
701,979	0,41
702,418	0,41
702,857	0,41
703,297	0,41
703,736	0,41
704,175	0,41
704,614	0,41
705,053	0,41
705,492	0,41
705,931	0,41
706,37	0,41
706,809	0,41
707,248	0,41
707,687	0,41
708,125	0,41
708,564	0,41
709,003	0,41
709,442	0,41
709,88	0,4
710,319	0,4
710,758	0,4
711,196	0,4
711,635	0,4
712,074	0,4
712,512	0,4
712,951	0,4
713,389	0,4
713,828	0,4
714,266	0,4
714,705	0,4
715,143	0,4
715,581	0,4
716,02	0,4
716,458	0,39
716,896	0,39
717,334	0,39
717,773	0,39
718,211	0,39
718,649	0,4
719,087	0,4
719,525	0,4
719,963	0,4
720,401	0,4
720,839	0,4
721,277	0,4
721,715	0,4
722,153	0,4
722,591	0,4
723,029	0,4
723,467	0,4
723,905	0,4
724,342	0,4
724,78	0,4
725,218	0,4
725,656	0,4
726,093	0,4
726,531	0,4
726,969	0,4
727,406	0,4
727,844	0,4
728,281	0,4
728,719	0,4
729,156	0,4
729,594	0,4
730,031	0,39
730,469	0,39
730,906	0,39
731,343	0,39
731,781	0,39
732,218	0,39
732,655	0,39
733,092	0,39
733,53	0,39
733,967	0,39
734,404	0,39
734,841	0,39
735,278	0,39
735,715	0,39
736,152	0,39
736,589	0,39
737,026	0,39
737,463	0,39
737,9	0,38
738,337	0,38
738,774	0,38
739,211	0,38
739,647	0,38
740,084	0,38
740,521	0,38
740,958	0,38
741,394	0,38
741,831	0,38
742,268	0,38
742,704	0,38
743,141	0,38
743,577	0,38
744,014	0,38
744,45	0,38
744,887	0,38
745,323	0,38
745,76	0,37
746,196	0,37
746,632	0,37
747,069	0,37
747,505	0,37
747,941	0,37
748,378	0,37
748,814	0,37
749,25	0,37
749,686	0,37
750,122	0,38
750,558	0,38
750,994	0,38
751,43	0,38
751,866	0,38
752,302	0,38
752,738	0,38
753,174	0,39
753,61	0,39
754,046	0,39
754,482	0,39
754,918	0,39
755,354	0,38
755,789	0,38
756,225	0,38
756,661	0,38
757,096	0,38
757,532	0,38
757,968	0,38
758,403	0,37
758,839	0,37
759,274	0,37
759,71	0,37
760,145	0,36
760,581	0,36
761,016	0,35
761,452	0,35
761,887	0,35
762,322	0,34
762,758	0,34
763,193	0,33
763,628	0,33
764,063	0,32
764,499	0,32
764,934	0,31
765,369	0,3
765,804	0,3
766,239	0,29
766,674	0,28
767,109	0,28
767,544	0,27
767,979	0,26
768,414	0,26
768,849	0,25
769,284	0,24
769,719	0,23
770,154	0,23
770,588	0,22
771,023	0,2
771,458	0,19
771,893	0,18
772,327	0,17
772,762	0,16
773,197	0,15
773,631	0,15
774,066	0,14
774,5	0,13
774,935	0,12
775,369	0,11
775,804	0,11
776,238	0,1
776,673	0,09
777,107	0,08
777,541	0,07
777,976	0,06
778,41	0,06
778,844	0,04
779,279	0,04
779,713	0,03
780,147	0,02
780,581	0,01
781,015	0,01
781,449	-0
781,883	-0
782,317	-0,02
782,751	-0,03
783,185	-0,04
783,619	-0,05
784,053	-0,05
784,487	-0,06
784,921	-0,06
785,355	-0,07
785,789	-0,08
786,223	-0,1
786,656	-0,11
787,09	-0,11
787,524	-0,12
787,957	-0,13
788,391	-0,15
788,825	-0,16
789,258	-0,18
789,692	-0,2
790,125	-0,22
790,559	-0,23
790,992	-0,25
791,426	-0,28
791,859	-0,29
792,293	-0,33
792,726	-0,34
793,159	-0,37
793,593	-0,39
794,026	-0,41
794,459	-0,44
794,892	-0,47
795,326	-0,49
795,759	-0,53
796,192	-0,57
796,625	-0,62
797,058	-0,64
797,491	-0,68
797,924	-0,72
798,357	-0,77
798,79	-0,81
799,223	-0,85
799,656	-0,91
800,089	-0,96
800,522	-1
800,955	-1,04
801,387	-1,1
801,82	-1,15
802,253	-1,22
802,686	-1,3
803,118	-1,35
803,551	-1,4
803,984	-1,45
804,416	-1,49
804,849	-1,52
805,281	-1,62
805,714	-1,98
806,146	-2,44
806,579	-2,71
807,011	-2,87
807,444	-2,96
807,876	-3,06
808,308	-3,09
808,741	-3,12
809,173	-3,17
809,605	-3,19
810,037	-3,27
810,47	-3,19
810,902	-3
811,334	-2,85
811,766	-2,7
812,198	-2,48
812,63	-2,05
813,062	-1,81
813,494	-1,71
813,926	-1,62
814,358	-1,57
814,79	-1,49
815,222	-1,43
815,654	-1,38
816,086	-1,31
816,518	-1,26
816,949	-1,21
817,381	-1,16
817,813	-1,14
818,245	-1,1
818,676	-1,06
819,108	-1,03
819,54	-1,01
819,971	-0,99
820,403	-0,94
820,834	-0,92
821,266	-0,88
821,697	-0,86
822,129	-0,84
822,56	-0,82
822,991	-0,8
823,423	-0,77
823,854	-0,75
824,286	-0,73
824,717	-0,71
825,148	-0,7
825,579	-0,69
826,01	-0,67
826,442	-0,67
826,873	-0,64
827,304	-0,61
827,735	-0,6
828,166	-0,6
828,597	-0,6
829,028	-0,59
829,459	-0,6
829,89	-0,6
830,321	-0,55
830,752	-0,56
831,183	-0,55
831,613	-0,54
832,044	-0,54
832,475	-0,53
832,906	-0,55
833,336	-0,56
833,767	-0,56
834,198	-0,55
834,628	-0,53
835,059	-0,56
835,49	-0,57
835,92	-0,55
836,351	-0,54
836,781	-0,55
837,212	-0,55
837,642	-0,56
838,072	-0,53
838,503	-0,53
838,933	-0,51
839,364	-0,52
839,794	-0,5
840,224	-0,49
840,654	-0,53
841,085	-0,53
841,515	-0,5
841,945	-0,51
842,375	-0,46
842,805	-0,45
843,235	-0,44
843,665	-0,46
844,095	-0,44
844,525	-0,46
844,955	-0,47
845,385	-0,45
845,815	-0,44
846,245	-0,46
846,675	-0,47
847,105	-0,49
847,534	-0,49
847,964	-0,48
848,394	-0,46
848,824	-0,49
849,253	-0,48
849,683	-0,48
850,112	-0,49
850,542	-0,52
850,972	-0,53
851,401	-0,5
851,831	-0,48
852,26	-0,48
852,69	-0,52
853,119	-0,52
853,548	-0,52
853,978	-0,53
854,407	-0,51
854,836	-0,51
855,266	-0,49
855,695	-0,5
856,124	-0,52
856,553	-0,53
856,983	-0,55
857,412	-0,53
857,841	-0,54
858,27	-0,54
858,699	-0,55
859,128	-0,59
859,557	-0,59
859,986	-0,61
860,415	-0,6
860,844	-0,57
861,273	-0,57
861,702	-0,58
862,13	-0,57
862,559	-0,59
862,988	-0,57
863,417	-0,55
863,845	-0,55
864,274	-0,55
864,703	-0,54
865,131	-0,54
865,56	-0,54
865,989	-0,57
866,417	-0,54
866,846	-0,55
867,274	-0,54
867,703	-0,56
868,131	-0,58
868,559	-0,59
868,988	-0,61
869,416	-0,6
869,844	-0,61
870,273	-0,65
870,701	-0,62
871,129	-0,66
871,557	-0,68
871,986	-0,68
872,414	-0,69
872,842	-0,65
873,27	-0,62
873,698	-0,6
874,126	-0,64
874,554	-0,62
874,982	-0,62
875,41	-0,64
875,838	-0,59
876,266	-0,57
876,694	-0,57
877,122	-0,56
877,549	-0,61
877,977	-0,58
878,405	-0,61
878,833	-0,58
879,26	-0,56
879,688	-0,56
880,116	-0,54
880,543	-0,52
880,971	-0,51
881,399	-0,53
881,826	-0,54
882,254	-0,52
882,681	-0,55
883,109	-0,52
883,536	-0,52
883,963	-0,54
884,391	-0,52
884,818	-0,51
885,245	-0,56
885,673	-0,58
886,1	-0,55
886,527	-0,55
886,954	-0,52
887,381	-0,54
887,809	-0,55
888,236	-0,57
888,663	-0,58
889,09	-0,62
889,517	-0,64
889,944	-0,63
890,371	-0,61
890,798	-0,62
891,225	-0,62
891,652	-0,65
892,078	-0,63
892,505	-0,66
892,932	-0,61
893,359	-0,61
893,786	-0,61
894,212	-0,57
894,639	-0,58
895,066	-0,61
895,492	-0,55
895,919	-0,56
896,346	-0,56
896,772	-0,56
897,199	-0,53
897,625	-0,56
898,052	-0,51
898,478	-0,5
898,904	-0,51
899,331	-0,51
899,757	-0,53
900,183	-0,54
900,61	-0,52
901,036	-0,51
901,462	-0,51
901,888	-0,51
902,315	-0,49
902,741	-0,55
903,167	-0,53
903,593	-0,57
904,019	-0,55
904,445	-0,52
904,871	-0,55
905,297	-0,56
905,723	-0,56
906,149	-0,56
906,575	-0,56
907,001	-0,56
907,427	-0,53
907,852	-0,53
908,278	-0,53
908,704	-0,51
909,13	-0,51
909,555	-0,51
909,981	-0,5
910,407	-0,5
910,832	-0,5
911,258	-0,5
911,684	-0,51
912,109	-0,51
912,535	-0,53
912,96	-0,48
913,386	-0,53
913,811	-0,53
914,236	-0,54
914,662	-0,52
915,087	-0,55
915,512	-0,55
915,938	-0,57
916,363	-0,56
916,788	-0,57
917,213	-0,55
917,639	-0,6
918,064	-0,56
918,489	-0,57
918,914	-0,57
919,339	-0,58
919,764	-0,56
920,189	-0,55
920,614	-0,57
921,039	-0,58
921,464	-0,54
921,889	-0,57
922,314	-0,59
922,738	-0,62
923,163	-0,64
923,588	-0,64
924,013	-0,64
924,437	-0,63
924,862	-0,64
925,287	-0,6
925,711	-0,61
926,136	-0,62
926,561	-0,6
926,985	-0,58
927,41	-0,55
927,834	-0,52
928,259	-0,49
928,683	-0,47
929,108	-0,45
929,532	-0,46
929,956	-0,45
930,381	-0,44
930,805	-0,45
931,229	-0,45
931,653	-0,43
932,078	-0,43
932,502	-0,45
932,926	-0,46
933,35	-0,46
933,774	-0,45
934,198	-0,44
934,622	-0,43
935,046	-0,43
935,47	-0,43
935,894	-0,43
936,318	-0,42
936,742	-0,43
937,166	-0,44
937,59	-0,43
938,014	-0,45
938,437	-0,46
938,861	-0,47
939,285	-0,49
939,709	-0,48
940,132	-0,49
940,556	-0,49
940,98	-0,49
941,403	-0,48
941,827	-0,48
942,25	-0,49
942,674	-0,47
943,097	-0,47
943,521	-0,47
943,944	-0,48
944,368	-0,46
944,791	-0,45
945,214	-0,47
945,638	-0,47
946,061	-0,5
946,484	-0,5
946,907	-0,49
947,331	-0,49
947,754	-0,53
948,177	-0,5
948,6	-0,49
949,023	-0,49
949,446	-0,48
949,869	-0,46
950,292	-0,46
950,715	-0,44
951,138	-0,43
951,561	-0,4
951,984	-0,4
952,407	-0,39
952,83	-0,37
953,252	-0,34
953,675	-0,35
954,098	-0,36
954,521	-0,35
954,943	-0,34
955,366	-0,35
955,789	-0,34
956,211	-0,36
956,634	-0,37
957,056	-0,34
957,479	-0,35
957,902	-0,37
958,324	-0,37
958,746	-0,35
959,169	-0,36
959,591	-0,37
960,014	-0,38
960,436	-0,37
960,858	-0,35
961,281	-0,35
961,703	-0,36
962,125	-0,36
962,547	-0,34
962,969	-0,35
963,391	-0,35
963,814	-0,36
964,236	-0,35
964,658	-0,33
965,08	-0,35
965,502	-0,34
965,924	-0,32
966,346	-0,33
966,768	-0,33
967,189	-0,35
967,611	-0,34
968,033	-0,33
968,455	-0,31
968,877	-0,31
969,298	-0,32
969,72	-0,32
970,142	-0,32
970,563	-0,32
970,985	-0,3
971,407	-0,3
971,828	-0,28
972,25	-0,27
972,671	-0,25
973,093	-0,26
973,514	-0,24
973,936	-0,23
974,357	-0,22
974,778	-0,22
975,2	-0,21
975,621	-0,2
976,042	-0,18
976,464	-0,18
976,885	-0,16
977,306	-0,17
977,727	-0,16
978,148	-0,16
978,57	-0,14
978,991	-0,13
979,412	-0,11
979,833	-0,11
980,254	-0,1
980,675	-0,11
981,096	-0,09
981,517	-0,08
981,937	-0,07
982,358	-0,05
982,779	-0,03
983,2	-0,03
983,621	-0,03
984,042	-0,01
984,462	0,01
984,883	0,02
985,304	0,04
985,724	0,05
986,145	0,06
986,565	0,07
986,986	0,08
987,407	0,09
987,827	0,09
988,248	0,11
988,668	0,12
989,088	0,12
989,509	0,13
989,929	0,14
990,35	0,15
990,77	0,16
991,19	0,17
991,61	0,18
992,031	0,19
992,451	0,2
992,871	0,21
993,291	0,22
993,711	0,23
994,131	0,24
994,551	0,24
994,971	0,25
995,391	0,25
995,811	0,26
996,231	0,26
996,651	0,27
997,071	0,28
997,491	0,28
997,911	0,29
998,331	0,3
998,75	0,3
999,17	0,31
999,59	0,31
1000,009	0,32
1000,429	0,32
1000,849	0,33
1001,268	0,33
1001,688	0,33
1002,107	0,33
1002,527	0,34
1002,946	0,34
1003,366	0,34
1003,785	0,34
1004,205	0,35
1004,624	0,35
1005,044	0,35
1005,463	0,35
1005,882	0,35
1006,301	0,36
1006,721	0,36
1007,14	0,36
1007,559	0,36
1007,978	0,36
1008,397	0,36
1008,816	0,36
1009,235	0,36
1009,655	0,36
1010,074	0,36
1010,492	0,36
1010,911	0,36
1011,33	0,36
1011,749	0,36
1012,168	0,36
1012,587	0,35
1013,006	0,35
1013,425	0,35
1013,843	0,35
1014,262	0,35
1014,681	0,35
1015,099	0,35
1015,518	0,35
1015,937	0,35
1016,355	0,35
1016,774	0,35
1017,192	0,35
1017,611	0,35
1018,029	0,35
1018,448	0,35
1018,866	0,35
1019,285	0,35
1019,703	0,35
1020,121	0,35
1020,54	0,35
1020,958	0,35
1021,376	0,35
1021,794	0,35
1022,213	0,35
1022,631	0,35
1023,049	0,35
1023,467	0,35
1023,885	0,35
1024,303	0,34
1024,721	0,34
1025,139	0,34
1025,557	0,34
1025,975	0,34
1026,393	0,34
1026,811	0,34
1027,229	0,34
1027,647	0,34
1028,065	0,34
1028,482	0,34
1028,9	0,34
1029,318	0,34
1029,735	0,34
1030,153	0,33
1030,571	0,33
1030,988	0,34
1031,406	0,34
1031,823	0,34
1032,241	0,34
1032,659	0,34
1033,076	0,34
1033,493	0,34
1033,911	0,34
1034,328	0,34
1034,746	0,34
1035,163	0,34
1035,58	0,34
1035,997	0,34
1036,415	0,34
1036,832	0,34
1037,249	0,34
1037,666	0,34
1038,083	0,34
1038,501	0,34
1038,918	0,34
1039,335	0,34
1039,752	0,34
1040,169	0,34
1040,586	0,34
1041,003	0,34
1041,419	0,34
1041,836	0,34
1042,253	0,34
1042,67	0,34
1043,087	0,34
1043,504	0,34
1043,92	0,33
1044,337	0,33
1044,754	0,33
1045,17	0,33
1045,587	0,33
1046,004	0,33
1046,42	0,33
1046,837	0,33
1047,253	0,33
1047,67	0,33
1048,086	0,33
1048,503	0,33
1048,919	0,33
1049,335	0,33
1049,752	0,33
1050,168	0,33
1050,584	0,33
1051,001	0,33
1051,417	0,33
1051,833	0,33
1052,249	0,33
1052,665	0,34
1053,081	0,34
1053,497	0,34
1053,914	0,34
1054,33	0,34
1054,746	0,34
1055,162	0,34
1055,578	0,34
1055,993	0,34
1056,409	0,34
1056,825	0,34
1057,241	0,34
1057,657	0,34
1058,073	0,34
1058,488	0,34
1058,904	0,34
1059,32	0,34
1059,736	0,34
1060,151	0,34
1060,567	0,34
1060,982	0,34
1061,398	0,34
1061,813	0,34
1062,229	0,34
1062,644	0,34
1063,06	0,34
1063,475	0,34
1063,891	0,34
1064,306	0,34
1064,721	0,34
1065,137	0,34
1065,552	0,34
1065,967	0,34
1066,382	0,34
1066,798	0,34
1067,213	0,34
1067,628	0,34
1068,043	0,34
1068,458	0,34
1068,873	0,34
1069,288	0,34
1069,703	0,34
1070,118	0,34
1070,533	0,34
1070,948	0,34
1071,363	0,34
1071,778	0,34
1072,193	0,34
1072,607	0,34
1073,022	0,34
1073,437	0,34
1073,852	0,34
1074,266	0,34
1074,681	0,34
1075,096	0,34
1075,51	0,34
1075,925	0,34
1076,339	0,34
1076,754	0,34
1077,168	0,34
1077,583	0,34
1077,997	0,34
1078,412	0,34
1078,826	0,34
1079,24	0,34
1079,655	0,34
1080,069	0,34
1080,483	0,33
1080,897	0,33
1081,312	0,33
1081,726	0,33
1082,14	0,33
1082,554	0,33
1082,968	0,33
1083,382	0,33
1083,796	0,33
1084,21	0,33
1084,624	0,33
1085,038	0,33
1085,452	0,32
1085,866	0,32
1086,28	0,32
1086,694	0,32
1087,108	0,32
1087,521	0,32
1087,935	0,32
1088,349	0,32
1088,763	0,31
1089,176	0,31
1089,59	0,31
1090,004	0,31
1090,417	0,3
1090,831	0,3
1091,244	0,3
1091,658	0,3
1092,071	0,3
1092,485	0,29
1092,898	0,29
1093,312	0,29
1093,725	0,29
1094,138	0,28
1094,552	0,28
1094,965	0,28
1095,378	0,28
1095,791	0,28
1096,205	0,28
1096,618	0,28
1097,031	0,27
1097,444	0,27
1097,857	0,27
1098,27	0,26
1098,683	0,26
1099,096	0,26
1099,509	0,26
1099,922	0,25
1100,335	0,25
1100,748	0,24
1101,161	0,24
1101,574	0,23
1101,986	0,23
1102,399	0,23
1102,812	0,23
1103,225	0,22
1103,637	0,22
1104,05	0,22
1104,463	0,22
1104,875	0,22
1105,288	0,22
1105,7	0,21
1106,113	0,21
1106,525	0,21
1106,938	0,2
1107,35	0,2
1107,763	0,19
1108,175	0,19
1108,588	0,18
1109	0,17
1109,412	0,17
1109,824	0,17
1110,237	0,17
1110,649	0,17
1111,061	0,17
