Data from 18C-808nm-8A-cont_Absorbance__55__01484.txt Node

Date: Mon Jul 17 17:18:53 CEST 2023
User: Laser008
Spectrometer: MAYP115816
Trigger mode: 0
Integration Time (sec): 2,500000E-1
Scans to average: 10
Electric dark correction enabled: true
Nonlinearity correction enabled: true
Boxcar width: 5
XAxis mode: Wavelengths
Number of Pixels in Spectrum: 2068
>>>>>Begin Spectral Data<<<<<
198,914	-0,71
199,384	-0,48
199,855	-0,38
200,325	-0,3
200,796	-0,26
201,266	-0,21
201,737	-0,19
202,207	-0,18
202,677	-0,18
203,147	-0,16
203,618	-0,14
204,088	-0,12
204,558	-0,11
205,028	-0,09
205,498	-0,1
205,968	-0,1
206,439	-0,12
206,909	-0,11
207,379	-0,11
207,849	-0,11
208,319	-0,12
208,789	-0,12
209,258	-0,11
209,728	-0,13
210,198	-0,13
210,668	-0,13
211,138	-0,12
211,608	-0,12
212,077	-0,12
212,547	-0,13
213,017	-0,13
213,486	-0,13
213,956	-0,14
214,426	-0,15
214,895	-0,14
215,365	-0,15
215,834	-0,16
216,304	-0,17
216,773	-0,17
217,243	-0,19
217,712	-0,19
218,181	-0,19
218,651	-0,19
219,12	-0,19
219,589	-0,19
220,058	-0,17
220,528	-0,18
220,997	-0,19
221,466	-0,19
221,935	-0,2
222,404	-0,19
222,873	-0,18
223,342	-0,18
223,812	-0,18
224,281	-0,17
224,749	-0,17
225,218	-0,19
225,687	-0,19
226,156	-0,18
226,625	-0,16
227,094	-0,16
227,563	-0,17
228,031	-0,18
228,5	-0,18
228,969	-0,19
229,438	-0,18
229,906	-0,19
230,375	-0,18
230,844	-0,18
231,312	-0,17
231,781	-0,18
232,249	-0,18
232,718	-0,17
233,186	-0,16
233,655	-0,16
234,123	-0,16
234,591	-0,16
235,06	-0,16
235,528	-0,17
235,996	-0,17
236,465	-0,17
236,933	-0,16
237,401	-0,16
237,869	-0,15
238,337	-0,16
238,805	-0,15
239,274	-0,14
239,742	-0,14
240,21	-0,13
240,678	-0,13
241,146	-0,11
241,614	-0,12
242,081	-0,12
242,549	-0,12
243,017	-0,12
243,485	-0,11
243,953	-0,12
244,421	-0,12
244,888	-0,12
245,356	-0,11
245,824	-0,11
246,291	-0,11
246,759	-0,11
247,227	-0,12
247,694	-0,12
248,162	-0,12
248,629	-0,11
249,097	-0,11
249,564	-0,12
250,032	-0,12
250,499	-0,12
250,967	-0,13
251,434	-0,13
251,901	-0,12
252,369	-0,12
252,836	-0,13
253,303	-0,15
253,77	-0,16
254,237	-0,16
254,705	-0,15
255,172	-0,15
255,639	-0,15
256,106	-0,17
256,573	-0,17
257,04	-0,18
257,507	-0,18
257,974	-0,18
258,441	-0,16
258,908	-0,16
259,375	-0,17
259,841	-0,18
260,308	-0,18
260,775	-0,18
261,242	-0,17
261,709	-0,18
262,175	-0,19
262,642	-0,19
263,109	-0,18
263,575	-0,19
264,042	-0,18
264,508	-0,18
264,975	-0,19
265,441	-0,2
265,908	-0,2
266,374	-0,19
266,841	-0,19
267,307	-0,2
267,773	-0,18
268,24	-0,19
268,706	-0,2
269,172	-0,21
269,639	-0,22
270,105	-0,2
270,571	-0,2
271,037	-0,21
271,503	-0,22
271,969	-0,22
272,435	-0,22
272,902	-0,24
273,368	-0,25
273,834	-0,24
274,3	-0,24
274,765	-0,23
275,231	-0,24
275,697	-0,22
276,163	-0,22
276,629	-0,21
277,095	-0,21
277,56	-0,21
278,026	-0,21
278,492	-0,2
278,958	-0,2
279,423	-0,21
279,889	-0,2
280,354	-0,21
280,82	-0,21
281,286	-0,23
281,751	-0,24
282,217	-0,23
282,682	-0,23
283,147	-0,23
283,613	-0,23
284,078	-0,23
284,544	-0,24
285,009	-0,25
285,474	-0,24
285,939	-0,25
286,405	-0,24
286,87	-0,23
287,335	-0,22
287,8	-0,21
288,265	-0,19
288,73	-0,21
289,195	-0,23
289,66	-0,23
290,125	-0,21
290,59	-0,22
291,055	-0,2
291,52	-0,21
291,985	-0,21
292,45	-0,23
292,915	-0,24
293,38	-0,25
293,844	-0,22
294,309	-0,21
294,774	-0,19
295,239	-0,21
295,703	-0,22
296,168	-0,22
296,632	-0,21
297,097	-0,2
297,562	-0,19
298,026	-0,2
298,491	-0,2
298,955	-0,21
299,419	-0,2
299,884	-0,2
300,348	-0,19
300,813	-0,18
301,277	-0,18
301,741	-0,18
302,205	-0,18
302,67	-0,16
303,134	-0,14
303,598	-0,14
304,062	-0,13
304,526	-0,13
304,99	-0,14
305,454	-0,14
305,919	-0,14
306,383	-0,13
306,847	-0,13
307,31	-0,14
307,774	-0,15
308,238	-0,15
308,702	-0,15
309,166	-0,16
309,63	-0,17
310,094	-0,13
310,557	-0,13
311,021	-0,12
311,485	-0,13
311,948	-0,14
312,412	-0,13
312,876	-0,13
313,339	-0,13
313,803	-0,13
314,266	-0,13
314,73	-0,13
315,193	-0,14
315,657	-0,13
316,12	-0,13
316,584	-0,12
317,047	-0,11
317,51	-0,09
317,973	-0,09
318,437	-0,08
318,9	-0,07
319,363	-0,06
319,826	-0,05
320,29	-0,06
320,753	-0,05
321,216	-0,05
321,679	-0,05
322,142	-0,05
322,605	-0,06
323,068	-0,07
323,531	-0,07
323,994	-0,06
324,457	-0,06
324,92	-0,06
325,382	-0,05
325,845	-0,05
326,308	-0,04
326,771	-0,04
327,233	-0,03
327,696	-0,02
328,159	-0,01
328,622	-0
329,084	-0,01
329,547	-0
330,009	0
330,472	0,01
330,934	0,02
331,397	0,02
331,859	0,03
332,322	0,02
332,784	0,02
333,246	0,03
333,709	0,02
334,171	0,04
334,633	0,04
335,096	0,04
335,558	0,03
336,02	0,03
336,482	0,03
336,944	0,04
337,406	0,05
337,868	0,05
338,331	0,05
338,793	0,07
339,255	0,07
339,717	0,08
340,178	0,08
340,64	0,09
341,102	0,11
341,564	0,12
342,026	0,13
342,488	0,13
342,949	0,14
343,411	0,16
343,873	0,18
344,335	0,2
344,796	0,23
345,258	0,27
345,719	0,3
346,181	0,33
346,643	0,36
347,104	0,38
347,566	0,41
348,027	0,43
348,488	0,44
348,95	0,46
349,411	0,47
349,873	0,49
350,334	0,5
350,795	0,51
351,256	0,52
351,718	0,52
352,179	0,53
352,64	0,53
353,101	0,53
353,562	0,54
354,023	0,54
354,484	0,54
354,945	0,54
355,406	0,54
355,867	0,54
356,328	0,54
356,789	0,55
357,25	0,55
357,711	0,55
358,172	0,55
358,633	0,55
359,093	0,55
359,554	0,56
360,015	0,56
360,476	0,56
360,936	0,56
361,397	0,56
361,858	0,56
362,318	0,56
362,779	0,56
363,239	0,56
363,7	0,56
364,16	0,56
364,621	0,56
365,081	0,56
365,541	0,56
366,002	0,56
366,462	0,56
366,922	0,56
367,383	0,56
367,843	0,56
368,303	0,56
368,763	0,56
369,223	0,56
369,684	0,56
370,144	0,56
370,604	0,56
371,064	0,56
371,524	0,56
371,984	0,56
372,444	0,56
372,904	0,55
373,363	0,55
373,823	0,55
374,283	0,55
374,743	0,55
375,203	0,55
375,663	0,55
376,122	0,55
376,582	0,55
377,042	0,55
377,501	0,55
377,961	0,55
378,42	0,55
378,88	0,55
379,34	0,55
379,799	0,55
380,259	0,55
380,718	0,55
381,177	0,55
381,637	0,55
382,096	0,55
382,555	0,55
383,015	0,55
383,474	0,55
383,933	0,54
384,393	0,54
384,852	0,54
385,311	0,54
385,77	0,54
386,229	0,54
386,688	0,54
387,147	0,54
387,606	0,54
388,065	0,54
388,524	0,54
388,983	0,54
389,442	0,54
389,901	0,54
390,36	0,54
390,819	0,54
391,277	0,54
391,736	0,54
392,195	0,54
392,654	0,54
393,112	0,54
393,571	0,54
394,03	0,54
394,488	0,54
394,947	0,54
395,405	0,54
395,864	0,54
396,322	0,54
396,781	0,54
397,239	0,54
397,698	0,54
398,156	0,54
398,614	0,54
399,073	0,53
399,531	0,53
399,989	0,53
400,447	0,53
400,905	0,53
401,364	0,53
401,822	0,53
402,28	0,53
402,738	0,53
403,196	0,53
403,654	0,53
404,112	0,53
404,57	0,53
405,028	0,53
405,486	0,53
405,944	0,53
406,402	0,53
406,859	0,53
407,317	0,53
407,775	0,53
408,233	0,53
408,691	0,53
409,148	0,53
409,606	0,53
410,064	0,53
410,521	0,53
410,979	0,53
411,436	0,53
411,894	0,53
412,351	0,53
412,809	0,53
413,266	0,53
413,724	0,53
414,181	0,53
414,638	0,53
415,096	0,52
415,553	0,52
416,01	0,52
416,467	0,52
416,925	0,52
417,382	0,52
417,839	0,52
418,296	0,52
418,753	0,52
419,21	0,52
419,667	0,52
420,124	0,52
420,581	0,52
421,038	0,52
421,495	0,52
421,952	0,52
422,409	0,52
422,866	0,52
423,322	0,52
423,779	0,52
424,236	0,52
424,693	0,52
425,149	0,52
425,606	0,52
426,063	0,52
426,519	0,52
426,976	0,52
427,433	0,52
427,889	0,52
428,346	0,52
428,802	0,52
429,258	0,52
429,715	0,52
430,171	0,52
430,628	0,52
431,084	0,52
431,54	0,52
431,997	0,52
432,453	0,52
432,909	0,52
433,365	0,52
433,821	0,52
434,277	0,52
434,734	0,52
435,19	0,52
435,646	0,52
436,102	0,52
436,558	0,52
437,014	0,52
437,47	0,52
437,925	0,52
438,381	0,52
438,837	0,52
439,293	0,52
439,749	0,52
440,205	0,52
440,66	0,52
441,116	0,52
441,572	0,52
442,027	0,52
442,483	0,52
442,939	0,52
443,394	0,52
443,85	0,52
444,305	0,52
444,761	0,52
445,216	0,52
445,672	0,52
446,127	0,52
446,582	0,52
447,038	0,52
447,493	0,52
447,948	0,52
448,403	0,52
448,859	0,52
449,314	0,52
449,769	0,52
450,224	0,52
450,679	0,52
451,134	0,52
451,589	0,52
452,044	0,52
452,499	0,52
452,954	0,52
453,409	0,52
453,864	0,52
454,319	0,52
454,774	0,52
455,229	0,52
455,684	0,52
456,138	0,52
456,593	0,52
457,048	0,52
457,503	0,52
457,957	0,52
458,412	0,52
458,866	0,52
459,321	0,52
459,776	0,52
460,23	0,52
460,685	0,53
461,139	0,53
461,593	0,53
462,048	0,53
462,502	0,53
462,957	0,53
463,411	0,53
463,865	0,53
464,319	0,53
464,774	0,53
465,228	0,53
465,682	0,53
466,136	0,53
466,59	0,53
467,044	0,53
467,499	0,53
467,953	0,53
468,407	0,53
468,861	0,53
469,315	0,54
469,768	0,54
470,222	0,54
470,676	0,54
471,13	0,54
471,584	0,54
472,038	0,54
472,491	0,54
472,945	0,54
473,399	0,54
473,852	0,54
474,306	0,54
474,76	0,54
475,213	0,54
475,667	0,55
476,12	0,55
476,574	0,55
477,027	0,55
477,481	0,55
477,934	0,55
478,388	0,55
478,841	0,55
479,294	0,55
479,748	0,56
480,201	0,56
480,654	0,56
481,107	0,56
481,561	0,56
482,014	0,56
482,467	0,56
482,92	0,56
483,373	0,57
483,826	0,57
484,279	0,57
484,732	0,57
485,185	0,57
485,638	0,57
486,091	0,57
486,544	0,58
486,997	0,58
487,449	0,58
487,902	0,58
488,355	0,58
488,808	0,59
489,26	0,59
489,713	0,59
490,166	0,59
490,618	0,59
491,071	0,6
491,523	0,6
491,976	0,6
492,429	0,6
492,881	0,6
493,333	0,61
493,786	0,61
494,238	0,61
494,691	0,61
495,143	0,62
495,595	0,62
496,048	0,62
496,5	0,62
496,952	0,63
497,404	0,63
497,856	0,63
498,309	0,63
498,761	0,64
499,213	0,64
499,665	0,64
500,117	0,65
500,569	0,65
501,021	0,65
501,473	0,66
501,925	0,66
502,377	0,66
502,828	0,67
503,28	0,67
503,732	0,67
504,184	0,68
504,636	0,68
505,087	0,68
505,539	0,68
505,991	0,69
506,442	0,69
506,894	0,69
507,345	0,7
507,797	0,7
508,249	0,7
508,7	0,71
509,151	0,71
509,603	0,71
510,054	0,72
510,506	0,72
510,957	0,72
511,408	0,72
511,86	0,73
512,311	0,73
512,762	0,73
513,213	0,74
513,665	0,74
514,116	0,74
514,567	0,74
515,018	0,75
515,469	0,75
515,92	0,75
516,371	0,75
516,822	0,76
517,273	0,76
517,724	0,76
518,175	0,76
518,626	0,77
519,076	0,77
519,527	0,77
519,978	0,77
520,429	0,77
520,88	0,78
521,33	0,78
521,781	0,78
522,232	0,78
522,682	0,78
523,133	0,78
523,583	0,78
524,034	0,79
524,484	0,79
524,935	0,79
525,385	0,79
525,836	0,79
526,286	0,79
526,736	0,79
527,187	0,79
527,637	0,79
528,087	0,79
528,538	0,79
528,988	0,79
529,438	0,79
529,888	0,79
530,338	0,78
530,788	0,78
531,238	0,78
531,688	0,78
532,139	0,78
532,589	0,78
533,038	0,78
533,488	0,78
533,938	0,78
534,388	0,77
534,838	0,77
535,288	0,77
535,738	0,77
536,187	0,77
536,637	0,76
537,087	0,76
537,537	0,76
537,986	0,75
538,436	0,75
538,885	0,75
539,335	0,74
539,785	0,74
540,234	0,74
540,684	0,73
541,133	0,73
541,582	0,73
542,032	0,72
542,481	0,72
542,931	0,72
543,38	0,71
543,829	0,71
544,278	0,71
544,728	0,7
545,177	0,7
545,626	0,7
546,075	0,69
546,524	0,69
546,973	0,69
547,422	0,68
547,871	0,68
548,32	0,68
548,769	0,68
549,218	0,67
549,667	0,67
550,116	0,67
550,565	0,67
551,014	0,66
551,463	0,66
551,911	0,66
552,36	0,65
552,809	0,65
553,258	0,65
553,706	0,64
554,155	0,64
554,603	0,64
555,052	0,63
555,501	0,63
555,949	0,63
556,398	0,62
556,846	0,62
557,294	0,62
557,743	0,61
558,191	0,61
558,64	0,61
559,088	0,6
559,536	0,6
559,985	0,6
560,433	0,59
560,881	0,59
561,329	0,59
561,777	0,58
562,225	0,58
562,674	0,58
563,122	0,57
563,57	0,57
564,018	0,57
564,466	0,57
564,914	0,56
565,362	0,56
565,809	0,56
566,257	0,55
566,705	0,55
567,153	0,55
567,601	0,54
568,048	0,54
568,496	0,54
568,944	0,54
569,392	0,53
569,839	0,53
570,287	0,53
570,734	0,53
571,182	0,52
571,63	0,52
572,077	0,52
572,525	0,51
572,972	0,51
573,419	0,51
573,867	0,51
574,314	0,5
574,761	0,5
575,209	0,5
575,656	0,5
576,103	0,49
576,551	0,49
576,998	0,49
577,445	0,49
577,892	0,49
578,339	0,48
578,786	0,48
579,233	0,48
579,68	0,48
580,127	0,48
580,574	0,47
581,021	0,47
581,468	0,47
581,915	0,47
582,362	0,46
582,809	0,46
583,255	0,46
583,702	0,46
584,149	0,46
584,596	0,46
585,042	0,46
585,489	0,45
585,936	0,45
586,382	0,45
586,829	0,45
587,275	0,45
587,722	0,45
588,168	0,44
588,615	0,44
589,061	0,44
589,508	0,44
589,954	0,44
590,4	0,44
590,847	0,44
591,293	0,43
591,739	0,43
592,185	0,43
592,632	0,43
593,078	0,43
593,524	0,43
593,97	0,43
594,416	0,43
594,862	0,43
595,308	0,42
595,754	0,42
596,2	0,42
596,646	0,42
597,092	0,42
597,538	0,42
597,984	0,42
598,43	0,42
598,876	0,42
599,321	0,41
599,767	0,41
600,213	0,41
600,659	0,41
601,104	0,41
601,55	0,41
601,995	0,41
602,441	0,41
602,887	0,41
603,332	0,4
603,778	0,4
604,223	0,4
604,668	0,4
605,114	0,4
605,559	0,4
606,005	0,4
606,45	0,4
606,895	0,4
607,341	0,4
607,786	0,4
608,231	0,4
608,676	0,39
609,121	0,39
609,566	0,39
610,012	0,38
610,457	0,38
610,902	0,38
611,347	0,38
611,792	0,37
612,237	0,37
612,682	0,37
613,127	0,37
613,571	0,37
614,016	0,37
614,461	0,38
614,906	0,38
615,351	0,38
615,795	0,38
616,24	0,38
616,685	0,38
617,129	0,38
617,574	0,38
618,019	0,38
618,463	0,38
618,908	0,38
619,352	0,38
619,797	0,38
620,241	0,38
620,686	0,38
621,13	0,37
621,574	0,37
622,019	0,37
622,463	0,37
622,907	0,37
623,352	0,37
623,796	0,37
624,24	0,37
624,684	0,37
625,128	0,37
625,572	0,37
626,016	0,37
626,461	0,37
626,905	0,37
627,349	0,37
627,793	0,37
628,236	0,37
628,68	0,37
629,124	0,37
629,568	0,37
630,012	0,36
630,456	0,36
630,9	0,36
631,343	0,36
631,787	0,36
632,231	0,36
632,674	0,36
633,118	0,36
633,562	0,36
634,005	0,36
634,449	0,36
634,892	0,36
635,336	0,36
635,779	0,36
636,223	0,36
636,666	0,36
637,109	0,36
637,553	0,36
637,996	0,36
638,439	0,36
638,883	0,36
639,326	0,36
639,769	0,36
640,212	0,36
640,655	0,36
641,099	0,35
641,542	0,35
641,985	0,35
642,428	0,35
642,871	0,35
643,314	0,35
643,757	0,35
644,2	0,35
644,643	0,35
645,085	0,35
645,528	0,35
645,971	0,35
646,414	0,35
646,857	0,35
647,299	0,35
647,742	0,35
648,185	0,35
648,627	0,35
649,07	0,35
649,513	0,35
649,955	0,35
650,398	0,35
650,84	0,35
651,283	0,35
651,725	0,35
652,168	0,35
652,61	0,35
653,052	0,35
653,495	0,35
653,937	0,27
654,379	0,22
654,821	0,22
655,264	0,23
655,706	0,23
656,148	0,23
656,59	0,23
657,032	0,23
657,474	0,23
657,916	0,23
658,358	0,22
658,8	0,27
659,242	0,34
659,684	0,35
660,126	0,35
660,568	0,34
661,01	0,34
661,452	0,34
661,894	0,34
662,335	0,34
662,777	0,34
663,219	0,34
663,661	0,34
664,102	0,34
664,544	0,34
664,985	0,34
665,427	0,34
665,869	0,34
666,31	0,34
666,752	0,34
667,193	0,34
667,634	0,34
668,076	0,34
668,517	0,34
668,959	0,34
669,4	0,34
669,841	0,34
670,282	0,34
670,724	0,34
671,165	0,34
671,606	0,34
672,047	0,34
672,488	0,34
672,929	0,34
673,37	0,34
673,811	0,34
674,252	0,34
674,693	0,34
675,134	0,34
675,575	0,33
676,016	0,33
676,457	0,33
676,898	0,33
677,339	0,33
677,78	0,33
678,22	0,33
678,661	0,33
679,102	0,33
679,542	0,33
679,983	0,33
680,424	0,33
680,864	0,33
681,305	0,33
681,745	0,33
682,186	0,33
682,626	0,33
683,067	0,33
683,507	0,33
683,948	0,33
684,388	0,33
684,828	0,33
685,269	0,33
685,709	0,33
686,149	0,33
686,589	0,33
687,029	0,33
687,47	0,33
687,91	0,33
688,35	0,32
688,79	0,32
689,23	0,32
689,67	0,32
690,11	0,33
690,55	0,33
690,99	0,33
691,43	0,32
691,87	0,32
692,31	0,32
692,749	0,32
693,189	0,32
693,629	0,32
694,069	0,32
694,508	0,32
694,948	0,32
695,388	0,32
695,827	0,32
696,267	0,32
696,706	0,32
697,146	0,32
697,586	0,32
698,025	0,33
698,464	0,33
698,904	0,33
699,343	0,33
699,783	0,33
700,222	0,33
700,661	0,33
701,101	0,33
701,54	0,33
701,979	0,33
702,418	0,33
702,857	0,33
703,297	0,33
703,736	0,33
704,175	0,33
704,614	0,33
705,053	0,32
705,492	0,32
705,931	0,32
706,37	0,32
706,809	0,32
707,248	0,32
707,687	0,32
708,125	0,32
708,564	0,32
709,003	0,32
709,442	0,32
709,88	0,32
710,319	0,32
710,758	0,32
711,196	0,32
711,635	0,32
712,074	0,32
712,512	0,32
712,951	0,32
713,389	0,31
713,828	0,31
714,266	0,31
714,705	0,31
715,143	0,31
715,581	0,31
716,02	0,31
716,458	0,31
716,896	0,31
717,334	0,31
717,773	0,31
718,211	0,31
718,649	0,31
719,087	0,31
719,525	0,31
719,963	0,31
720,401	0,31
720,839	0,31
721,277	0,31
721,715	0,31
722,153	0,31
722,591	0,31
723,029	0,31
723,467	0,31
723,905	0,31
724,342	0,31
724,78	0,31
725,218	0,31
725,656	0,31
726,093	0,31
726,531	0,31
726,969	0,31
727,406	0,31
727,844	0,31
728,281	0,31
728,719	0,31
729,156	0,31
729,594	0,31
730,031	0,31
730,469	0,31
730,906	0,31
731,343	0,31
731,781	0,31
732,218	0,31
732,655	0,31
733,092	0,31
733,53	0,31
733,967	0,31
734,404	0,31
734,841	0,31
735,278	0,3
735,715	0,3
736,152	0,3
736,589	0,3
737,026	0,3
737,463	0,3
737,9	0,3
738,337	0,3
738,774	0,3
739,211	0,3
739,647	0,3
740,084	0,3
740,521	0,3
740,958	0,3
741,394	0,3
741,831	0,3
742,268	0,3
742,704	0,29
743,141	0,29
743,577	0,29
744,014	0,29
744,45	0,29
744,887	0,29
745,323	0,29
745,76	0,29
746,196	0,29
746,632	0,29
747,069	0,29
747,505	0,29
747,941	0,29
748,378	0,29
748,814	0,29
749,25	0,29
749,686	0,29
750,122	0,29
750,558	0,29
750,994	0,3
751,43	0,3
751,866	0,3
752,302	0,3
752,738	0,3
753,174	0,3
753,61	0,3
754,046	0,3
754,482	0,3
754,918	0,3
755,354	0,3
755,789	0,3
756,225	0,3
756,661	0,3
757,096	0,3
757,532	0,3
757,968	0,3
758,403	0,3
758,839	0,29
759,274	0,29
759,71	0,29
760,145	0,28
760,581	0,28
761,016	0,28
761,452	0,27
761,887	0,27
762,322	0,27
762,758	0,26
763,193	0,26
763,628	0,25
764,063	0,25
764,499	0,24
764,934	0,24
765,369	0,23
765,804	0,23
766,239	0,23
766,674	0,22
767,109	0,22
767,544	0,21
767,979	0,2
768,414	0,2
768,849	0,19
769,284	0,18
769,719	0,17
770,154	0,17
770,588	0,16
771,023	0,15
771,458	0,14
771,893	0,14
772,327	0,12
772,762	0,12
773,197	0,11
773,631	0,11
774,066	0,1
774,5	0,1
774,935	0,08
775,369	0,08
775,804	0,07
776,238	0,06
776,673	0,05
777,107	0,05
777,541	0,04
777,976	0,03
778,41	0,03
778,844	0,02
779,279	0,01
779,713	0
780,147	-0,01
780,581	-0,02
781,015	-0,03
781,449	-0,04
781,883	-0,04
782,317	-0,06
782,751	-0,07
783,185	-0,08
783,619	-0,09
784,053	-0,1
784,487	-0,1
784,921	-0,1
785,355	-0,11
785,789	-0,11
786,223	-0,12
786,656	-0,13
787,09	-0,14
787,524	-0,15
787,957	-0,16
788,391	-0,18
788,825	-0,19
789,258	-0,21
789,692	-0,22
790,125	-0,23
790,559	-0,25
790,992	-0,27
791,426	-0,29
791,859	-0,3
792,293	-0,33
792,726	-0,35
793,159	-0,37
793,593	-0,38
794,026	-0,4
794,459	-0,44
794,892	-0,46
795,326	-0,49
795,759	-0,52
796,192	-0,56
796,625	-0,61
797,058	-0,63
797,491	-0,67
797,924	-0,71
798,357	-0,76
798,79	-0,8
799,223	-0,84
799,656	-0,89
800,089	-0,94
800,522	-0,98
800,955	-1,03
801,387	-1,08
801,82	-1,13
802,253	-1,2
802,686	-1,28
803,118	-1,33
803,551	-1,38
803,984	-1,43
804,416	-1,46
804,849	-1,49
805,281	-1,6
805,714	-1,95
806,146	-2,41
806,579	-2,69
807,011	-2,85
807,444	-2,95
807,876	-3,04
808,308	-3,08
808,741	-3,11
809,173	-3,16
809,605	-3,18
810,037	-3,26
810,47	-3,18
810,902	-2,99
811,334	-2,84
811,766	-2,69
812,198	-2,46
812,63	-2,03
813,062	-1,8
813,494	-1,69
813,926	-1,61
814,358	-1,55
814,79	-1,47
815,222	-1,41
815,654	-1,36
816,086	-1,3
816,518	-1,24
816,949	-1,19
817,381	-1,14
817,813	-1,13
818,245	-1,09
818,676	-1,05
819,108	-1,01
819,54	-1
819,971	-0,98
820,403	-0,92
820,834	-0,91
821,266	-0,87
821,697	-0,84
822,129	-0,83
822,56	-0,8
822,991	-0,77
823,423	-0,75
823,854	-0,74
824,286	-0,72
824,717	-0,71
825,148	-0,69
825,579	-0,68
826,01	-0,67
826,442	-0,66
826,873	-0,64
827,304	-0,62
827,735	-0,6
828,166	-0,6
828,597	-0,6
829,028	-0,6
829,459	-0,61
829,89	-0,61
830,321	-0,57
830,752	-0,58
831,183	-0,57
831,613	-0,56
832,044	-0,56
832,475	-0,55
832,906	-0,56
833,336	-0,56
833,767	-0,56
834,198	-0,55
834,628	-0,53
835,059	-0,56
835,49	-0,56
835,92	-0,54
836,351	-0,54
836,781	-0,54
837,212	-0,56
837,642	-0,56
838,072	-0,54
838,503	-0,55
838,933	-0,52
839,364	-0,53
839,794	-0,51
840,224	-0,5
840,654	-0,53
841,085	-0,54
841,515	-0,51
841,945	-0,51
842,375	-0,46
842,805	-0,45
843,235	-0,43
843,665	-0,45
844,095	-0,44
844,525	-0,46
844,955	-0,46
845,385	-0,45
845,815	-0,43
846,245	-0,46
846,675	-0,46
847,105	-0,48
847,534	-0,48
847,964	-0,47
848,394	-0,46
848,824	-0,48
849,253	-0,47
849,683	-0,47
850,112	-0,48
850,542	-0,52
850,972	-0,52
851,401	-0,5
851,831	-0,48
852,26	-0,48
852,69	-0,51
853,119	-0,5
853,548	-0,5
853,978	-0,51
854,407	-0,5
854,836	-0,5
855,266	-0,49
855,695	-0,5
856,124	-0,52
856,553	-0,54
856,983	-0,56
857,412	-0,55
857,841	-0,56
858,27	-0,57
858,699	-0,58
859,128	-0,6
859,557	-0,61
859,986	-0,62
860,415	-0,6
860,844	-0,57
861,273	-0,57
861,702	-0,58
862,13	-0,56
862,559	-0,58
862,988	-0,55
863,417	-0,54
863,845	-0,53
864,274	-0,53
864,703	-0,52
865,131	-0,52
865,56	-0,53
865,989	-0,55
866,417	-0,52
866,846	-0,52
867,274	-0,51
867,703	-0,53
868,131	-0,55
868,559	-0,55
868,988	-0,57
869,416	-0,57
869,844	-0,59
870,273	-0,62
870,701	-0,6
871,129	-0,63
871,557	-0,65
871,986	-0,66
872,414	-0,68
872,842	-0,65
873,27	-0,62
873,698	-0,6
874,126	-0,63
874,554	-0,62
874,982	-0,61
875,41	-0,64
875,838	-0,6
876,266	-0,57
876,694	-0,58
877,122	-0,56
877,549	-0,63
877,977	-0,6
878,405	-0,62
878,833	-0,6
879,26	-0,58
879,688	-0,58
880,116	-0,56
880,543	-0,55
880,971	-0,55
881,399	-0,57
881,826	-0,59
882,254	-0,56
882,681	-0,59
883,109	-0,55
883,536	-0,55
883,963	-0,57
884,391	-0,56
884,818	-0,54
885,245	-0,57
885,673	-0,58
886,1	-0,54
886,527	-0,54
886,954	-0,51
887,381	-0,52
887,809	-0,53
888,236	-0,55
888,663	-0,56
889,09	-0,59
889,517	-0,61
889,944	-0,62
890,371	-0,61
890,798	-0,61
891,225	-0,62
891,652	-0,65
892,078	-0,63
892,505	-0,66
892,932	-0,61
893,359	-0,62
893,786	-0,62
894,212	-0,59
894,639	-0,6
895,066	-0,62
895,492	-0,57
895,919	-0,56
896,346	-0,56
896,772	-0,56
897,199	-0,52
897,625	-0,56
898,052	-0,52
898,478	-0,5
898,904	-0,52
899,331	-0,51
899,757	-0,53
900,183	-0,55
900,61	-0,53
901,036	-0,54
901,462	-0,53
901,888	-0,53
902,315	-0,51
902,741	-0,56
903,167	-0,55
903,593	-0,58
904,019	-0,57
904,445	-0,54
904,871	-0,58
905,297	-0,6
905,723	-0,59
906,149	-0,59
906,575	-0,59
907,001	-0,59
907,427	-0,57
907,852	-0,55
908,278	-0,55
908,704	-0,53
909,13	-0,52
909,555	-0,51
909,981	-0,5
910,407	-0,51
910,832	-0,5
911,258	-0,5
911,684	-0,51
912,109	-0,5
912,535	-0,53
912,96	-0,49
913,386	-0,53
913,811	-0,52
914,236	-0,54
914,662	-0,52
915,087	-0,55
915,512	-0,55
915,938	-0,57
916,363	-0,56
916,788	-0,58
917,213	-0,55
917,639	-0,6
918,064	-0,57
918,489	-0,58
918,914	-0,58
919,339	-0,6
919,764	-0,58
920,189	-0,57
920,614	-0,59
921,039	-0,6
921,464	-0,56
921,889	-0,59
922,314	-0,6
922,738	-0,63
923,163	-0,64
923,588	-0,64
924,013	-0,63
924,437	-0,62
924,862	-0,65
925,287	-0,61
925,711	-0,62
926,136	-0,64
926,561	-0,62
926,985	-0,6
927,41	-0,58
927,834	-0,55
928,259	-0,52
928,683	-0,5
929,108	-0,48
929,532	-0,48
929,956	-0,47
930,381	-0,46
930,805	-0,46
931,229	-0,45
931,653	-0,44
932,078	-0,44
932,502	-0,45
932,926	-0,46
933,35	-0,46
933,774	-0,45
934,198	-0,44
934,622	-0,43
935,046	-0,43
935,47	-0,43
935,894	-0,43
936,318	-0,43
936,742	-0,42
937,166	-0,42
937,59	-0,42
938,014	-0,44
938,437	-0,45
938,861	-0,47
939,285	-0,48
939,709	-0,47
940,132	-0,48
940,556	-0,49
940,98	-0,49
941,403	-0,48
941,827	-0,49
942,25	-0,5
942,674	-0,48
943,097	-0,48
943,521	-0,48
943,944	-0,48
944,368	-0,48
944,791	-0,47
945,214	-0,49
945,638	-0,49
946,061	-0,52
946,484	-0,53
946,907	-0,51
947,331	-0,51
947,754	-0,55
948,177	-0,53
948,6	-0,53
949,023	-0,52
949,446	-0,52
949,869	-0,5
950,292	-0,5
950,715	-0,46
951,138	-0,45
951,561	-0,44
951,984	-0,44
952,407	-0,43
952,83	-0,41
953,252	-0,37
953,675	-0,36
954,098	-0,37
954,521	-0,35
954,943	-0,34
955,366	-0,35
955,789	-0,32
956,211	-0,33
956,634	-0,34
957,056	-0,32
957,479	-0,33
957,902	-0,35
958,324	-0,36
958,746	-0,35
959,169	-0,36
959,591	-0,36
960,014	-0,37
960,436	-0,37
960,858	-0,37
961,281	-0,37
961,703	-0,38
962,125	-0,37
962,547	-0,36
962,969	-0,36
963,391	-0,37
963,814	-0,38
964,236	-0,38
964,658	-0,35
965,08	-0,35
965,502	-0,35
965,924	-0,32
966,346	-0,33
966,768	-0,33
967,189	-0,35
967,611	-0,34
968,033	-0,34
968,455	-0,32
968,877	-0,33
969,298	-0,35
969,72	-0,36
970,142	-0,35
970,563	-0,36
970,985	-0,34
971,407	-0,33
971,828	-0,31
972,25	-0,29
972,671	-0,28
973,093	-0,28
973,514	-0,26
973,936	-0,24
974,357	-0,22
974,778	-0,23
975,2	-0,23
975,621	-0,22
976,042	-0,21
976,464	-0,2
976,885	-0,19
977,306	-0,19
977,727	-0,18
978,148	-0,17
978,57	-0,16
978,991	-0,15
979,412	-0,13
979,833	-0,13
980,254	-0,12
980,675	-0,13
981,096	-0,12
981,517	-0,1
981,937	-0,1
982,358	-0,09
982,779	-0,07
983,2	-0,07
983,621	-0,07
984,042	-0,06
984,462	-0,05
984,883	-0,03
985,304	-0,02
985,724	-0
986,145	0
986,565	0,02
986,986	0,03
987,407	0,03
987,827	0,05
988,248	0,06
988,668	0,07
989,088	0,08
989,509	0,09
989,929	0,1
990,35	0,1
990,77	0,11
991,19	0,12
991,61	0,13
992,031	0,13
992,451	0,14
992,871	0,14
993,291	0,15
993,711	0,16
994,131	0,17
994,551	0,17
994,971	0,18
995,391	0,18
995,811	0,19
996,231	0,19
996,651	0,19
997,071	0,2
997,491	0,21
997,911	0,21
998,331	0,21
998,75	0,22
999,17	0,22
999,59	0,23
1000,009	0,23
1000,429	0,23
1000,849	0,24
1001,268	0,24
1001,688	0,24
1002,107	0,25
1002,527	0,25
1002,946	0,25
1003,366	0,26
1003,785	0,26
1004,205	0,26
1004,624	0,26
1005,044	0,27
1005,463	0,27
1005,882	0,27
1006,301	0,27
1006,721	0,27
1007,14	0,27
1007,559	0,27
1007,978	0,27
1008,397	0,27
1008,816	0,27
1009,235	0,27
1009,655	0,27
1010,074	0,27
1010,492	0,27
1010,911	0,27
1011,33	0,27
1011,749	0,27
1012,168	0,26
1012,587	0,26
1013,006	0,26
1013,425	0,26
1013,843	0,26
1014,262	0,26
1014,681	0,26
1015,099	0,26
1015,518	0,26
1015,937	0,26
1016,355	0,26
1016,774	0,26
1017,192	0,26
1017,611	0,26
1018,029	0,26
1018,448	0,26
1018,866	0,26
1019,285	0,26
1019,703	0,26
1020,121	0,26
1020,54	0,26
1020,958	0,26
1021,376	0,26
1021,794	0,26
1022,213	0,26
1022,631	0,26
1023,049	0,26
1023,467	0,26
1023,885	0,26
1024,303	0,26
1024,721	0,26
1025,139	0,26
1025,557	0,26
1025,975	0,26
1026,393	0,26
1026,811	0,25
1027,229	0,25
1027,647	0,25
1028,065	0,25
1028,482	0,25
1028,9	0,25
1029,318	0,25
1029,735	0,25
1030,153	0,25
1030,571	0,25
1030,988	0,25
1031,406	0,25
1031,823	0,25
1032,241	0,25
1032,659	0,25
1033,076	0,25
1033,493	0,25
1033,911	0,25
1034,328	0,25
1034,746	0,25
1035,163	0,25
1035,58	0,25
1035,997	0,25
1036,415	0,25
1036,832	0,25
1037,249	0,25
1037,666	0,25
1038,083	0,25
1038,501	0,25
1038,918	0,25
1039,335	0,25
1039,752	0,25
1040,169	0,25
1040,586	0,25
1041,003	0,25
1041,419	0,25
1041,836	0,25
1042,253	0,25
1042,67	0,25
1043,087	0,25
1043,504	0,25
1043,92	0,25
1044,337	0,25
1044,754	0,25
1045,17	0,25
1045,587	0,25
1046,004	0,25
1046,42	0,25
1046,837	0,25
1047,253	0,25
1047,67	0,25
1048,086	0,25
1048,503	0,25
1048,919	0,25
1049,335	0,24
1049,752	0,24
1050,168	0,24
1050,584	0,24
1051,001	0,25
1051,417	0,25
1051,833	0,25
1052,249	0,25
1052,665	0,25
1053,081	0,25
1053,497	0,25
1053,914	0,25
1054,33	0,25
1054,746	0,25
1055,162	0,25
1055,578	0,25
1055,993	0,25
1056,409	0,25
1056,825	0,25
1057,241	0,25
1057,657	0,25
1058,073	0,25
1058,488	0,25
1058,904	0,25
1059,32	0,25
1059,736	0,25
1060,151	0,25
1060,567	0,25
1060,982	0,25
1061,398	0,25
1061,813	0,25
1062,229	0,25
1062,644	0,25
1063,06	0,25
1063,475	0,25
1063,891	0,25
1064,306	0,25
1064,721	0,25
1065,137	0,25
1065,552	0,25
1065,967	0,25
1066,382	0,25
1066,798	0,25
1067,213	0,25
1067,628	0,25
1068,043	0,25
1068,458	0,25
1068,873	0,25
1069,288	0,25
1069,703	0,25
1070,118	0,25
1070,533	0,25
1070,948	0,25
1071,363	0,25
1071,778	0,25
1072,193	0,25
1072,607	0,25
1073,022	0,25
1073,437	0,25
1073,852	0,26
1074,266	0,26
1074,681	0,26
1075,096	0,26
1075,51	0,26
1075,925	0,26
1076,339	0,26
1076,754	0,25
1077,168	0,25
1077,583	0,25
1077,997	0,25
1078,412	0,25
1078,826	0,25
1079,24	0,25
1079,655	0,25
1080,069	0,25
1080,483	0,25
1080,897	0,25
1081,312	0,25
1081,726	0,25
1082,14	0,25
1082,554	0,24
1082,968	0,24
1083,382	0,24
1083,796	0,24
1084,21	0,24
1084,624	0,24
1085,038	0,24
1085,452	0,24
1085,866	0,24
1086,28	0,24
1086,694	0,24
1087,108	0,24
1087,521	0,23
1087,935	0,23
1088,349	0,23
1088,763	0,23
1089,176	0,23
1089,59	0,22
1090,004	0,22
1090,417	0,22
1090,831	0,22
1091,244	0,22
1091,658	0,22
1092,071	0,22
1092,485	0,21
1092,898	0,21
1093,312	0,21
1093,725	0,21
1094,138	0,21
1094,552	0,21
1094,965	0,21
1095,378	0,21
1095,791	0,2
1096,205	0,2
1096,618	0,2
1097,031	0,2
1097,444	0,2
1097,857	0,2
1098,27	0,19
1098,683	0,19
1099,096	0,19
1099,509	0,19
1099,922	0,19
1100,335	0,18
1100,748	0,18
1101,161	0,17
1101,574	0,17
1101,986	0,16
1102,399	0,16
1102,812	0,16
1103,225	0,16
1103,637	0,15
1104,05	0,15
1104,463	0,15
1104,875	0,15
1105,288	0,15
1105,7	0,14
1106,113	0,14
1106,525	0,14
1106,938	0,13
1107,35	0,13
1107,763	0,13
1108,175	0,13
1108,588	0,12
1109	0,12
1109,412	0,11
1109,824	0,11
1110,237	0,11
1110,649	0,11
1111,061	0,11
