Data from 18C-808nm-8A-cont_Absorbance__118__01547.txt Node

Date: Mon Jul 17 17:21:30 CEST 2023
User: Laser008
Spectrometer: MAYP115816
Trigger mode: 0
Integration Time (sec): 2,500000E-1
Scans to average: 10
Electric dark correction enabled: true
Nonlinearity correction enabled: true
Boxcar width: 5
XAxis mode: Wavelengths
Number of Pixels in Spectrum: 2068
>>>>>Begin Spectral Data<<<<<
198,914	-0,7
199,384	-0,45
199,855	-0,34
200,325	-0,26
200,796	-0,22
201,266	-0,17
201,737	-0,15
202,207	-0,15
202,677	-0,15
203,147	-0,14
203,618	-0,1
204,088	-0,09
204,558	-0,09
205,028	-0,08
205,498	-0,1
205,968	-0,09
206,439	-0,11
206,909	-0,11
207,379	-0,11
207,849	-0,11
208,319	-0,12
208,789	-0,14
209,258	-0,14
209,728	-0,15
210,198	-0,14
210,668	-0,13
211,138	-0,13
211,608	-0,13
212,077	-0,12
212,547	-0,13
213,017	-0,13
213,486	-0,12
213,956	-0,12
214,426	-0,13
214,895	-0,12
215,365	-0,14
215,834	-0,14
216,304	-0,15
216,773	-0,16
217,243	-0,17
217,712	-0,18
218,181	-0,18
218,651	-0,17
219,12	-0,17
219,589	-0,17
220,058	-0,16
220,528	-0,18
220,997	-0,18
221,466	-0,19
221,935	-0,2
222,404	-0,19
222,873	-0,18
223,342	-0,18
223,812	-0,19
224,281	-0,19
224,749	-0,19
225,218	-0,21
225,687	-0,2
226,156	-0,18
226,625	-0,17
227,094	-0,16
227,563	-0,16
228,031	-0,18
228,5	-0,18
228,969	-0,18
229,438	-0,17
229,906	-0,16
230,375	-0,15
230,844	-0,15
231,312	-0,15
231,781	-0,16
232,249	-0,16
232,718	-0,16
233,186	-0,15
233,655	-0,15
234,123	-0,15
234,591	-0,15
235,06	-0,16
235,528	-0,16
235,996	-0,16
236,465	-0,16
236,933	-0,15
237,401	-0,15
237,869	-0,14
238,337	-0,14
238,805	-0,14
239,274	-0,13
239,742	-0,12
240,21	-0,12
240,678	-0,11
241,146	-0,1
241,614	-0,1
242,081	-0,1
242,549	-0,09
243,017	-0,09
243,485	-0,09
243,953	-0,09
244,421	-0,09
244,888	-0,1
245,356	-0,09
245,824	-0,09
246,291	-0,1
246,759	-0,1
247,227	-0,11
247,694	-0,11
248,162	-0,1
248,629	-0,09
249,097	-0,1
249,564	-0,1
250,032	-0,1
250,499	-0,11
250,967	-0,11
251,434	-0,1
251,901	-0,1
252,369	-0,1
252,836	-0,11
253,303	-0,13
253,77	-0,14
254,237	-0,14
254,705	-0,14
255,172	-0,13
255,639	-0,14
256,106	-0,16
256,573	-0,15
257,04	-0,16
257,507	-0,17
257,974	-0,17
258,441	-0,15
258,908	-0,16
259,375	-0,17
259,841	-0,17
260,308	-0,17
260,775	-0,17
261,242	-0,16
261,709	-0,17
262,175	-0,17
262,642	-0,17
263,109	-0,17
263,575	-0,18
264,042	-0,16
264,508	-0,15
264,975	-0,18
265,441	-0,2
265,908	-0,2
266,374	-0,2
266,841	-0,2
267,307	-0,2
267,773	-0,18
268,24	-0,18
268,706	-0,19
269,172	-0,2
269,639	-0,21
270,105	-0,19
270,571	-0,19
271,037	-0,19
271,503	-0,21
271,969	-0,2
272,435	-0,2
272,902	-0,22
273,368	-0,23
273,834	-0,23
274,3	-0,24
274,765	-0,23
275,231	-0,23
275,697	-0,22
276,163	-0,22
276,629	-0,21
277,095	-0,21
277,56	-0,2
278,026	-0,22
278,492	-0,2
278,958	-0,2
279,423	-0,19
279,889	-0,19
280,354	-0,19
280,82	-0,19
281,286	-0,22
281,751	-0,22
282,217	-0,22
282,682	-0,21
283,147	-0,21
283,613	-0,21
284,078	-0,22
284,544	-0,23
285,009	-0,23
285,474	-0,22
285,939	-0,23
286,405	-0,22
286,87	-0,21
287,335	-0,21
287,8	-0,21
288,265	-0,2
288,73	-0,21
289,195	-0,23
289,66	-0,23
290,125	-0,22
290,59	-0,23
291,055	-0,22
291,52	-0,22
291,985	-0,22
292,45	-0,24
292,915	-0,23
293,38	-0,23
293,844	-0,22
294,309	-0,21
294,774	-0,2
295,239	-0,21
295,703	-0,21
296,168	-0,2
296,632	-0,18
297,097	-0,17
297,562	-0,16
298,026	-0,17
298,491	-0,18
298,955	-0,17
299,419	-0,17
299,884	-0,16
300,348	-0,15
300,813	-0,15
301,277	-0,15
301,741	-0,15
302,205	-0,16
302,67	-0,15
303,134	-0,14
303,598	-0,15
304,062	-0,14
304,526	-0,13
304,99	-0,14
305,454	-0,14
305,919	-0,14
306,383	-0,13
306,847	-0,13
307,31	-0,13
307,774	-0,14
308,238	-0,15
308,702	-0,14
309,166	-0,15
309,63	-0,16
310,094	-0,13
310,557	-0,14
311,021	-0,13
311,485	-0,14
311,948	-0,14
312,412	-0,14
312,876	-0,13
313,339	-0,13
313,803	-0,13
314,266	-0,13
314,73	-0,12
315,193	-0,13
315,657	-0,11
316,12	-0,11
316,584	-0,1
317,047	-0,1
317,51	-0,08
317,973	-0,08
318,437	-0,07
318,9	-0,05
319,363	-0,05
319,826	-0,04
320,29	-0,04
320,753	-0,05
321,216	-0,05
321,679	-0,04
322,142	-0,04
322,605	-0,06
323,068	-0,05
323,531	-0,06
323,994	-0,06
324,457	-0,05
324,92	-0,04
325,382	-0,04
325,845	-0,03
326,308	-0,02
326,771	-0,02
327,233	-0,01
327,696	-0
328,159	0
328,622	0,02
329,084	0,02
329,547	0,02
330,009	0,02
330,472	0,03
330,934	0,04
331,397	0,04
331,859	0,05
332,322	0,05
332,784	0,05
333,246	0,06
333,709	0,05
334,171	0,05
334,633	0,06
335,096	0,05
335,558	0,05
336,02	0,04
336,482	0,04
336,944	0,05
337,406	0,06
337,868	0,06
338,331	0,06
338,793	0,08
339,255	0,09
339,717	0,09
340,178	0,1
340,64	0,1
341,102	0,11
341,564	0,12
342,026	0,14
342,488	0,14
342,949	0,15
343,411	0,17
343,873	0,2
344,335	0,22
344,796	0,25
345,258	0,28
345,719	0,32
346,181	0,36
346,643	0,4
347,104	0,42
347,566	0,45
348,027	0,47
348,488	0,49
348,95	0,51
349,411	0,53
349,873	0,54
350,334	0,56
350,795	0,57
351,256	0,58
351,718	0,58
352,179	0,59
352,64	0,59
353,101	0,59
353,562	0,59
354,023	0,6
354,484	0,6
354,945	0,6
355,406	0,6
355,867	0,6
356,328	0,6
356,789	0,61
357,25	0,61
357,711	0,61
358,172	0,61
358,633	0,61
359,093	0,61
359,554	0,61
360,015	0,61
360,476	0,62
360,936	0,62
361,397	0,62
361,858	0,62
362,318	0,62
362,779	0,62
363,239	0,62
363,7	0,62
364,16	0,62
364,621	0,62
365,081	0,62
365,541	0,62
366,002	0,62
366,462	0,62
366,922	0,62
367,383	0,62
367,843	0,62
368,303	0,62
368,763	0,62
369,223	0,62
369,684	0,62
370,144	0,62
370,604	0,62
371,064	0,62
371,524	0,62
371,984	0,62
372,444	0,62
372,904	0,62
373,363	0,62
373,823	0,62
374,283	0,62
374,743	0,62
375,203	0,62
375,663	0,61
376,122	0,61
376,582	0,61
377,042	0,61
377,501	0,61
377,961	0,61
378,42	0,61
378,88	0,61
379,34	0,61
379,799	0,61
380,259	0,61
380,718	0,61
381,177	0,61
381,637	0,61
382,096	0,61
382,555	0,61
383,015	0,61
383,474	0,61
383,933	0,61
384,393	0,61
384,852	0,61
385,311	0,61
385,77	0,61
386,229	0,61
386,688	0,61
387,147	0,61
387,606	0,61
388,065	0,61
388,524	0,61
388,983	0,61
389,442	0,61
389,901	0,6
390,36	0,6
390,819	0,6
391,277	0,6
391,736	0,6
392,195	0,6
392,654	0,6
393,112	0,6
393,571	0,6
394,03	0,6
394,488	0,6
394,947	0,6
395,405	0,6
395,864	0,6
396,322	0,6
396,781	0,6
397,239	0,6
397,698	0,6
398,156	0,6
398,614	0,6
399,073	0,6
399,531	0,6
399,989	0,6
400,447	0,6
400,905	0,6
401,364	0,6
401,822	0,6
402,28	0,6
402,738	0,6
403,196	0,6
403,654	0,6
404,112	0,6
404,57	0,6
405,028	0,6
405,486	0,59
405,944	0,59
406,402	0,59
406,859	0,59
407,317	0,59
407,775	0,59
408,233	0,59
408,691	0,59
409,148	0,59
409,606	0,59
410,064	0,59
410,521	0,59
410,979	0,59
411,436	0,59
411,894	0,59
412,351	0,59
412,809	0,59
413,266	0,59
413,724	0,59
414,181	0,59
414,638	0,59
415,096	0,59
415,553	0,59
416,01	0,59
416,467	0,59
416,925	0,59
417,382	0,59
417,839	0,59
418,296	0,59
418,753	0,59
419,21	0,59
419,667	0,59
420,124	0,59
420,581	0,59
421,038	0,59
421,495	0,59
421,952	0,59
422,409	0,59
422,866	0,59
423,322	0,59
423,779	0,59
424,236	0,59
424,693	0,59
425,149	0,59
425,606	0,59
426,063	0,59
426,519	0,59
426,976	0,59
427,433	0,59
427,889	0,59
428,346	0,59
428,802	0,59
429,258	0,59
429,715	0,59
430,171	0,59
430,628	0,59
431,084	0,59
431,54	0,59
431,997	0,59
432,453	0,59
432,909	0,58
433,365	0,58
433,821	0,58
434,277	0,58
434,734	0,58
435,19	0,58
435,646	0,58
436,102	0,58
436,558	0,58
437,014	0,58
437,47	0,58
437,925	0,58
438,381	0,58
438,837	0,58
439,293	0,58
439,749	0,58
440,205	0,58
440,66	0,58
441,116	0,58
441,572	0,58
442,027	0,58
442,483	0,58
442,939	0,58
443,394	0,58
443,85	0,58
444,305	0,58
444,761	0,58
445,216	0,59
445,672	0,59
446,127	0,59
446,582	0,59
447,038	0,59
447,493	0,59
447,948	0,59
448,403	0,59
448,859	0,59
449,314	0,59
449,769	0,59
450,224	0,59
450,679	0,59
451,134	0,59
451,589	0,59
452,044	0,59
452,499	0,59
452,954	0,59
453,409	0,59
453,864	0,59
454,319	0,59
454,774	0,59
455,229	0,59
455,684	0,59
456,138	0,59
456,593	0,59
457,048	0,59
457,503	0,59
457,957	0,59
458,412	0,59
458,866	0,59
459,321	0,59
459,776	0,59
460,23	0,59
460,685	0,59
461,139	0,59
461,593	0,59
462,048	0,59
462,502	0,59
462,957	0,6
463,411	0,6
463,865	0,6
464,319	0,6
464,774	0,6
465,228	0,6
465,682	0,6
466,136	0,6
466,59	0,6
467,044	0,6
467,499	0,6
467,953	0,6
468,407	0,6
468,861	0,6
469,315	0,6
469,768	0,6
470,222	0,6
470,676	0,61
471,13	0,61
471,584	0,61
472,038	0,61
472,491	0,61
472,945	0,61
473,399	0,61
473,852	0,61
474,306	0,61
474,76	0,61
475,213	0,61
475,667	0,61
476,12	0,61
476,574	0,62
477,027	0,62
477,481	0,62
477,934	0,62
478,388	0,62
478,841	0,62
479,294	0,62
479,748	0,62
480,201	0,63
480,654	0,63
481,107	0,63
481,561	0,63
482,014	0,63
482,467	0,63
482,92	0,63
483,373	0,64
483,826	0,64
484,279	0,64
484,732	0,64
485,185	0,64
485,638	0,64
486,091	0,64
486,544	0,65
486,997	0,65
487,449	0,65
487,902	0,65
488,355	0,65
488,808	0,66
489,26	0,66
489,713	0,66
490,166	0,66
490,618	0,67
491,071	0,67
491,523	0,67
491,976	0,67
492,429	0,67
492,881	0,68
493,333	0,68
493,786	0,68
494,238	0,68
494,691	0,69
495,143	0,69
495,595	0,69
496,048	0,69
496,5	0,7
496,952	0,7
497,404	0,7
497,856	0,71
498,309	0,71
498,761	0,71
499,213	0,71
499,665	0,72
500,117	0,72
500,569	0,72
501,021	0,73
501,473	0,73
501,925	0,73
502,377	0,74
502,828	0,74
503,28	0,74
503,732	0,75
504,184	0,75
504,636	0,75
505,087	0,76
505,539	0,76
505,991	0,76
506,442	0,76
506,894	0,77
507,345	0,77
507,797	0,77
508,249	0,78
508,7	0,78
509,151	0,78
509,603	0,79
510,054	0,79
510,506	0,79
510,957	0,8
511,408	0,8
511,86	0,8
512,311	0,81
512,762	0,81
513,213	0,81
513,665	0,81
514,116	0,82
514,567	0,82
515,018	0,82
515,469	0,83
515,92	0,83
516,371	0,83
516,822	0,84
517,273	0,84
517,724	0,84
518,175	0,84
518,626	0,85
519,076	0,85
519,527	0,85
519,978	0,85
520,429	0,85
520,88	0,85
521,33	0,86
521,781	0,86
522,232	0,86
522,682	0,86
523,133	0,86
523,583	0,86
524,034	0,86
524,484	0,86
524,935	0,87
525,385	0,87
525,836	0,87
526,286	0,87
526,736	0,87
527,187	0,87
527,637	0,87
528,087	0,87
528,538	0,87
528,988	0,86
529,438	0,86
529,888	0,86
530,338	0,86
530,788	0,86
531,238	0,86
531,688	0,86
532,139	0,86
532,589	0,86
533,038	0,86
533,488	0,86
533,938	0,85
534,388	0,85
534,838	0,85
535,288	0,85
535,738	0,85
536,187	0,84
536,637	0,84
537,087	0,84
537,537	0,83
537,986	0,83
538,436	0,83
538,885	0,82
539,335	0,82
539,785	0,82
540,234	0,81
540,684	0,81
541,133	0,81
541,582	0,8
542,032	0,8
542,481	0,79
542,931	0,79
543,38	0,79
543,829	0,78
544,278	0,78
544,728	0,78
545,177	0,77
545,626	0,77
546,075	0,77
546,524	0,76
546,973	0,76
547,422	0,76
547,871	0,76
548,32	0,75
548,769	0,75
549,218	0,75
549,667	0,74
550,116	0,74
550,565	0,74
551,014	0,74
551,463	0,73
551,911	0,73
552,36	0,73
552,809	0,72
553,258	0,72
553,706	0,71
554,155	0,71
554,603	0,71
555,052	0,7
555,501	0,7
555,949	0,7
556,398	0,69
556,846	0,69
557,294	0,69
557,743	0,68
558,191	0,68
558,64	0,68
559,088	0,67
559,536	0,67
559,985	0,66
560,433	0,66
560,881	0,66
561,329	0,65
561,777	0,65
562,225	0,65
562,674	0,64
563,122	0,64
563,57	0,64
564,018	0,64
564,466	0,63
564,914	0,63
565,362	0,63
565,809	0,62
566,257	0,62
566,705	0,62
567,153	0,61
567,601	0,61
568,048	0,61
568,496	0,61
568,944	0,6
569,392	0,6
569,839	0,6
570,287	0,6
570,734	0,59
571,182	0,59
571,63	0,59
572,077	0,58
572,525	0,58
572,972	0,58
573,419	0,57
573,867	0,57
574,314	0,57
574,761	0,57
575,209	0,56
575,656	0,56
576,103	0,56
576,551	0,56
576,998	0,56
577,445	0,55
577,892	0,55
578,339	0,55
578,786	0,55
579,233	0,54
579,68	0,54
580,127	0,54
580,574	0,54
581,021	0,53
581,468	0,53
581,915	0,53
582,362	0,53
582,809	0,53
583,255	0,53
583,702	0,52
584,149	0,52
584,596	0,52
585,042	0,52
585,489	0,52
585,936	0,51
586,382	0,51
586,829	0,51
587,275	0,51
587,722	0,51
588,168	0,51
588,615	0,5
589,061	0,5
589,508	0,5
589,954	0,5
590,4	0,5
590,847	0,5
591,293	0,5
591,739	0,49
592,185	0,49
592,632	0,49
593,078	0,49
593,524	0,49
593,97	0,49
594,416	0,49
594,862	0,49
595,308	0,49
595,754	0,48
596,2	0,48
596,646	0,48
597,092	0,48
597,538	0,48
597,984	0,48
598,43	0,48
598,876	0,48
599,321	0,48
599,767	0,48
600,213	0,47
600,659	0,47
601,104	0,47
601,55	0,47
601,995	0,47
602,441	0,47
602,887	0,47
603,332	0,47
603,778	0,46
604,223	0,46
604,668	0,46
605,114	0,46
605,559	0,46
606,005	0,46
606,45	0,46
606,895	0,46
607,341	0,46
607,786	0,46
608,231	0,46
608,676	0,45
609,121	0,45
609,566	0,44
610,012	0,44
610,457	0,44
610,902	0,43
611,347	0,43
611,792	0,43
612,237	0,43
612,682	0,43
613,127	0,43
613,571	0,43
614,016	0,43
614,461	0,43
614,906	0,43
615,351	0,44
615,795	0,44
616,24	0,44
616,685	0,44
617,129	0,44
617,574	0,44
618,019	0,44
618,463	0,44
618,908	0,44
619,352	0,44
619,797	0,44
620,241	0,43
620,686	0,43
621,13	0,43
621,574	0,43
622,019	0,43
622,463	0,43
622,907	0,43
623,352	0,43
623,796	0,43
624,24	0,43
624,684	0,43
625,128	0,43
625,572	0,43
626,016	0,43
626,461	0,43
626,905	0,43
627,349	0,43
627,793	0,43
628,236	0,43
628,68	0,43
629,124	0,42
629,568	0,42
630,012	0,42
630,456	0,42
630,9	0,42
631,343	0,42
631,787	0,42
632,231	0,42
632,674	0,42
633,118	0,42
633,562	0,42
634,005	0,42
634,449	0,42
634,892	0,42
635,336	0,42
635,779	0,42
636,223	0,42
636,666	0,42
637,109	0,42
637,553	0,42
637,996	0,42
638,439	0,42
638,883	0,42
639,326	0,42
639,769	0,42
640,212	0,42
640,655	0,42
641,099	0,41
641,542	0,41
641,985	0,41
642,428	0,41
642,871	0,41
643,314	0,41
643,757	0,41
644,2	0,41
644,643	0,41
645,085	0,41
645,528	0,41
645,971	0,41
646,414	0,41
646,857	0,41
647,299	0,41
647,742	0,41
648,185	0,41
648,627	0,41
649,07	0,41
649,513	0,41
649,955	0,41
650,398	0,41
650,84	0,41
651,283	0,41
651,725	0,41
652,168	0,41
652,61	0,41
653,052	0,41
653,495	0,41
653,937	0,32
654,379	0,27
654,821	0,27
655,264	0,27
655,706	0,27
656,148	0,27
656,59	0,27
657,032	0,27
657,474	0,27
657,916	0,27
658,358	0,26
658,8	0,32
659,242	0,4
659,684	0,41
660,126	0,4
660,568	0,4
661,01	0,4
661,452	0,4
661,894	0,4
662,335	0,4
662,777	0,4
663,219	0,4
663,661	0,4
664,102	0,4
664,544	0,4
664,985	0,4
665,427	0,4
665,869	0,4
666,31	0,4
666,752	0,4
667,193	0,4
667,634	0,4
668,076	0,4
668,517	0,4
668,959	0,4
669,4	0,4
669,841	0,4
670,282	0,4
670,724	0,4
671,165	0,4
671,606	0,4
672,047	0,4
672,488	0,4
672,929	0,4
673,37	0,4
673,811	0,4
674,252	0,4
674,693	0,4
675,134	0,39
675,575	0,39
676,016	0,39
676,457	0,39
676,898	0,39
677,339	0,39
677,78	0,39
678,22	0,39
678,661	0,39
679,102	0,39
679,542	0,39
679,983	0,39
680,424	0,39
680,864	0,39
681,305	0,39
681,745	0,39
682,186	0,39
682,626	0,39
683,067	0,39
683,507	0,39
683,948	0,39
684,388	0,39
684,828	0,39
685,269	0,39
685,709	0,39
686,149	0,39
686,589	0,39
687,029	0,39
687,47	0,38
687,91	0,38
688,35	0,38
688,79	0,38
689,23	0,38
689,67	0,38
690,11	0,38
690,55	0,38
690,99	0,38
691,43	0,38
691,87	0,38
692,31	0,38
692,749	0,38
693,189	0,38
693,629	0,38
694,069	0,38
694,508	0,38
694,948	0,38
695,388	0,38
695,827	0,38
696,267	0,38
696,706	0,38
697,146	0,38
697,586	0,38
698,025	0,38
698,464	0,38
698,904	0,38
699,343	0,38
699,783	0,38
700,222	0,38
700,661	0,39
701,101	0,39
701,54	0,39
701,979	0,39
702,418	0,39
702,857	0,39
703,297	0,39
703,736	0,39
704,175	0,39
704,614	0,39
705,053	0,38
705,492	0,38
705,931	0,38
706,37	0,38
706,809	0,38
707,248	0,38
707,687	0,38
708,125	0,38
708,564	0,38
709,003	0,38
709,442	0,38
709,88	0,38
710,319	0,38
710,758	0,38
711,196	0,37
711,635	0,37
712,074	0,37
712,512	0,37
712,951	0,37
713,389	0,37
713,828	0,37
714,266	0,37
714,705	0,37
715,143	0,37
715,581	0,37
716,02	0,37
716,458	0,37
716,896	0,37
717,334	0,37
717,773	0,37
718,211	0,37
718,649	0,37
719,087	0,37
719,525	0,37
719,963	0,37
720,401	0,37
720,839	0,37
721,277	0,37
721,715	0,37
722,153	0,37
722,591	0,37
723,029	0,37
723,467	0,37
723,905	0,37
724,342	0,37
724,78	0,37
725,218	0,37
725,656	0,37
726,093	0,37
726,531	0,37
726,969	0,37
727,406	0,37
727,844	0,37
728,281	0,37
728,719	0,37
729,156	0,37
729,594	0,37
730,031	0,37
730,469	0,37
730,906	0,37
731,343	0,37
731,781	0,37
732,218	0,37
732,655	0,36
733,092	0,36
733,53	0,36
733,967	0,36
734,404	0,36
734,841	0,36
735,278	0,36
735,715	0,36
736,152	0,36
736,589	0,36
737,026	0,36
737,463	0,36
737,9	0,36
738,337	0,36
738,774	0,36
739,211	0,36
739,647	0,36
740,084	0,36
740,521	0,36
740,958	0,36
741,394	0,36
741,831	0,35
742,268	0,35
742,704	0,35
743,141	0,35
743,577	0,35
744,014	0,35
744,45	0,35
744,887	0,35
745,323	0,35
745,76	0,35
746,196	0,35
746,632	0,35
747,069	0,34
747,505	0,34
747,941	0,34
748,378	0,34
748,814	0,35
749,25	0,35
749,686	0,35
750,122	0,35
750,558	0,35
750,994	0,35
751,43	0,35
751,866	0,36
752,302	0,36
752,738	0,36
753,174	0,36
753,61	0,36
754,046	0,36
754,482	0,36
754,918	0,36
755,354	0,36
755,789	0,36
756,225	0,36
756,661	0,36
757,096	0,35
757,532	0,35
757,968	0,35
758,403	0,35
758,839	0,35
759,274	0,35
759,71	0,34
760,145	0,34
760,581	0,33
761,016	0,33
761,452	0,32
761,887	0,32
762,322	0,32
762,758	0,31
763,193	0,31
763,628	0,3
764,063	0,3
764,499	0,29
764,934	0,29
765,369	0,28
765,804	0,27
766,239	0,27
766,674	0,26
767,109	0,26
767,544	0,25
767,979	0,24
768,414	0,23
768,849	0,22
769,284	0,22
769,719	0,21
770,154	0,2
770,588	0,2
771,023	0,19
771,458	0,18
771,893	0,17
772,327	0,16
772,762	0,15
773,197	0,14
773,631	0,14
774,066	0,13
774,5	0,12
774,935	0,11
775,369	0,1
775,804	0,09
776,238	0,08
776,673	0,07
777,107	0,06
777,541	0,05
777,976	0,03
778,41	0,03
778,844	0,02
779,279	0,02
779,713	0,01
780,147	0
780,581	0
781,015	-0,01
781,449	-0,02
781,883	-0,02
782,317	-0,04
782,751	-0,04
783,185	-0,05
783,619	-0,06
784,053	-0,07
784,487	-0,08
784,921	-0,09
785,355	-0,1
785,789	-0,11
786,223	-0,12
786,656	-0,13
787,09	-0,14
787,524	-0,15
787,957	-0,15
788,391	-0,18
788,825	-0,19
789,258	-0,2
789,692	-0,21
790,125	-0,23
790,559	-0,25
790,992	-0,26
791,426	-0,29
791,859	-0,3
792,293	-0,33
792,726	-0,35
793,159	-0,36
793,593	-0,38
794,026	-0,41
794,459	-0,43
794,892	-0,46
795,326	-0,48
795,759	-0,52
796,192	-0,57
796,625	-0,62
797,058	-0,64
797,491	-0,68
797,924	-0,72
798,357	-0,77
798,79	-0,81
799,223	-0,86
799,656	-0,91
800,089	-0,96
800,522	-1
800,955	-1,05
801,387	-1,1
801,82	-1,16
802,253	-1,22
802,686	-1,3
803,118	-1,35
803,551	-1,41
803,984	-1,45
804,416	-1,49
804,849	-1,52
805,281	-1,64
805,714	-2,01
806,146	-2,46
806,579	-2,72
807,011	-2,88
807,444	-2,97
807,876	-3,05
808,308	-3,09
808,741	-3,12
809,173	-3,17
809,605	-3,19
810,037	-3,27
810,47	-3,18
810,902	-2,98
811,334	-2,83
811,766	-2,68
812,198	-2,43
812,63	-2,01
813,062	-1,8
813,494	-1,7
813,926	-1,61
814,358	-1,56
814,79	-1,48
815,222	-1,42
815,654	-1,37
816,086	-1,3
816,518	-1,25
816,949	-1,19
817,381	-1,15
817,813	-1,13
818,245	-1,09
818,676	-1,05
819,108	-1,01
819,54	-1
819,971	-0,97
820,403	-0,92
820,834	-0,91
821,266	-0,87
821,697	-0,85
822,129	-0,84
822,56	-0,81
822,991	-0,79
823,423	-0,77
823,854	-0,76
824,286	-0,73
824,717	-0,73
825,148	-0,71
825,579	-0,7
826,01	-0,68
826,442	-0,67
826,873	-0,64
827,304	-0,61
827,735	-0,6
828,166	-0,6
828,597	-0,6
829,028	-0,6
829,459	-0,6
829,89	-0,6
830,321	-0,56
830,752	-0,57
831,183	-0,56
831,613	-0,56
832,044	-0,56
832,475	-0,55
832,906	-0,57
833,336	-0,57
833,767	-0,57
834,198	-0,56
834,628	-0,53
835,059	-0,56
835,49	-0,57
835,92	-0,54
836,351	-0,54
836,781	-0,54
837,212	-0,55
837,642	-0,54
838,072	-0,53
838,503	-0,55
838,933	-0,52
839,364	-0,54
839,794	-0,53
840,224	-0,51
840,654	-0,55
841,085	-0,56
841,515	-0,54
841,945	-0,54
842,375	-0,5
842,805	-0,48
843,235	-0,47
843,665	-0,48
844,095	-0,46
844,525	-0,47
844,955	-0,47
845,385	-0,45
845,815	-0,43
846,245	-0,45
846,675	-0,46
847,105	-0,48
847,534	-0,48
847,964	-0,46
848,394	-0,45
848,824	-0,48
849,253	-0,47
849,683	-0,48
850,112	-0,49
850,542	-0,52
850,972	-0,52
851,401	-0,5
851,831	-0,47
852,26	-0,48
852,69	-0,52
853,119	-0,51
853,548	-0,52
853,978	-0,52
854,407	-0,51
854,836	-0,51
855,266	-0,49
855,695	-0,5
856,124	-0,51
856,553	-0,53
856,983	-0,55
857,412	-0,53
857,841	-0,54
858,27	-0,55
858,699	-0,55
859,128	-0,58
859,557	-0,59
859,986	-0,61
860,415	-0,59
860,844	-0,56
861,273	-0,56
861,702	-0,58
862,13	-0,56
862,559	-0,58
862,988	-0,55
863,417	-0,54
863,845	-0,53
864,274	-0,53
864,703	-0,52
865,131	-0,53
865,56	-0,53
865,989	-0,55
866,417	-0,53
866,846	-0,53
867,274	-0,52
867,703	-0,54
868,131	-0,55
868,559	-0,57
868,988	-0,59
869,416	-0,58
869,844	-0,6
870,273	-0,63
870,701	-0,61
871,129	-0,64
871,557	-0,67
871,986	-0,67
872,414	-0,68
872,842	-0,66
873,27	-0,64
873,698	-0,61
874,126	-0,64
874,554	-0,63
874,982	-0,63
875,41	-0,66
875,838	-0,61
876,266	-0,6
876,694	-0,59
877,122	-0,58
877,549	-0,63
877,977	-0,6
878,405	-0,62
878,833	-0,59
879,26	-0,57
879,688	-0,57
880,116	-0,54
880,543	-0,52
880,971	-0,51
881,399	-0,54
881,826	-0,55
882,254	-0,53
882,681	-0,57
883,109	-0,54
883,536	-0,55
883,963	-0,56
884,391	-0,55
884,818	-0,53
885,245	-0,57
885,673	-0,58
886,1	-0,56
886,527	-0,55
886,954	-0,51
887,381	-0,53
887,809	-0,54
888,236	-0,56
888,663	-0,57
889,09	-0,61
889,517	-0,63
889,944	-0,62
890,371	-0,6
890,798	-0,61
891,225	-0,61
891,652	-0,64
892,078	-0,61
892,505	-0,65
892,932	-0,59
893,359	-0,6
893,786	-0,6
894,212	-0,57
894,639	-0,58
895,066	-0,61
895,492	-0,55
895,919	-0,55
896,346	-0,55
896,772	-0,56
897,199	-0,52
897,625	-0,56
898,052	-0,52
898,478	-0,51
898,904	-0,52
899,331	-0,52
899,757	-0,53
900,183	-0,55
900,61	-0,54
901,036	-0,54
901,462	-0,53
901,888	-0,52
902,315	-0,52
902,741	-0,57
903,167	-0,55
903,593	-0,58
904,019	-0,56
904,445	-0,54
904,871	-0,56
905,297	-0,58
905,723	-0,58
906,149	-0,57
906,575	-0,58
907,001	-0,57
907,427	-0,54
907,852	-0,54
908,278	-0,55
908,704	-0,53
909,13	-0,52
909,555	-0,53
909,981	-0,52
910,407	-0,52
910,832	-0,52
911,258	-0,52
911,684	-0,52
912,109	-0,52
912,535	-0,55
912,96	-0,49
913,386	-0,53
913,811	-0,53
914,236	-0,54
914,662	-0,53
915,087	-0,56
915,512	-0,56
915,938	-0,58
916,363	-0,57
916,788	-0,59
917,213	-0,57
917,639	-0,63
918,064	-0,59
918,489	-0,59
918,914	-0,6
919,339	-0,6
919,764	-0,57
920,189	-0,57
920,614	-0,59
921,039	-0,59
921,464	-0,54
921,889	-0,58
922,314	-0,59
922,738	-0,63
923,163	-0,64
923,588	-0,64
924,013	-0,64
924,437	-0,63
924,862	-0,65
925,287	-0,61
925,711	-0,62
926,136	-0,63
926,561	-0,61
926,985	-0,6
927,41	-0,56
927,834	-0,54
928,259	-0,51
928,683	-0,5
929,108	-0,47
929,532	-0,47
929,956	-0,46
930,381	-0,46
930,805	-0,46
931,229	-0,45
931,653	-0,44
932,078	-0,44
932,502	-0,45
932,926	-0,46
933,35	-0,46
933,774	-0,46
934,198	-0,44
934,622	-0,43
935,046	-0,43
935,47	-0,43
935,894	-0,44
936,318	-0,42
936,742	-0,42
937,166	-0,43
937,59	-0,42
938,014	-0,45
938,437	-0,45
938,861	-0,47
939,285	-0,48
939,709	-0,48
940,132	-0,48
940,556	-0,49
940,98	-0,49
941,403	-0,48
941,827	-0,48
942,25	-0,5
942,674	-0,48
943,097	-0,47
943,521	-0,47
943,944	-0,48
944,368	-0,47
944,791	-0,45
945,214	-0,48
945,638	-0,48
946,061	-0,51
946,484	-0,52
946,907	-0,5
947,331	-0,49
947,754	-0,54
948,177	-0,52
948,6	-0,51
949,023	-0,51
949,446	-0,51
949,869	-0,48
950,292	-0,48
950,715	-0,44
951,138	-0,43
951,561	-0,4
951,984	-0,41
952,407	-0,39
952,83	-0,37
953,252	-0,34
953,675	-0,33
954,098	-0,35
954,521	-0,33
954,943	-0,32
955,366	-0,33
955,789	-0,31
956,211	-0,34
956,634	-0,34
957,056	-0,32
957,479	-0,33
957,902	-0,37
958,324	-0,37
958,746	-0,35
959,169	-0,35
959,591	-0,36
960,014	-0,38
960,436	-0,37
960,858	-0,37
961,281	-0,38
961,703	-0,39
962,125	-0,38
962,547	-0,35
962,969	-0,36
963,391	-0,37
963,814	-0,39
964,236	-0,37
964,658	-0,34
965,08	-0,35
965,502	-0,33
965,924	-0,31
966,346	-0,31
966,768	-0,3
967,189	-0,32
967,611	-0,31
968,033	-0,31
968,455	-0,29
968,877	-0,3
969,298	-0,31
969,72	-0,32
970,142	-0,31
970,563	-0,31
970,985	-0,3
971,407	-0,3
971,828	-0,28
972,25	-0,27
972,671	-0,26
973,093	-0,26
973,514	-0,25
973,936	-0,23
974,357	-0,21
974,778	-0,22
975,2	-0,22
975,621	-0,21
976,042	-0,19
976,464	-0,19
976,885	-0,17
977,306	-0,16
977,727	-0,16
978,148	-0,15
978,57	-0,13
978,991	-0,12
979,412	-0,11
979,833	-0,1
980,254	-0,1
980,675	-0,1
981,096	-0,09
981,517	-0,07
981,937	-0,07
982,358	-0,05
982,779	-0,04
983,2	-0,04
983,621	-0,04
984,042	-0,03
984,462	-0,02
984,883	-0
985,304	0,01
985,724	0,02
986,145	0,03
986,565	0,04
986,986	0,05
987,407	0,06
987,827	0,07
988,248	0,09
988,668	0,1
989,088	0,11
989,509	0,12
989,929	0,13
990,35	0,13
990,77	0,15
991,19	0,15
991,61	0,17
992,031	0,17
992,451	0,19
992,871	0,2
993,291	0,2
993,711	0,22
994,131	0,22
994,551	0,23
994,971	0,24
995,391	0,24
995,811	0,24
996,231	0,25
996,651	0,25
997,071	0,26
997,491	0,26
997,911	0,27
998,331	0,28
998,75	0,28
999,17	0,28
999,59	0,29
1000,009	0,29
1000,429	0,3
1000,849	0,3
1001,268	0,31
1001,688	0,31
1002,107	0,31
1002,527	0,31
1002,946	0,31
1003,366	0,32
1003,785	0,32
1004,205	0,32
1004,624	0,33
1005,044	0,33
1005,463	0,33
1005,882	0,33
1006,301	0,33
1006,721	0,33
1007,14	0,33
1007,559	0,33
1007,978	0,33
1008,397	0,33
1008,816	0,33
1009,235	0,33
1009,655	0,33
1010,074	0,33
1010,492	0,33
1010,911	0,33
1011,33	0,33
1011,749	0,33
1012,168	0,33
1012,587	0,33
1013,006	0,33
1013,425	0,33
1013,843	0,33
1014,262	0,32
1014,681	0,32
1015,099	0,32
1015,518	0,32
1015,937	0,32
1016,355	0,32
1016,774	0,32
1017,192	0,32
1017,611	0,32
1018,029	0,32
1018,448	0,32
1018,866	0,32
1019,285	0,32
1019,703	0,32
1020,121	0,32
1020,54	0,32
1020,958	0,32
1021,376	0,32
1021,794	0,32
1022,213	0,32
1022,631	0,32
1023,049	0,32
1023,467	0,32
1023,885	0,32
1024,303	0,32
1024,721	0,32
1025,139	0,32
1025,557	0,32
1025,975	0,32
1026,393	0,31
1026,811	0,31
1027,229	0,31
1027,647	0,31
1028,065	0,31
1028,482	0,31
1028,9	0,31
1029,318	0,31
1029,735	0,31
1030,153	0,31
1030,571	0,31
1030,988	0,31
1031,406	0,31
1031,823	0,31
1032,241	0,31
1032,659	0,31
1033,076	0,31
1033,493	0,31
1033,911	0,31
1034,328	0,31
1034,746	0,31
1035,163	0,31
1035,58	0,31
1035,997	0,31
1036,415	0,32
1036,832	0,32
1037,249	0,32
1037,666	0,32
1038,083	0,31
1038,501	0,31
1038,918	0,31
1039,335	0,31
1039,752	0,31
1040,169	0,31
1040,586	0,31
1041,003	0,31
1041,419	0,31
1041,836	0,31
1042,253	0,31
1042,67	0,31
1043,087	0,31
1043,504	0,31
1043,92	0,31
1044,337	0,31
1044,754	0,31
1045,17	0,31
1045,587	0,31
1046,004	0,31
1046,42	0,31
1046,837	0,31
1047,253	0,31
1047,67	0,31
1048,086	0,31
1048,503	0,31
1048,919	0,31
1049,335	0,31
1049,752	0,31
1050,168	0,31
1050,584	0,31
1051,001	0,31
1051,417	0,31
1051,833	0,31
1052,249	0,31
1052,665	0,31
1053,081	0,31
1053,497	0,31
1053,914	0,31
1054,33	0,31
1054,746	0,31
1055,162	0,32
1055,578	0,32
1055,993	0,32
1056,409	0,32
1056,825	0,32
1057,241	0,32
1057,657	0,32
1058,073	0,32
1058,488	0,32
1058,904	0,32
1059,32	0,32
1059,736	0,32
1060,151	0,32
1060,567	0,32
1060,982	0,32
1061,398	0,32
1061,813	0,32
1062,229	0,32
1062,644	0,32
1063,06	0,32
1063,475	0,31
1063,891	0,31
1064,306	0,31
1064,721	0,31
1065,137	0,31
1065,552	0,31
1065,967	0,31
1066,382	0,31
1066,798	0,31
1067,213	0,31
1067,628	0,31
1068,043	0,31
1068,458	0,31
1068,873	0,32
1069,288	0,32
1069,703	0,32
1070,118	0,32
1070,533	0,32
1070,948	0,32
1071,363	0,32
1071,778	0,32
1072,193	0,32
1072,607	0,32
1073,022	0,32
1073,437	0,32
1073,852	0,32
1074,266	0,32
1074,681	0,32
1075,096	0,32
1075,51	0,31
1075,925	0,32
1076,339	0,32
1076,754	0,32
1077,168	0,31
1077,583	0,31
1077,997	0,31
1078,412	0,31
1078,826	0,31
1079,24	0,31
1079,655	0,31
1080,069	0,31
1080,483	0,31
1080,897	0,31
1081,312	0,31
1081,726	0,31
1082,14	0,31
1082,554	0,31
1082,968	0,31
1083,382	0,31
1083,796	0,31
1084,21	0,31
1084,624	0,3
1085,038	0,3
1085,452	0,3
1085,866	0,3
1086,28	0,3
1086,694	0,3
1087,108	0,3
1087,521	0,29
1087,935	0,29
1088,349	0,29
1088,763	0,29
1089,176	0,29
1089,59	0,29
1090,004	0,28
1090,417	0,28
1090,831	0,28
1091,244	0,28
1091,658	0,27
1092,071	0,27
1092,485	0,27
1092,898	0,26
1093,312	0,26
1093,725	0,26
1094,138	0,26
1094,552	0,26
1094,965	0,26
1095,378	0,26
1095,791	0,25
1096,205	0,25
1096,618	0,25
1097,031	0,24
1097,444	0,24
1097,857	0,24
1098,27	0,24
1098,683	0,24
1099,096	0,23
1099,509	0,23
1099,922	0,22
1100,335	0,22
1100,748	0,21
1101,161	0,21
1101,574	0,21
1101,986	0,21
1102,399	0,21
1102,812	0,21
1103,225	0,2
1103,637	0,2
1104,05	0,19
1104,463	0,19
1104,875	0,19
1105,288	0,19
1105,7	0,18
1106,113	0,18
1106,525	0,18
1106,938	0,18
1107,35	0,17
1107,763	0,17
1108,175	0,17
1108,588	0,17
1109	0,17
1109,412	0,16
1109,824	0,17
1110,237	0,17
1110,649	0,17
1111,061	0,15
