Data from 18C-808nm-8A-cont_Absorbance__437__01866.txt Node

Date: Mon Jul 17 17:34:48 CEST 2023
User: Laser008
Spectrometer: MAYP115816
Trigger mode: 0
Integration Time (sec): 2,500000E-1
Scans to average: 10
Electric dark correction enabled: true
Nonlinearity correction enabled: true
Boxcar width: 5
XAxis mode: Wavelengths
Number of Pixels in Spectrum: 2068
>>>>>Begin Spectral Data<<<<<
198,914	-0,72
199,384	-0,51
199,855	-0,37
200,325	-0,28
200,796	-0,24
201,266	-0,19
201,737	-0,18
202,207	-0,16
202,677	-0,15
203,147	-0,14
203,618	-0,11
204,088	-0,09
204,558	-0,07
205,028	-0,07
205,498	-0,08
205,968	-0,08
206,439	-0,1
206,909	-0,09
207,379	-0,1
207,849	-0,1
208,319	-0,11
208,789	-0,11
209,258	-0,11
209,728	-0,13
210,198	-0,12
210,668	-0,13
211,138	-0,12
211,608	-0,12
212,077	-0,12
212,547	-0,12
213,017	-0,12
213,486	-0,12
213,956	-0,12
214,426	-0,13
214,895	-0,13
215,365	-0,14
215,834	-0,14
216,304	-0,15
216,773	-0,15
217,243	-0,17
217,712	-0,18
218,181	-0,18
218,651	-0,18
219,12	-0,18
219,589	-0,18
220,058	-0,17
220,528	-0,17
220,997	-0,17
221,466	-0,19
221,935	-0,19
222,404	-0,18
222,873	-0,17
223,342	-0,17
223,812	-0,19
224,281	-0,18
224,749	-0,19
225,218	-0,21
225,687	-0,22
226,156	-0,2
226,625	-0,19
227,094	-0,19
227,563	-0,19
228,031	-0,21
228,5	-0,2
228,969	-0,2
229,438	-0,19
229,906	-0,17
230,375	-0,16
230,844	-0,16
231,312	-0,16
231,781	-0,17
232,249	-0,15
232,718	-0,15
233,186	-0,13
233,655	-0,13
234,123	-0,12
234,591	-0,13
235,06	-0,13
235,528	-0,14
235,996	-0,13
236,465	-0,13
236,933	-0,12
237,401	-0,13
237,869	-0,12
238,337	-0,13
238,805	-0,12
239,274	-0,11
239,742	-0,11
240,21	-0,11
240,678	-0,1
241,146	-0,1
241,614	-0,09
242,081	-0,09
242,549	-0,08
243,017	-0,09
243,485	-0,09
243,953	-0,09
244,421	-0,09
244,888	-0,09
245,356	-0,08
245,824	-0,09
246,291	-0,09
246,759	-0,1
247,227	-0,1
247,694	-0,09
248,162	-0,08
248,629	-0,08
249,097	-0,09
249,564	-0,1
250,032	-0,1
250,499	-0,11
250,967	-0,11
251,434	-0,12
251,901	-0,12
252,369	-0,12
252,836	-0,14
253,303	-0,16
253,77	-0,17
254,237	-0,16
254,705	-0,16
255,172	-0,15
255,639	-0,16
256,106	-0,17
256,573	-0,17
257,04	-0,17
257,507	-0,17
257,974	-0,17
258,441	-0,15
258,908	-0,15
259,375	-0,16
259,841	-0,16
260,308	-0,17
260,775	-0,17
261,242	-0,16
261,709	-0,16
262,175	-0,18
262,642	-0,17
263,109	-0,17
263,575	-0,19
264,042	-0,17
264,508	-0,17
264,975	-0,2
265,441	-0,21
265,908	-0,21
266,374	-0,2
266,841	-0,2
267,307	-0,2
267,773	-0,19
268,24	-0,2
268,706	-0,19
269,172	-0,21
269,639	-0,21
270,105	-0,18
270,571	-0,19
271,037	-0,2
271,503	-0,21
271,969	-0,21
272,435	-0,21
272,902	-0,22
273,368	-0,24
273,834	-0,23
274,3	-0,23
274,765	-0,23
275,231	-0,23
275,697	-0,22
276,163	-0,21
276,629	-0,21
277,095	-0,22
277,56	-0,22
278,026	-0,21
278,492	-0,19
278,958	-0,2
279,423	-0,2
279,889	-0,2
280,354	-0,21
280,82	-0,21
281,286	-0,23
281,751	-0,23
282,217	-0,21
282,682	-0,21
283,147	-0,23
283,613	-0,23
284,078	-0,23
284,544	-0,24
285,009	-0,25
285,474	-0,25
285,939	-0,26
286,405	-0,25
286,87	-0,24
287,335	-0,24
287,8	-0,23
288,265	-0,21
288,73	-0,22
289,195	-0,24
289,66	-0,23
290,125	-0,21
290,59	-0,22
291,055	-0,2
291,52	-0,2
291,985	-0,21
292,45	-0,22
292,915	-0,22
293,38	-0,23
293,844	-0,21
294,309	-0,19
294,774	-0,19
295,239	-0,2
295,703	-0,2
296,168	-0,19
296,632	-0,19
297,097	-0,17
297,562	-0,17
298,026	-0,17
298,491	-0,17
298,955	-0,16
299,419	-0,15
299,884	-0,16
300,348	-0,15
300,813	-0,14
301,277	-0,16
301,741	-0,15
302,205	-0,15
302,67	-0,15
303,134	-0,15
303,598	-0,14
304,062	-0,13
304,526	-0,14
304,99	-0,15
305,454	-0,14
305,919	-0,14
306,383	-0,13
306,847	-0,13
307,31	-0,14
307,774	-0,15
308,238	-0,14
308,702	-0,15
309,166	-0,16
309,63	-0,16
310,094	-0,13
310,557	-0,13
311,021	-0,12
311,485	-0,12
311,948	-0,12
312,412	-0,11
312,876	-0,1
313,339	-0,11
313,803	-0,11
314,266	-0,1
314,73	-0,11
315,193	-0,11
315,657	-0,1
316,12	-0,11
316,584	-0,09
317,047	-0,08
317,51	-0,08
317,973	-0,07
318,437	-0,06
318,9	-0,06
319,363	-0,05
319,826	-0,04
320,29	-0,05
320,753	-0,05
321,216	-0,05
321,679	-0,06
322,142	-0,05
322,605	-0,07
323,068	-0,06
323,531	-0,06
323,994	-0,05
324,457	-0,06
324,92	-0,05
325,382	-0,05
325,845	-0,04
326,308	-0,03
326,771	-0,02
327,233	-0,02
327,696	-0,01
328,159	-0
328,622	0,01
329,084	0
329,547	0,01
330,009	0,02
330,472	0,03
330,934	0,04
331,397	0,03
331,859	0,04
332,322	0,04
332,784	0,04
333,246	0,05
333,709	0,05
334,171	0,05
334,633	0,05
335,096	0,05
335,558	0,05
336,02	0,05
336,482	0,06
336,944	0,06
337,406	0,07
337,868	0,08
338,331	0,08
338,793	0,09
339,255	0,1
339,717	0,11
340,178	0,13
340,64	0,14
341,102	0,14
341,564	0,15
342,026	0,16
342,488	0,18
342,949	0,19
343,411	0,22
343,873	0,25
344,335	0,27
344,796	0,31
345,258	0,35
345,719	0,4
346,181	0,44
346,643	0,49
347,104	0,53
347,566	0,56
348,027	0,59
348,488	0,61
348,95	0,64
349,411	0,66
349,873	0,69
350,334	0,72
350,795	0,73
351,256	0,75
351,718	0,76
352,179	0,76
352,64	0,76
353,101	0,77
353,562	0,77
354,023	0,78
354,484	0,78
354,945	0,78
355,406	0,79
355,867	0,79
356,328	0,79
356,789	0,79
357,25	0,79
357,711	0,8
358,172	0,8
358,633	0,8
359,093	0,8
359,554	0,8
360,015	0,8
360,476	0,81
360,936	0,81
361,397	0,81
361,858	0,81
362,318	0,81
362,779	0,81
363,239	0,81
363,7	0,81
364,16	0,81
364,621	0,82
365,081	0,82
365,541	0,82
366,002	0,82
366,462	0,82
366,922	0,81
367,383	0,81
367,843	0,82
368,303	0,82
368,763	0,82
369,223	0,82
369,684	0,82
370,144	0,82
370,604	0,82
371,064	0,82
371,524	0,82
371,984	0,82
372,444	0,82
372,904	0,82
373,363	0,81
373,823	0,81
374,283	0,81
374,743	0,81
375,203	0,81
375,663	0,81
376,122	0,81
376,582	0,81
377,042	0,81
377,501	0,81
377,961	0,81
378,42	0,81
378,88	0,81
379,34	0,81
379,799	0,81
380,259	0,81
380,718	0,81
381,177	0,81
381,637	0,81
382,096	0,81
382,555	0,81
383,015	0,81
383,474	0,81
383,933	0,81
384,393	0,81
384,852	0,81
385,311	0,81
385,77	0,81
386,229	0,8
386,688	0,8
387,147	0,8
387,606	0,8
388,065	0,8
388,524	0,8
388,983	0,8
389,442	0,8
389,901	0,8
390,36	0,8
390,819	0,8
391,277	0,8
391,736	0,8
392,195	0,8
392,654	0,8
393,112	0,8
393,571	0,8
394,03	0,8
394,488	0,8
394,947	0,8
395,405	0,8
395,864	0,8
396,322	0,8
396,781	0,8
397,239	0,8
397,698	0,8
398,156	0,8
398,614	0,79
399,073	0,79
399,531	0,79
399,989	0,79
400,447	0,79
400,905	0,79
401,364	0,79
401,822	0,79
402,28	0,79
402,738	0,79
403,196	0,79
403,654	0,79
404,112	0,79
404,57	0,79
405,028	0,79
405,486	0,79
405,944	0,79
406,402	0,79
406,859	0,79
407,317	0,79
407,775	0,79
408,233	0,79
408,691	0,79
409,148	0,79
409,606	0,79
410,064	0,79
410,521	0,79
410,979	0,79
411,436	0,79
411,894	0,79
412,351	0,79
412,809	0,79
413,266	0,79
413,724	0,79
414,181	0,79
414,638	0,79
415,096	0,78
415,553	0,78
416,01	0,78
416,467	0,78
416,925	0,78
417,382	0,78
417,839	0,78
418,296	0,78
418,753	0,78
419,21	0,78
419,667	0,78
420,124	0,78
420,581	0,78
421,038	0,78
421,495	0,78
421,952	0,78
422,409	0,78
422,866	0,78
423,322	0,78
423,779	0,78
424,236	0,78
424,693	0,78
425,149	0,78
425,606	0,78
426,063	0,78
426,519	0,78
426,976	0,78
427,433	0,78
427,889	0,78
428,346	0,78
428,802	0,78
429,258	0,78
429,715	0,78
430,171	0,78
430,628	0,78
431,084	0,78
431,54	0,78
431,997	0,78
432,453	0,78
432,909	0,78
433,365	0,78
433,821	0,78
434,277	0,78
434,734	0,78
435,19	0,78
435,646	0,78
436,102	0,78
436,558	0,78
437,014	0,78
437,47	0,78
437,925	0,78
438,381	0,78
438,837	0,78
439,293	0,78
439,749	0,78
440,205	0,78
440,66	0,78
441,116	0,78
441,572	0,78
442,027	0,78
442,483	0,78
442,939	0,78
443,394	0,78
443,85	0,78
444,305	0,78
444,761	0,78
445,216	0,78
445,672	0,78
446,127	0,78
446,582	0,78
447,038	0,78
447,493	0,78
447,948	0,78
448,403	0,78
448,859	0,78
449,314	0,79
449,769	0,79
450,224	0,79
450,679	0,79
451,134	0,79
451,589	0,79
452,044	0,79
452,499	0,79
452,954	0,79
453,409	0,79
453,864	0,79
454,319	0,79
454,774	0,79
455,229	0,79
455,684	0,79
456,138	0,79
456,593	0,79
457,048	0,79
457,503	0,79
457,957	0,79
458,412	0,79
458,866	0,79
459,321	0,79
459,776	0,79
460,23	0,79
460,685	0,79
461,139	0,79
461,593	0,79
462,048	0,8
462,502	0,8
462,957	0,8
463,411	0,8
463,865	0,8
464,319	0,8
464,774	0,8
465,228	0,8
465,682	0,8
466,136	0,8
466,59	0,8
467,044	0,8
467,499	0,81
467,953	0,81
468,407	0,81
468,861	0,81
469,315	0,81
469,768	0,81
470,222	0,81
470,676	0,81
471,13	0,81
471,584	0,81
472,038	0,81
472,491	0,82
472,945	0,82
473,399	0,82
473,852	0,82
474,306	0,82
474,76	0,82
475,213	0,82
475,667	0,82
476,12	0,83
476,574	0,83
477,027	0,83
477,481	0,83
477,934	0,83
478,388	0,83
478,841	0,84
479,294	0,84
479,748	0,84
480,201	0,84
480,654	0,84
481,107	0,84
481,561	0,85
482,014	0,85
482,467	0,85
482,92	0,85
483,373	0,85
483,826	0,86
484,279	0,86
484,732	0,86
485,185	0,86
485,638	0,86
486,091	0,87
486,544	0,87
486,997	0,87
487,449	0,87
487,902	0,88
488,355	0,88
488,808	0,88
489,26	0,88
489,713	0,89
490,166	0,89
490,618	0,89
491,071	0,9
491,523	0,9
491,976	0,9
492,429	0,9
492,881	0,91
493,333	0,91
493,786	0,91
494,238	0,92
494,691	0,92
495,143	0,93
495,595	0,93
496,048	0,93
496,5	0,94
496,952	0,94
497,404	0,94
497,856	0,95
498,309	0,95
498,761	0,96
499,213	0,96
499,665	0,96
500,117	0,97
500,569	0,97
501,021	0,98
501,473	0,98
501,925	0,99
502,377	0,99
502,828	0,99
503,28	1
503,732	1
504,184	1,01
504,636	1,01
505,087	1,01
505,539	1,02
505,991	1,02
506,442	1,03
506,894	1,03
507,345	1,03
507,797	1,04
508,249	1,04
508,7	1,05
509,151	1,05
509,603	1,06
510,054	1,06
510,506	1,07
510,957	1,07
511,408	1,07
511,86	1,08
512,311	1,08
512,762	1,08
513,213	1,09
513,665	1,09
514,116	1,09
514,567	1,1
515,018	1,1
515,469	1,1
515,92	1,11
516,371	1,11
516,822	1,11
517,273	1,12
517,724	1,12
518,175	1,12
518,626	1,13
519,076	1,13
519,527	1,13
519,978	1,13
520,429	1,14
520,88	1,14
521,33	1,14
521,781	1,14
522,232	1,14
522,682	1,15
523,133	1,15
523,583	1,15
524,034	1,15
524,484	1,15
524,935	1,15
525,385	1,15
525,836	1,15
526,286	1,15
526,736	1,15
527,187	1,15
527,637	1,15
528,087	1,15
528,538	1,15
528,988	1,15
529,438	1,15
529,888	1,15
530,338	1,15
530,788	1,15
531,238	1,15
531,688	1,14
532,139	1,14
532,589	1,14
533,038	1,14
533,488	1,14
533,938	1,13
534,388	1,13
534,838	1,13
535,288	1,13
535,738	1,12
536,187	1,12
536,637	1,11
537,087	1,11
537,537	1,11
537,986	1,1
538,436	1,1
538,885	1,09
539,335	1,09
539,785	1,08
540,234	1,08
540,684	1,07
541,133	1,07
541,582	1,06
542,032	1,06
542,481	1,05
542,931	1,05
543,38	1,04
543,829	1,03
544,278	1,03
544,728	1,02
545,177	1,02
545,626	1,02
546,075	1,01
546,524	1,01
546,973	1
547,422	1
547,871	0,99
548,32	0,99
548,769	0,99
549,218	0,98
549,667	0,98
550,116	0,97
550,565	0,97
551,014	0,96
551,463	0,96
551,911	0,95
552,36	0,95
552,809	0,94
553,258	0,94
553,706	0,93
554,155	0,93
554,603	0,92
555,052	0,92
555,501	0,91
555,949	0,91
556,398	0,9
556,846	0,9
557,294	0,89
557,743	0,89
558,191	0,88
558,64	0,88
559,088	0,87
559,536	0,87
559,985	0,86
560,433	0,86
560,881	0,85
561,329	0,85
561,777	0,84
562,225	0,84
562,674	0,83
563,122	0,83
563,57	0,83
564,018	0,82
564,466	0,82
564,914	0,81
565,362	0,81
565,809	0,8
566,257	0,8
566,705	0,79
567,153	0,79
567,601	0,78
568,048	0,78
568,496	0,77
568,944	0,77
569,392	0,77
569,839	0,76
570,287	0,76
570,734	0,76
571,182	0,75
571,63	0,75
572,077	0,74
572,525	0,74
572,972	0,74
573,419	0,73
573,867	0,73
574,314	0,73
574,761	0,72
575,209	0,72
575,656	0,71
576,103	0,71
576,551	0,71
576,998	0,7
577,445	0,7
577,892	0,7
578,339	0,69
578,786	0,69
579,233	0,69
579,68	0,68
580,127	0,68
580,574	0,68
581,021	0,67
581,468	0,67
581,915	0,67
582,362	0,66
582,809	0,66
583,255	0,66
583,702	0,66
584,149	0,66
584,596	0,65
585,042	0,65
585,489	0,65
585,936	0,64
586,382	0,64
586,829	0,64
587,275	0,64
587,722	0,63
588,168	0,63
588,615	0,63
589,061	0,63
589,508	0,62
589,954	0,62
590,4	0,62
590,847	0,62
591,293	0,61
591,739	0,61
592,185	0,61
592,632	0,61
593,078	0,61
593,524	0,61
593,97	0,61
594,416	0,6
594,862	0,6
595,308	0,6
595,754	0,6
596,2	0,6
596,646	0,6
597,092	0,59
597,538	0,59
597,984	0,59
598,43	0,59
598,876	0,59
599,321	0,59
599,767	0,58
600,213	0,58
600,659	0,58
601,104	0,58
601,55	0,58
601,995	0,58
602,441	0,57
602,887	0,57
603,332	0,57
603,778	0,57
604,223	0,57
604,668	0,57
605,114	0,57
605,559	0,57
606,005	0,57
606,45	0,56
606,895	0,56
607,341	0,56
607,786	0,56
608,231	0,56
608,676	0,55
609,121	0,55
609,566	0,54
610,012	0,54
610,457	0,53
610,902	0,53
611,347	0,53
611,792	0,52
612,237	0,52
612,682	0,52
613,127	0,52
613,571	0,52
614,016	0,52
614,461	0,53
614,906	0,53
615,351	0,53
615,795	0,53
616,24	0,53
616,685	0,53
617,129	0,53
617,574	0,53
618,019	0,53
618,463	0,53
618,908	0,53
619,352	0,53
619,797	0,53
620,241	0,53
620,686	0,53
621,13	0,53
621,574	0,52
622,019	0,52
622,463	0,52
622,907	0,52
623,352	0,52
623,796	0,52
624,24	0,52
624,684	0,52
625,128	0,52
625,572	0,52
626,016	0,52
626,461	0,52
626,905	0,52
627,349	0,52
627,793	0,52
628,236	0,52
628,68	0,51
629,124	0,51
629,568	0,51
630,012	0,51
630,456	0,51
630,9	0,51
631,343	0,51
631,787	0,51
632,231	0,51
632,674	0,51
633,118	0,51
633,562	0,51
634,005	0,51
634,449	0,51
634,892	0,51
635,336	0,51
635,779	0,51
636,223	0,51
636,666	0,51
637,109	0,51
637,553	0,51
637,996	0,51
638,439	0,51
638,883	0,5
639,326	0,5
639,769	0,5
640,212	0,5
640,655	0,5
641,099	0,5
641,542	0,5
641,985	0,5
642,428	0,5
642,871	0,5
643,314	0,5
643,757	0,49
644,2	0,49
644,643	0,49
645,085	0,49
645,528	0,49
645,971	0,49
646,414	0,49
646,857	0,49
647,299	0,49
647,742	0,49
648,185	0,49
648,627	0,49
649,07	0,49
649,513	0,49
649,955	0,49
650,398	0,49
650,84	0,49
651,283	0,49
651,725	0,49
652,168	0,49
652,61	0,49
653,052	0,49
653,495	0,49
653,937	0,4
654,379	0,34
654,821	0,35
655,264	0,35
655,706	0,35
656,148	0,35
656,59	0,35
657,032	0,35
657,474	0,35
657,916	0,35
658,358	0,34
658,8	0,41
659,242	0,49
659,684	0,49
660,126	0,48
660,568	0,48
661,01	0,48
661,452	0,48
661,894	0,48
662,335	0,48
662,777	0,48
663,219	0,48
663,661	0,48
664,102	0,48
664,544	0,48
664,985	0,48
665,427	0,48
665,869	0,48
666,31	0,48
666,752	0,48
667,193	0,48
667,634	0,48
668,076	0,48
668,517	0,48
668,959	0,48
669,4	0,48
669,841	0,48
670,282	0,48
670,724	0,48
671,165	0,48
671,606	0,48
672,047	0,48
672,488	0,48
672,929	0,48
673,37	0,48
673,811	0,48
674,252	0,48
674,693	0,47
675,134	0,47
675,575	0,47
676,016	0,47
676,457	0,47
676,898	0,47
677,339	0,47
677,78	0,47
678,22	0,47
678,661	0,47
679,102	0,47
679,542	0,47
679,983	0,47
680,424	0,47
680,864	0,47
681,305	0,47
681,745	0,47
682,186	0,47
682,626	0,47
683,067	0,47
683,507	0,47
683,948	0,47
684,388	0,47
684,828	0,47
685,269	0,47
685,709	0,47
686,149	0,47
686,589	0,47
687,029	0,47
687,47	0,47
687,91	0,47
688,35	0,46
688,79	0,46
689,23	0,46
689,67	0,46
690,11	0,46
690,55	0,46
690,99	0,46
691,43	0,46
691,87	0,46
692,31	0,46
692,749	0,46
693,189	0,46
693,629	0,46
694,069	0,45
694,508	0,45
694,948	0,45
695,388	0,45
695,827	0,45
696,267	0,46
696,706	0,46
697,146	0,46
697,586	0,46
698,025	0,46
698,464	0,46
698,904	0,46
699,343	0,46
699,783	0,46
700,222	0,46
700,661	0,46
701,101	0,46
701,54	0,46
701,979	0,46
702,418	0,46
702,857	0,46
703,297	0,46
703,736	0,46
704,175	0,46
704,614	0,46
705,053	0,46
705,492	0,46
705,931	0,46
706,37	0,46
706,809	0,46
707,248	0,46
707,687	0,46
708,125	0,46
708,564	0,46
709,003	0,46
709,442	0,46
709,88	0,46
710,319	0,45
710,758	0,45
711,196	0,45
711,635	0,45
712,074	0,45
712,512	0,45
712,951	0,45
713,389	0,45
713,828	0,45
714,266	0,45
714,705	0,45
715,143	0,45
715,581	0,45
716,02	0,45
716,458	0,45
716,896	0,45
717,334	0,45
717,773	0,45
718,211	0,45
718,649	0,45
719,087	0,45
719,525	0,45
719,963	0,45
720,401	0,45
720,839	0,45
721,277	0,45
721,715	0,45
722,153	0,45
722,591	0,45
723,029	0,45
723,467	0,45
723,905	0,45
724,342	0,45
724,78	0,45
725,218	0,45
725,656	0,45
726,093	0,45
726,531	0,45
726,969	0,45
727,406	0,45
727,844	0,45
728,281	0,45
728,719	0,45
729,156	0,45
729,594	0,45
730,031	0,45
730,469	0,45
730,906	0,44
731,343	0,44
731,781	0,44
732,218	0,44
732,655	0,44
733,092	0,44
733,53	0,44
733,967	0,44
734,404	0,44
734,841	0,44
735,278	0,44
735,715	0,44
736,152	0,43
736,589	0,43
737,026	0,43
737,463	0,43
737,9	0,43
738,337	0,43
738,774	0,43
739,211	0,43
739,647	0,43
740,084	0,43
740,521	0,44
740,958	0,44
741,394	0,44
741,831	0,44
742,268	0,44
742,704	0,44
743,141	0,44
743,577	0,44
744,014	0,44
744,45	0,44
744,887	0,43
745,323	0,43
745,76	0,43
746,196	0,43
746,632	0,43
747,069	0,43
747,505	0,43
747,941	0,43
748,378	0,43
748,814	0,43
749,25	0,43
749,686	0,43
750,122	0,43
750,558	0,43
750,994	0,43
751,43	0,44
751,866	0,44
752,302	0,44
752,738	0,44
753,174	0,44
753,61	0,44
754,046	0,44
754,482	0,44
754,918	0,44
755,354	0,44
755,789	0,44
756,225	0,43
756,661	0,43
757,096	0,43
757,532	0,43
757,968	0,43
758,403	0,42
758,839	0,42
759,274	0,42
759,71	0,41
760,145	0,41
760,581	0,4
761,016	0,4
761,452	0,39
761,887	0,39
762,322	0,38
762,758	0,38
763,193	0,38
763,628	0,37
764,063	0,36
764,499	0,36
764,934	0,35
765,369	0,34
765,804	0,33
766,239	0,33
766,674	0,32
767,109	0,31
767,544	0,3
767,979	0,29
768,414	0,29
768,849	0,28
769,284	0,27
769,719	0,26
770,154	0,25
770,588	0,24
771,023	0,23
771,458	0,22
771,893	0,21
772,327	0,19
772,762	0,18
773,197	0,17
773,631	0,16
774,066	0,16
774,5	0,15
774,935	0,14
775,369	0,13
775,804	0,11
776,238	0,11
776,673	0,1
777,107	0,08
777,541	0,08
777,976	0,07
778,41	0,06
778,844	0,05
779,279	0,04
779,713	0,03
780,147	0,02
780,581	0,01
781,015	0
781,449	-0
781,883	-0,01
782,317	-0,03
782,751	-0,04
783,185	-0,05
783,619	-0,06
784,053	-0,07
784,487	-0,08
784,921	-0,08
785,355	-0,09
785,789	-0,1
786,223	-0,11
786,656	-0,12
787,09	-0,13
787,524	-0,14
787,957	-0,14
788,391	-0,16
788,825	-0,18
789,258	-0,19
789,692	-0,2
790,125	-0,22
790,559	-0,23
790,992	-0,25
791,426	-0,27
791,859	-0,28
792,293	-0,31
792,726	-0,33
793,159	-0,35
793,593	-0,37
794,026	-0,39
794,459	-0,42
794,892	-0,45
795,326	-0,48
795,759	-0,51
796,192	-0,56
796,625	-0,6
797,058	-0,63
797,491	-0,67
797,924	-0,71
798,357	-0,76
798,79	-0,8
799,223	-0,84
799,656	-0,89
800,089	-0,94
800,522	-0,98
800,955	-1,02
801,387	-1,08
801,82	-1,13
802,253	-1,2
802,686	-1,27
803,118	-1,33
803,551	-1,38
803,984	-1,43
804,416	-1,46
804,849	-1,5
805,281	-1,63
805,714	-2,01
806,146	-2,46
806,579	-2,72
807,011	-2,88
807,444	-2,97
807,876	-3,05
808,308	-3,08
808,741	-3,11
809,173	-3,16
809,605	-3,18
810,037	-3,26
810,47	-3,17
810,902	-2,97
811,334	-2,82
811,766	-2,66
812,198	-2,4
812,63	-1,97
813,062	-1,76
813,494	-1,67
813,926	-1,58
814,358	-1,53
814,79	-1,45
815,222	-1,39
815,654	-1,34
816,086	-1,28
816,518	-1,23
816,949	-1,18
817,381	-1,13
817,813	-1,12
818,245	-1,08
818,676	-1,04
819,108	-1,01
819,54	-1
819,971	-0,97
820,403	-0,93
820,834	-0,91
821,266	-0,87
821,697	-0,85
822,129	-0,83
822,56	-0,81
822,991	-0,78
823,423	-0,75
823,854	-0,74
824,286	-0,72
824,717	-0,71
825,148	-0,69
825,579	-0,68
826,01	-0,66
826,442	-0,66
826,873	-0,64
827,304	-0,61
827,735	-0,61
828,166	-0,61
828,597	-0,61
829,028	-0,6
829,459	-0,61
829,89	-0,61
830,321	-0,57
830,752	-0,58
831,183	-0,57
831,613	-0,56
832,044	-0,56
832,475	-0,55
832,906	-0,56
833,336	-0,56
833,767	-0,56
834,198	-0,55
834,628	-0,54
835,059	-0,56
835,49	-0,57
835,92	-0,55
836,351	-0,55
836,781	-0,55
837,212	-0,57
837,642	-0,57
838,072	-0,56
838,503	-0,57
838,933	-0,55
839,364	-0,56
839,794	-0,53
840,224	-0,52
840,654	-0,56
841,085	-0,57
841,515	-0,54
841,945	-0,54
842,375	-0,49
842,805	-0,48
843,235	-0,46
843,665	-0,47
844,095	-0,46
844,525	-0,48
844,955	-0,5
845,385	-0,47
845,815	-0,46
846,245	-0,48
846,675	-0,48
847,105	-0,5
847,534	-0,5
847,964	-0,48
848,394	-0,47
848,824	-0,51
849,253	-0,5
849,683	-0,5
850,112	-0,51
850,542	-0,54
850,972	-0,54
851,401	-0,52
851,831	-0,5
852,26	-0,51
852,69	-0,55
853,119	-0,54
853,548	-0,54
853,978	-0,56
854,407	-0,53
854,836	-0,53
855,266	-0,52
855,695	-0,54
856,124	-0,55
856,553	-0,55
856,983	-0,57
857,412	-0,56
857,841	-0,57
858,27	-0,57
858,699	-0,57
859,128	-0,61
859,557	-0,62
859,986	-0,64
860,415	-0,62
860,844	-0,59
861,273	-0,6
861,702	-0,61
862,13	-0,59
862,559	-0,61
862,988	-0,59
863,417	-0,58
863,845	-0,57
864,274	-0,58
864,703	-0,57
865,131	-0,57
865,56	-0,58
865,989	-0,61
866,417	-0,58
866,846	-0,57
867,274	-0,57
867,703	-0,59
868,131	-0,6
868,559	-0,59
868,988	-0,62
869,416	-0,61
869,844	-0,62
870,273	-0,65
870,701	-0,63
871,129	-0,66
871,557	-0,69
871,986	-0,69
872,414	-0,7
872,842	-0,67
873,27	-0,66
873,698	-0,62
874,126	-0,66
874,554	-0,64
874,982	-0,64
875,41	-0,67
875,838	-0,62
876,266	-0,6
876,694	-0,6
877,122	-0,58
877,549	-0,64
877,977	-0,6
878,405	-0,63
878,833	-0,6
879,26	-0,58
879,688	-0,59
880,116	-0,56
880,543	-0,55
880,971	-0,53
881,399	-0,56
881,826	-0,57
882,254	-0,55
882,681	-0,59
883,109	-0,56
883,536	-0,57
883,963	-0,59
884,391	-0,57
884,818	-0,55
885,245	-0,59
885,673	-0,61
886,1	-0,58
886,527	-0,58
886,954	-0,55
887,381	-0,56
887,809	-0,57
888,236	-0,58
888,663	-0,58
889,09	-0,62
889,517	-0,64
889,944	-0,64
890,371	-0,62
890,798	-0,62
891,225	-0,62
891,652	-0,65
892,078	-0,63
892,505	-0,66
892,932	-0,62
893,359	-0,63
893,786	-0,63
894,212	-0,6
894,639	-0,62
895,066	-0,65
895,492	-0,59
895,919	-0,59
896,346	-0,59
896,772	-0,6
897,199	-0,57
897,625	-0,6
898,052	-0,57
898,478	-0,55
898,904	-0,56
899,331	-0,56
899,757	-0,58
900,183	-0,6
900,61	-0,59
901,036	-0,6
901,462	-0,6
901,888	-0,59
902,315	-0,58
902,741	-0,63
903,167	-0,62
903,593	-0,65
904,019	-0,63
904,445	-0,6
904,871	-0,62
905,297	-0,63
905,723	-0,62
906,149	-0,6
906,575	-0,61
907,001	-0,6
907,427	-0,57
907,852	-0,56
908,278	-0,56
908,704	-0,54
909,13	-0,54
909,555	-0,54
909,981	-0,53
910,407	-0,52
910,832	-0,53
911,258	-0,53
911,684	-0,53
912,109	-0,53
912,535	-0,56
912,96	-0,52
913,386	-0,56
913,811	-0,55
914,236	-0,56
914,662	-0,55
915,087	-0,59
915,512	-0,59
915,938	-0,61
916,363	-0,6
916,788	-0,62
917,213	-0,59
917,639	-0,64
918,064	-0,61
918,489	-0,63
918,914	-0,62
919,339	-0,63
919,764	-0,6
920,189	-0,59
920,614	-0,61
921,039	-0,61
921,464	-0,57
921,889	-0,61
922,314	-0,61
922,738	-0,64
923,163	-0,65
923,588	-0,65
924,013	-0,64
924,437	-0,64
924,862	-0,66
925,287	-0,62
925,711	-0,62
926,136	-0,63
926,561	-0,61
926,985	-0,59
927,41	-0,56
927,834	-0,55
928,259	-0,52
928,683	-0,51
929,108	-0,47
929,532	-0,48
929,956	-0,48
930,381	-0,47
930,805	-0,48
931,229	-0,48
931,653	-0,46
932,078	-0,46
932,502	-0,46
932,926	-0,47
933,35	-0,48
933,774	-0,48
934,198	-0,45
934,622	-0,44
935,046	-0,45
935,47	-0,45
935,894	-0,45
936,318	-0,44
936,742	-0,45
937,166	-0,46
937,59	-0,45
938,014	-0,47
938,437	-0,47
938,861	-0,49
939,285	-0,5
939,709	-0,49
940,132	-0,5
940,556	-0,5
940,98	-0,5
941,403	-0,48
941,827	-0,49
942,25	-0,5
942,674	-0,49
943,097	-0,5
943,521	-0,49
943,944	-0,51
944,368	-0,5
944,791	-0,48
945,214	-0,5
945,638	-0,5
946,061	-0,53
946,484	-0,53
946,907	-0,51
947,331	-0,51
947,754	-0,54
948,177	-0,51
948,6	-0,52
949,023	-0,51
949,446	-0,51
949,869	-0,5
950,292	-0,5
950,715	-0,47
951,138	-0,46
951,561	-0,44
951,984	-0,45
952,407	-0,44
952,83	-0,43
953,252	-0,38
953,675	-0,38
954,098	-0,39
954,521	-0,37
954,943	-0,36
955,366	-0,37
955,789	-0,35
956,211	-0,37
956,634	-0,37
957,056	-0,35
957,479	-0,35
957,902	-0,38
958,324	-0,38
958,746	-0,36
959,169	-0,37
959,591	-0,38
960,014	-0,39
960,436	-0,39
960,858	-0,38
961,281	-0,38
961,703	-0,39
962,125	-0,39
962,547	-0,37
962,969	-0,37
963,391	-0,38
963,814	-0,4
964,236	-0,38
964,658	-0,35
965,08	-0,36
965,502	-0,35
965,924	-0,33
966,346	-0,33
966,768	-0,33
967,189	-0,35
967,611	-0,34
968,033	-0,34
968,455	-0,31
968,877	-0,32
969,298	-0,34
969,72	-0,35
970,142	-0,34
970,563	-0,35
970,985	-0,33
971,407	-0,32
971,828	-0,3
972,25	-0,29
972,671	-0,28
973,093	-0,28
973,514	-0,26
973,936	-0,24
974,357	-0,22
974,778	-0,22
975,2	-0,22
975,621	-0,22
976,042	-0,2
976,464	-0,19
976,885	-0,18
977,306	-0,18
977,727	-0,17
978,148	-0,16
978,57	-0,15
978,991	-0,13
979,412	-0,12
979,833	-0,1
980,254	-0,1
980,675	-0,1
981,096	-0,08
981,517	-0,07
981,937	-0,06
982,358	-0,05
982,779	-0,03
983,2	-0,03
983,621	-0,03
984,042	-0,02
984,462	-0
984,883	0,02
985,304	0,03
985,724	0,04
986,145	0,05
986,565	0,07
986,986	0,08
987,407	0,09
987,827	0,1
988,248	0,12
988,668	0,13
989,088	0,14
989,509	0,15
989,929	0,16
990,35	0,18
990,77	0,2
991,19	0,21
991,61	0,23
992,031	0,23
992,451	0,24
992,871	0,26
993,291	0,27
993,711	0,27
994,131	0,28
994,551	0,29
994,971	0,3
995,391	0,31
995,811	0,31
996,231	0,32
996,651	0,32
997,071	0,33
997,491	0,34
997,911	0,34
998,331	0,35
998,75	0,36
999,17	0,36
999,59	0,37
1000,009	0,37
1000,429	0,38
1000,849	0,38
1001,268	0,39
1001,688	0,39
1002,107	0,39
1002,527	0,4
1002,946	0,4
1003,366	0,4
1003,785	0,41
1004,205	0,41
1004,624	0,42
1005,044	0,42
1005,463	0,42
1005,882	0,42
1006,301	0,42
1006,721	0,43
1007,14	0,43
1007,559	0,43
1007,978	0,43
1008,397	0,43
1008,816	0,43
1009,235	0,43
1009,655	0,43
1010,074	0,43
1010,492	0,43
1010,911	0,43
1011,33	0,43
1011,749	0,43
1012,168	0,43
1012,587	0,43
1013,006	0,43
1013,425	0,42
1013,843	0,42
1014,262	0,42
1014,681	0,42
1015,099	0,42
1015,518	0,42
1015,937	0,42
1016,355	0,42
1016,774	0,42
1017,192	0,42
1017,611	0,42
1018,029	0,42
1018,448	0,42
1018,866	0,42
1019,285	0,42
1019,703	0,42
1020,121	0,42
1020,54	0,42
1020,958	0,42
1021,376	0,42
1021,794	0,42
1022,213	0,42
1022,631	0,42
1023,049	0,42
1023,467	0,42
1023,885	0,42
1024,303	0,41
1024,721	0,41
1025,139	0,41
1025,557	0,41
1025,975	0,41
1026,393	0,41
1026,811	0,41
1027,229	0,41
1027,647	0,41
1028,065	0,41
1028,482	0,41
1028,9	0,41
1029,318	0,41
1029,735	0,41
1030,153	0,4
1030,571	0,4
1030,988	0,4
1031,406	0,4
1031,823	0,4
1032,241	0,4
1032,659	0,41
1033,076	0,41
1033,493	0,41
1033,911	0,41
1034,328	0,41
1034,746	0,41
1035,163	0,41
1035,58	0,41
1035,997	0,41
1036,415	0,41
1036,832	0,41
1037,249	0,41
1037,666	0,41
1038,083	0,41
1038,501	0,41
1038,918	0,41
1039,335	0,41
1039,752	0,41
1040,169	0,41
1040,586	0,41
1041,003	0,41
1041,419	0,41
1041,836	0,41
1042,253	0,41
1042,67	0,41
1043,087	0,41
1043,504	0,41
1043,92	0,41
1044,337	0,41
1044,754	0,4
1045,17	0,4
1045,587	0,4
1046,004	0,4
1046,42	0,4
1046,837	0,4
1047,253	0,4
1047,67	0,4
1048,086	0,4
1048,503	0,4
1048,919	0,4
1049,335	0,4
1049,752	0,4
1050,168	0,4
1050,584	0,4
1051,001	0,4
1051,417	0,41
1051,833	0,41
1052,249	0,41
1052,665	0,41
1053,081	0,41
1053,497	0,41
1053,914	0,41
1054,33	0,41
1054,746	0,41
1055,162	0,41
1055,578	0,41
1055,993	0,41
1056,409	0,41
1056,825	0,41
1057,241	0,41
1057,657	0,41
1058,073	0,41
1058,488	0,42
1058,904	0,42
1059,32	0,42
1059,736	0,41
1060,151	0,41
1060,567	0,41
1060,982	0,42
1061,398	0,42
1061,813	0,41
1062,229	0,41
1062,644	0,41
1063,06	0,41
1063,475	0,41
1063,891	0,41
1064,306	0,41
1064,721	0,41
1065,137	0,41
1065,552	0,41
1065,967	0,41
1066,382	0,41
1066,798	0,41
1067,213	0,41
1067,628	0,41
1068,043	0,41
1068,458	0,41
1068,873	0,41
1069,288	0,41
1069,703	0,41
1070,118	0,41
1070,533	0,41
1070,948	0,41
1071,363	0,41
1071,778	0,41
1072,193	0,41
1072,607	0,41
1073,022	0,41
1073,437	0,41
1073,852	0,41
1074,266	0,41
1074,681	0,41
1075,096	0,41
1075,51	0,41
1075,925	0,41
1076,339	0,41
1076,754	0,41
1077,168	0,41
1077,583	0,41
1077,997	0,41
1078,412	0,41
1078,826	0,41
1079,24	0,41
1079,655	0,41
1080,069	0,41
1080,483	0,4
1080,897	0,4
1081,312	0,4
1081,726	0,4
1082,14	0,4
1082,554	0,4
1082,968	0,4
1083,382	0,4
1083,796	0,4
1084,21	0,4
1084,624	0,4
1085,038	0,4
1085,452	0,39
1085,866	0,39
1086,28	0,39
1086,694	0,39
1087,108	0,39
1087,521	0,39
1087,935	0,39
1088,349	0,38
1088,763	0,38
1089,176	0,38
1089,59	0,38
1090,004	0,37
1090,417	0,37
1090,831	0,37
1091,244	0,37
1091,658	0,36
1092,071	0,36
1092,485	0,35
1092,898	0,35
1093,312	0,35
1093,725	0,35
1094,138	0,35
1094,552	0,34
1094,965	0,34
1095,378	0,34
1095,791	0,34
1096,205	0,33
1096,618	0,33
1097,031	0,33
1097,444	0,33
1097,857	0,32
1098,27	0,32
1098,683	0,31
1099,096	0,31
1099,509	0,31
1099,922	0,3
1100,335	0,3
1100,748	0,29
1101,161	0,28
1101,574	0,28
1101,986	0,28
1102,399	0,27
1102,812	0,27
1103,225	0,26
1103,637	0,26
1104,05	0,25
1104,463	0,25
1104,875	0,25
1105,288	0,25
1105,7	0,25
1106,113	0,24
1106,525	0,24
1106,938	0,23
1107,35	0,23
1107,763	0,23
1108,175	0,23
1108,588	0,22
1109	0,22
1109,412	0,22
1109,824	0,22
1110,237	0,21
1110,649	0,2
1111,061	0,2
