Data from 18C-808nm-8A-cont_Absorbance__4__01433.txt Node

Date: Mon Jul 17 17:16:45 CEST 2023
User: Laser008
Spectrometer: MAYP115816
Trigger mode: 0
Integration Time (sec): 2,500000E-1
Scans to average: 10
Electric dark correction enabled: true
Nonlinearity correction enabled: true
Boxcar width: 5
XAxis mode: Wavelengths
Number of Pixels in Spectrum: 2068
>>>>>Begin Spectral Data<<<<<
198,914	-0,61
199,384	-0,44
199,855	-0,3
200,325	-0,21
200,796	-0,19
201,266	-0,15
201,737	-0,15
202,207	-0,15
202,677	-0,14
203,147	-0,13
203,618	-0,1
204,088	-0,09
204,558	-0,07
205,028	-0,07
205,498	-0,08
205,968	-0,08
206,439	-0,1
206,909	-0,09
207,379	-0,09
207,849	-0,09
208,319	-0,1
208,789	-0,1
209,258	-0,1
209,728	-0,12
210,198	-0,12
210,668	-0,11
211,138	-0,1
211,608	-0,11
212,077	-0,11
212,547	-0,11
213,017	-0,11
213,486	-0,11
213,956	-0,12
214,426	-0,12
214,895	-0,12
215,365	-0,12
215,834	-0,13
216,304	-0,14
216,773	-0,14
217,243	-0,16
217,712	-0,17
218,181	-0,17
218,651	-0,18
219,12	-0,18
219,589	-0,18
220,058	-0,16
220,528	-0,17
220,997	-0,18
221,466	-0,19
221,935	-0,19
222,404	-0,18
222,873	-0,17
223,342	-0,16
223,812	-0,15
224,281	-0,15
224,749	-0,17
225,218	-0,19
225,687	-0,19
226,156	-0,17
226,625	-0,16
227,094	-0,16
227,563	-0,17
228,031	-0,18
228,5	-0,18
228,969	-0,19
229,438	-0,18
229,906	-0,16
230,375	-0,16
230,844	-0,15
231,312	-0,15
231,781	-0,16
232,249	-0,15
232,718	-0,15
233,186	-0,13
233,655	-0,15
234,123	-0,14
234,591	-0,14
235,06	-0,14
235,528	-0,14
235,996	-0,14
236,465	-0,13
236,933	-0,13
237,401	-0,13
237,869	-0,12
238,337	-0,13
238,805	-0,12
239,274	-0,11
239,742	-0,1
240,21	-0,11
240,678	-0,1
241,146	-0,1
241,614	-0,1
242,081	-0,1
242,549	-0,1
243,017	-0,11
243,485	-0,11
243,953	-0,1
244,421	-0,1
244,888	-0,1
245,356	-0,1
245,824	-0,1
246,291	-0,1
246,759	-0,1
247,227	-0,1
247,694	-0,09
248,162	-0,08
248,629	-0,07
249,097	-0,07
249,564	-0,08
250,032	-0,1
250,499	-0,1
250,967	-0,1
251,434	-0,11
251,901	-0,11
252,369	-0,11
252,836	-0,12
253,303	-0,13
253,77	-0,15
254,237	-0,15
254,705	-0,15
255,172	-0,14
255,639	-0,14
256,106	-0,16
256,573	-0,15
257,04	-0,15
257,507	-0,15
257,974	-0,16
258,441	-0,15
258,908	-0,15
259,375	-0,17
259,841	-0,17
260,308	-0,18
260,775	-0,17
261,242	-0,17
261,709	-0,18
262,175	-0,18
262,642	-0,18
263,109	-0,18
263,575	-0,19
264,042	-0,17
264,508	-0,16
264,975	-0,17
265,441	-0,17
265,908	-0,17
266,374	-0,16
266,841	-0,16
267,307	-0,16
267,773	-0,15
268,24	-0,15
268,706	-0,16
269,172	-0,17
269,639	-0,18
270,105	-0,16
270,571	-0,17
271,037	-0,18
271,503	-0,19
271,969	-0,18
272,435	-0,19
272,902	-0,2
273,368	-0,21
273,834	-0,2
274,3	-0,21
274,765	-0,21
275,231	-0,22
275,697	-0,22
276,163	-0,21
276,629	-0,2
277,095	-0,21
277,56	-0,2
278,026	-0,21
278,492	-0,19
278,958	-0,19
279,423	-0,18
279,889	-0,17
280,354	-0,18
280,82	-0,18
281,286	-0,19
281,751	-0,21
282,217	-0,19
282,682	-0,2
283,147	-0,2
283,613	-0,21
284,078	-0,21
284,544	-0,23
285,009	-0,24
285,474	-0,23
285,939	-0,25
286,405	-0,24
286,87	-0,23
287,335	-0,22
287,8	-0,22
288,265	-0,21
288,73	-0,21
289,195	-0,24
289,66	-0,23
290,125	-0,21
290,59	-0,21
291,055	-0,2
291,52	-0,2
291,985	-0,22
292,45	-0,23
292,915	-0,23
293,38	-0,23
293,844	-0,22
294,309	-0,2
294,774	-0,19
295,239	-0,2
295,703	-0,2
296,168	-0,2
296,632	-0,19
297,097	-0,18
297,562	-0,16
298,026	-0,16
298,491	-0,16
298,955	-0,16
299,419	-0,15
299,884	-0,15
300,348	-0,13
300,813	-0,13
301,277	-0,14
301,741	-0,13
302,205	-0,13
302,67	-0,12
303,134	-0,13
303,598	-0,13
304,062	-0,12
304,526	-0,12
304,99	-0,13
305,454	-0,14
305,919	-0,13
306,383	-0,12
306,847	-0,12
307,31	-0,14
307,774	-0,15
308,238	-0,14
308,702	-0,13
309,166	-0,15
309,63	-0,15
310,094	-0,12
310,557	-0,11
311,021	-0,11
311,485	-0,12
311,948	-0,12
312,412	-0,11
312,876	-0,1
313,339	-0,11
313,803	-0,12
314,266	-0,11
314,73	-0,12
315,193	-0,12
315,657	-0,1
316,12	-0,11
316,584	-0,09
317,047	-0,09
317,51	-0,08
317,973	-0,07
318,437	-0,06
318,9	-0,05
319,363	-0,04
319,826	-0,04
320,29	-0,05
320,753	-0,06
321,216	-0,05
321,679	-0,05
322,142	-0,05
322,605	-0,07
323,068	-0,07
323,531	-0,08
323,994	-0,07
324,457	-0,06
324,92	-0,04
325,382	-0,04
325,845	-0,03
326,308	-0,02
326,771	-0,02
327,233	-0,01
327,696	0
328,159	0,01
328,622	0,02
329,084	0,02
329,547	0,02
330,009	0,02
330,472	0,03
330,934	0,03
331,397	0,03
331,859	0,04
332,322	0,04
332,784	0,04
333,246	0,04
333,709	0,04
334,171	0,04
334,633	0,04
335,096	0,04
335,558	0,05
336,02	0,04
336,482	0,04
336,944	0,05
337,406	0,05
337,868	0,05
338,331	0,05
338,793	0,06
339,255	0,07
339,717	0,08
340,178	0,09
340,64	0,1
341,102	0,11
341,564	0,12
342,026	0,13
342,488	0,13
342,949	0,14
343,411	0,16
343,873	0,19
344,335	0,21
344,796	0,24
345,258	0,27
345,719	0,3
346,181	0,34
346,643	0,37
347,104	0,39
347,566	0,41
348,027	0,43
348,488	0,45
348,95	0,46
349,411	0,48
349,873	0,49
350,334	0,5
350,795	0,51
351,256	0,52
351,718	0,52
352,179	0,53
352,64	0,53
353,101	0,53
353,562	0,53
354,023	0,54
354,484	0,54
354,945	0,54
355,406	0,54
355,867	0,54
356,328	0,54
356,789	0,55
357,25	0,55
357,711	0,55
358,172	0,55
358,633	0,56
359,093	0,56
359,554	0,56
360,015	0,56
360,476	0,56
360,936	0,56
361,397	0,56
361,858	0,56
362,318	0,56
362,779	0,56
363,239	0,56
363,7	0,56
364,16	0,56
364,621	0,56
365,081	0,56
365,541	0,56
366,002	0,56
366,462	0,56
366,922	0,56
367,383	0,56
367,843	0,56
368,303	0,56
368,763	0,56
369,223	0,56
369,684	0,56
370,144	0,56
370,604	0,56
371,064	0,56
371,524	0,56
371,984	0,56
372,444	0,56
372,904	0,55
373,363	0,55
373,823	0,55
374,283	0,55
374,743	0,55
375,203	0,55
375,663	0,55
376,122	0,55
376,582	0,55
377,042	0,55
377,501	0,55
377,961	0,55
378,42	0,55
378,88	0,55
379,34	0,55
379,799	0,55
380,259	0,55
380,718	0,55
381,177	0,55
381,637	0,55
382,096	0,55
382,555	0,55
383,015	0,55
383,474	0,55
383,933	0,55
384,393	0,55
384,852	0,55
385,311	0,55
385,77	0,55
386,229	0,54
386,688	0,54
387,147	0,54
387,606	0,54
388,065	0,54
388,524	0,54
388,983	0,54
389,442	0,54
389,901	0,54
390,36	0,54
390,819	0,54
391,277	0,54
391,736	0,54
392,195	0,54
392,654	0,54
393,112	0,54
393,571	0,54
394,03	0,54
394,488	0,54
394,947	0,54
395,405	0,54
395,864	0,54
396,322	0,54
396,781	0,54
397,239	0,54
397,698	0,54
398,156	0,54
398,614	0,54
399,073	0,54
399,531	0,54
399,989	0,54
400,447	0,54
400,905	0,54
401,364	0,54
401,822	0,53
402,28	0,53
402,738	0,53
403,196	0,53
403,654	0,53
404,112	0,53
404,57	0,53
405,028	0,53
405,486	0,53
405,944	0,53
406,402	0,53
406,859	0,53
407,317	0,53
407,775	0,53
408,233	0,53
408,691	0,53
409,148	0,53
409,606	0,53
410,064	0,53
410,521	0,53
410,979	0,53
411,436	0,53
411,894	0,53
412,351	0,53
412,809	0,53
413,266	0,53
413,724	0,53
414,181	0,53
414,638	0,53
415,096	0,53
415,553	0,53
416,01	0,53
416,467	0,53
416,925	0,53
417,382	0,53
417,839	0,53
418,296	0,53
418,753	0,53
419,21	0,53
419,667	0,53
420,124	0,53
420,581	0,53
421,038	0,52
421,495	0,52
421,952	0,52
422,409	0,52
422,866	0,52
423,322	0,52
423,779	0,52
424,236	0,53
424,693	0,53
425,149	0,53
425,606	0,53
426,063	0,53
426,519	0,53
426,976	0,53
427,433	0,53
427,889	0,53
428,346	0,53
428,802	0,52
429,258	0,52
429,715	0,52
430,171	0,52
430,628	0,52
431,084	0,52
431,54	0,52
431,997	0,52
432,453	0,52
432,909	0,52
433,365	0,52
433,821	0,52
434,277	0,52
434,734	0,52
435,19	0,52
435,646	0,52
436,102	0,52
436,558	0,52
437,014	0,52
437,47	0,52
437,925	0,52
438,381	0,52
438,837	0,52
439,293	0,52
439,749	0,52
440,205	0,52
440,66	0,52
441,116	0,52
441,572	0,52
442,027	0,52
442,483	0,52
442,939	0,52
443,394	0,52
443,85	0,52
444,305	0,52
444,761	0,52
445,216	0,52
445,672	0,52
446,127	0,52
446,582	0,52
447,038	0,52
447,493	0,52
447,948	0,52
448,403	0,52
448,859	0,52
449,314	0,52
449,769	0,52
450,224	0,52
450,679	0,52
451,134	0,52
451,589	0,52
452,044	0,52
452,499	0,53
452,954	0,53
453,409	0,53
453,864	0,53
454,319	0,53
454,774	0,53
455,229	0,53
455,684	0,53
456,138	0,53
456,593	0,53
457,048	0,53
457,503	0,53
457,957	0,53
458,412	0,53
458,866	0,53
459,321	0,53
459,776	0,53
460,23	0,53
460,685	0,53
461,139	0,53
461,593	0,53
462,048	0,53
462,502	0,53
462,957	0,53
463,411	0,53
463,865	0,53
464,319	0,53
464,774	0,53
465,228	0,53
465,682	0,53
466,136	0,53
466,59	0,54
467,044	0,54
467,499	0,54
467,953	0,54
468,407	0,54
468,861	0,54
469,315	0,54
469,768	0,54
470,222	0,54
470,676	0,54
471,13	0,54
471,584	0,54
472,038	0,54
472,491	0,54
472,945	0,54
473,399	0,54
473,852	0,55
474,306	0,55
474,76	0,55
475,213	0,55
475,667	0,55
476,12	0,55
476,574	0,55
477,027	0,55
477,481	0,55
477,934	0,55
478,388	0,55
478,841	0,55
479,294	0,56
479,748	0,56
480,201	0,56
480,654	0,56
481,107	0,56
481,561	0,56
482,014	0,56
482,467	0,56
482,92	0,57
483,373	0,57
483,826	0,57
484,279	0,57
484,732	0,57
485,185	0,57
485,638	0,57
486,091	0,58
486,544	0,58
486,997	0,58
487,449	0,58
487,902	0,58
488,355	0,58
488,808	0,59
489,26	0,59
489,713	0,59
490,166	0,59
490,618	0,59
491,071	0,6
491,523	0,6
491,976	0,6
492,429	0,6
492,881	0,6
493,333	0,61
493,786	0,61
494,238	0,61
494,691	0,61
495,143	0,62
495,595	0,62
496,048	0,62
496,5	0,62
496,952	0,63
497,404	0,63
497,856	0,63
498,309	0,64
498,761	0,64
499,213	0,64
499,665	0,64
500,117	0,65
500,569	0,65
501,021	0,65
501,473	0,66
501,925	0,66
502,377	0,66
502,828	0,67
503,28	0,67
503,732	0,67
504,184	0,67
504,636	0,68
505,087	0,68
505,539	0,68
505,991	0,69
506,442	0,69
506,894	0,69
507,345	0,69
507,797	0,7
508,249	0,7
508,7	0,7
509,151	0,71
509,603	0,71
510,054	0,71
510,506	0,72
510,957	0,72
511,408	0,72
511,86	0,73
512,311	0,73
512,762	0,73
513,213	0,73
513,665	0,74
514,116	0,74
514,567	0,74
515,018	0,74
515,469	0,75
515,92	0,75
516,371	0,75
516,822	0,76
517,273	0,76
517,724	0,76
518,175	0,76
518,626	0,76
519,076	0,77
519,527	0,77
519,978	0,77
520,429	0,77
520,88	0,77
521,33	0,77
521,781	0,78
522,232	0,78
522,682	0,78
523,133	0,78
523,583	0,78
524,034	0,78
524,484	0,78
524,935	0,78
525,385	0,78
525,836	0,79
526,286	0,79
526,736	0,79
527,187	0,79
527,637	0,78
528,087	0,78
528,538	0,78
528,988	0,78
529,438	0,78
529,888	0,78
530,338	0,78
530,788	0,78
531,238	0,78
531,688	0,78
532,139	0,78
532,589	0,78
533,038	0,78
533,488	0,78
533,938	0,77
534,388	0,77
534,838	0,77
535,288	0,77
535,738	0,77
536,187	0,76
536,637	0,76
537,087	0,76
537,537	0,76
537,986	0,75
538,436	0,75
538,885	0,75
539,335	0,74
539,785	0,74
540,234	0,74
540,684	0,73
541,133	0,73
541,582	0,73
542,032	0,72
542,481	0,72
542,931	0,72
543,38	0,71
543,829	0,71
544,278	0,71
544,728	0,7
545,177	0,7
545,626	0,7
546,075	0,69
546,524	0,69
546,973	0,69
547,422	0,68
547,871	0,68
548,32	0,68
548,769	0,68
549,218	0,68
549,667	0,67
550,116	0,67
550,565	0,67
551,014	0,67
551,463	0,66
551,911	0,66
552,36	0,66
552,809	0,65
553,258	0,65
553,706	0,65
554,155	0,64
554,603	0,64
555,052	0,64
555,501	0,63
555,949	0,63
556,398	0,63
556,846	0,63
557,294	0,62
557,743	0,62
558,191	0,62
558,64	0,61
559,088	0,61
559,536	0,6
559,985	0,6
560,433	0,6
560,881	0,59
561,329	0,59
561,777	0,59
562,225	0,58
562,674	0,58
563,122	0,58
563,57	0,58
564,018	0,57
564,466	0,57
564,914	0,57
565,362	0,57
565,809	0,56
566,257	0,56
566,705	0,56
567,153	0,55
567,601	0,55
568,048	0,55
568,496	0,55
568,944	0,54
569,392	0,54
569,839	0,54
570,287	0,54
570,734	0,53
571,182	0,53
571,63	0,53
572,077	0,52
572,525	0,52
572,972	0,52
573,419	0,52
573,867	0,51
574,314	0,51
574,761	0,51
575,209	0,51
575,656	0,5
576,103	0,5
576,551	0,5
576,998	0,5
577,445	0,5
577,892	0,5
578,339	0,49
578,786	0,49
579,233	0,49
579,68	0,49
580,127	0,48
580,574	0,48
581,021	0,48
581,468	0,48
581,915	0,48
582,362	0,47
582,809	0,47
583,255	0,47
583,702	0,47
584,149	0,47
584,596	0,47
585,042	0,46
585,489	0,46
585,936	0,46
586,382	0,46
586,829	0,46
587,275	0,46
587,722	0,46
588,168	0,45
588,615	0,45
589,061	0,45
589,508	0,45
589,954	0,45
590,4	0,45
590,847	0,45
591,293	0,44
591,739	0,44
592,185	0,44
592,632	0,44
593,078	0,44
593,524	0,44
593,97	0,44
594,416	0,44
594,862	0,44
595,308	0,44
595,754	0,43
596,2	0,43
596,646	0,43
597,092	0,43
597,538	0,43
597,984	0,43
598,43	0,43
598,876	0,43
599,321	0,43
599,767	0,42
600,213	0,42
600,659	0,42
601,104	0,42
601,55	0,42
601,995	0,42
602,441	0,42
602,887	0,42
603,332	0,42
603,778	0,41
604,223	0,41
604,668	0,41
605,114	0,41
605,559	0,41
606,005	0,41
606,45	0,41
606,895	0,41
607,341	0,41
607,786	0,41
608,231	0,41
608,676	0,41
609,121	0,4
609,566	0,4
610,012	0,39
610,457	0,39
610,902	0,39
611,347	0,39
611,792	0,38
612,237	0,38
612,682	0,38
613,127	0,38
613,571	0,38
614,016	0,38
614,461	0,39
614,906	0,39
615,351	0,39
615,795	0,39
616,24	0,39
616,685	0,39
617,129	0,39
617,574	0,39
618,019	0,39
618,463	0,39
618,908	0,39
619,352	0,39
619,797	0,39
620,241	0,39
620,686	0,39
621,13	0,39
621,574	0,39
622,019	0,39
622,463	0,38
622,907	0,38
623,352	0,38
623,796	0,38
624,24	0,38
624,684	0,38
625,128	0,38
625,572	0,38
626,016	0,38
626,461	0,38
626,905	0,38
627,349	0,38
627,793	0,38
628,236	0,38
628,68	0,38
629,124	0,38
629,568	0,38
630,012	0,38
630,456	0,38
630,9	0,38
631,343	0,38
631,787	0,38
632,231	0,38
632,674	0,38
633,118	0,38
633,562	0,38
634,005	0,38
634,449	0,38
634,892	0,38
635,336	0,37
635,779	0,37
636,223	0,37
636,666	0,37
637,109	0,37
637,553	0,37
637,996	0,37
638,439	0,37
638,883	0,37
639,326	0,37
639,769	0,37
640,212	0,37
640,655	0,37
641,099	0,37
641,542	0,37
641,985	0,37
642,428	0,37
642,871	0,37
643,314	0,37
643,757	0,37
644,2	0,37
644,643	0,37
645,085	0,36
645,528	0,36
645,971	0,36
646,414	0,36
646,857	0,36
647,299	0,36
647,742	0,36
648,185	0,36
648,627	0,36
649,07	0,36
649,513	0,36
649,955	0,36
650,398	0,36
650,84	0,36
651,283	0,36
651,725	0,36
652,168	0,36
652,61	0,36
653,052	0,36
653,495	0,36
653,937	0,28
654,379	0,23
654,821	0,23
655,264	0,23
655,706	0,23
656,148	0,23
656,59	0,23
657,032	0,23
657,474	0,23
657,916	0,23
658,358	0,22
658,8	0,28
659,242	0,36
659,684	0,36
660,126	0,36
660,568	0,36
661,01	0,36
661,452	0,36
661,894	0,36
662,335	0,36
662,777	0,35
663,219	0,35
663,661	0,35
664,102	0,35
664,544	0,35
664,985	0,35
665,427	0,35
665,869	0,35
666,31	0,35
666,752	0,35
667,193	0,35
667,634	0,35
668,076	0,35
668,517	0,35
668,959	0,35
669,4	0,36
669,841	0,36
670,282	0,36
670,724	0,36
671,165	0,36
671,606	0,36
672,047	0,35
672,488	0,35
672,929	0,35
673,37	0,35
673,811	0,35
674,252	0,35
674,693	0,35
675,134	0,35
675,575	0,35
676,016	0,35
676,457	0,35
676,898	0,35
677,339	0,35
677,78	0,35
678,22	0,35
678,661	0,35
679,102	0,35
679,542	0,35
679,983	0,35
680,424	0,35
680,864	0,35
681,305	0,35
681,745	0,35
682,186	0,35
682,626	0,35
683,067	0,35
683,507	0,35
683,948	0,35
684,388	0,35
684,828	0,35
685,269	0,34
685,709	0,34
686,149	0,34
686,589	0,34
687,029	0,34
687,47	0,34
687,91	0,34
688,35	0,34
688,79	0,34
689,23	0,34
689,67	0,34
690,11	0,34
690,55	0,34
690,99	0,34
691,43	0,34
691,87	0,34
692,31	0,34
692,749	0,34
693,189	0,34
693,629	0,33
694,069	0,33
694,508	0,33
694,948	0,33
695,388	0,33
695,827	0,33
696,267	0,34
696,706	0,34
697,146	0,34
697,586	0,34
698,025	0,34
698,464	0,34
698,904	0,34
699,343	0,34
699,783	0,34
700,222	0,34
700,661	0,34
701,101	0,34
701,54	0,34
701,979	0,34
702,418	0,34
702,857	0,34
703,297	0,34
703,736	0,34
704,175	0,34
704,614	0,34
705,053	0,34
705,492	0,34
705,931	0,34
706,37	0,34
706,809	0,33
707,248	0,33
707,687	0,33
708,125	0,33
708,564	0,33
709,003	0,33
709,442	0,33
709,88	0,33
710,319	0,33
710,758	0,33
711,196	0,33
711,635	0,33
712,074	0,33
712,512	0,33
712,951	0,33
713,389	0,33
713,828	0,33
714,266	0,33
714,705	0,32
715,143	0,32
715,581	0,32
716,02	0,32
716,458	0,32
716,896	0,32
717,334	0,32
717,773	0,32
718,211	0,32
718,649	0,32
719,087	0,32
719,525	0,32
719,963	0,32
720,401	0,32
720,839	0,32
721,277	0,32
721,715	0,32
722,153	0,32
722,591	0,32
723,029	0,32
723,467	0,32
723,905	0,32
724,342	0,32
724,78	0,32
725,218	0,32
725,656	0,32
726,093	0,32
726,531	0,32
726,969	0,32
727,406	0,32
727,844	0,32
728,281	0,32
728,719	0,32
729,156	0,32
729,594	0,32
730,031	0,32
730,469	0,32
730,906	0,32
731,343	0,32
731,781	0,32
732,218	0,32
732,655	0,32
733,092	0,32
733,53	0,32
733,967	0,32
734,404	0,32
734,841	0,32
735,278	0,32
735,715	0,32
736,152	0,32
736,589	0,32
737,026	0,32
737,463	0,31
737,9	0,31
738,337	0,31
738,774	0,31
739,211	0,31
739,647	0,31
740,084	0,31
740,521	0,31
740,958	0,31
741,394	0,31
741,831	0,31
742,268	0,31
742,704	0,31
743,141	0,31
743,577	0,31
744,014	0,31
744,45	0,3
744,887	0,3
745,323	0,3
745,76	0,3
746,196	0,3
746,632	0,3
747,069	0,3
747,505	0,3
747,941	0,3
748,378	0,3
748,814	0,3
749,25	0,3
749,686	0,3
750,122	0,3
750,558	0,31
750,994	0,31
751,43	0,31
751,866	0,31
752,302	0,31
752,738	0,31
753,174	0,31
753,61	0,32
754,046	0,32
754,482	0,32
754,918	0,32
755,354	0,32
755,789	0,32
756,225	0,31
756,661	0,31
757,096	0,31
757,532	0,31
757,968	0,31
758,403	0,31
758,839	0,31
759,274	0,3
759,71	0,3
760,145	0,3
760,581	0,29
761,016	0,29
761,452	0,29
761,887	0,28
762,322	0,28
762,758	0,28
763,193	0,27
763,628	0,27
764,063	0,26
764,499	0,26
764,934	0,25
765,369	0,24
765,804	0,24
766,239	0,24
766,674	0,23
767,109	0,22
767,544	0,22
767,979	0,21
768,414	0,21
768,849	0,2
769,284	0,2
769,719	0,19
770,154	0,19
770,588	0,18
771,023	0,17
771,458	0,16
771,893	0,15
772,327	0,14
772,762	0,13
773,197	0,12
773,631	0,12
774,066	0,11
774,5	0,1
774,935	0,09
775,369	0,08
775,804	0,07
776,238	0,06
776,673	0,05
777,107	0,04
777,541	0,04
777,976	0,03
778,41	0,02
778,844	0,01
779,279	0,01
779,713	0
780,147	-0
780,581	-0,01
781,015	-0,01
781,449	-0,03
781,883	-0,03
782,317	-0,04
782,751	-0,05
783,185	-0,06
783,619	-0,06
784,053	-0,07
784,487	-0,08
784,921	-0,08
785,355	-0,09
785,789	-0,1
786,223	-0,1
786,656	-0,11
787,09	-0,12
787,524	-0,13
787,957	-0,14
788,391	-0,16
788,825	-0,17
789,258	-0,18
789,692	-0,2
790,125	-0,21
790,559	-0,23
790,992	-0,25
791,426	-0,28
791,859	-0,29
792,293	-0,32
792,726	-0,33
793,159	-0,35
793,593	-0,37
794,026	-0,4
794,459	-0,42
794,892	-0,45
795,326	-0,47
795,759	-0,51
796,192	-0,55
796,625	-0,6
797,058	-0,62
797,491	-0,66
797,924	-0,7
798,357	-0,75
798,79	-0,79
799,223	-0,83
799,656	-0,89
800,089	-0,94
800,522	-0,98
800,955	-1,02
801,387	-1,08
801,82	-1,13
802,253	-1,2
802,686	-1,28
803,118	-1,33
803,551	-1,39
803,984	-1,43
804,416	-1,47
804,849	-1,5
805,281	-1,62
805,714	-1,97
806,146	-2,43
806,579	-2,7
807,011	-2,86
807,444	-2,96
807,876	-3,05
808,308	-3,09
808,741	-3,12
809,173	-3,17
809,605	-3,2
810,037	-3,27
810,47	-3,19
810,902	-3
811,334	-2,86
811,766	-2,71
812,198	-2,49
812,63	-2,07
813,062	-1,81
813,494	-1,7
813,926	-1,61
814,358	-1,55
814,79	-1,47
815,222	-1,41
815,654	-1,36
816,086	-1,3
816,518	-1,24
816,949	-1,19
817,381	-1,15
817,813	-1,13
818,245	-1,09
818,676	-1,05
819,108	-1,01
819,54	-1
819,971	-0,97
820,403	-0,92
820,834	-0,91
821,266	-0,87
821,697	-0,84
822,129	-0,83
822,56	-0,8
822,991	-0,78
823,423	-0,75
823,854	-0,74
824,286	-0,71
824,717	-0,7
825,148	-0,68
825,579	-0,67
826,01	-0,66
826,442	-0,65
826,873	-0,63
827,304	-0,6
827,735	-0,59
828,166	-0,59
828,597	-0,6
829,028	-0,59
829,459	-0,6
829,89	-0,6
830,321	-0,55
830,752	-0,56
831,183	-0,55
831,613	-0,54
832,044	-0,54
832,475	-0,54
832,906	-0,55
833,336	-0,55
833,767	-0,55
834,198	-0,54
834,628	-0,51
835,059	-0,54
835,49	-0,54
835,92	-0,51
836,351	-0,51
836,781	-0,51
837,212	-0,51
837,642	-0,51
838,072	-0,49
838,503	-0,5
838,933	-0,48
839,364	-0,49
839,794	-0,47
840,224	-0,46
840,654	-0,51
841,085	-0,51
841,515	-0,49
841,945	-0,5
842,375	-0,46
842,805	-0,44
843,235	-0,43
843,665	-0,45
844,095	-0,43
844,525	-0,45
844,955	-0,46
845,385	-0,43
845,815	-0,42
846,245	-0,44
846,675	-0,45
847,105	-0,46
847,534	-0,47
847,964	-0,45
848,394	-0,45
848,824	-0,48
849,253	-0,48
849,683	-0,48
850,112	-0,5
850,542	-0,53
850,972	-0,53
851,401	-0,51
851,831	-0,49
852,26	-0,49
852,69	-0,53
853,119	-0,51
853,548	-0,51
853,978	-0,51
854,407	-0,49
854,836	-0,49
855,266	-0,47
855,695	-0,49
856,124	-0,5
856,553	-0,51
856,983	-0,53
857,412	-0,52
857,841	-0,54
858,27	-0,55
858,699	-0,56
859,128	-0,59
859,557	-0,6
859,986	-0,61
860,415	-0,59
860,844	-0,56
861,273	-0,57
861,702	-0,57
862,13	-0,56
862,559	-0,57
862,988	-0,54
863,417	-0,53
863,845	-0,52
864,274	-0,52
864,703	-0,52
865,131	-0,53
865,56	-0,54
865,989	-0,57
866,417	-0,53
866,846	-0,54
867,274	-0,53
867,703	-0,55
868,131	-0,56
868,559	-0,57
868,988	-0,59
869,416	-0,58
869,844	-0,6
870,273	-0,62
870,701	-0,59
871,129	-0,64
871,557	-0,66
871,986	-0,66
872,414	-0,67
872,842	-0,65
873,27	-0,63
873,698	-0,59
874,126	-0,63
874,554	-0,61
874,982	-0,61
875,41	-0,64
875,838	-0,59
876,266	-0,55
876,694	-0,56
877,122	-0,55
877,549	-0,6
877,977	-0,57
878,405	-0,6
878,833	-0,57
879,26	-0,55
879,688	-0,56
880,116	-0,54
880,543	-0,52
880,971	-0,52
881,399	-0,55
881,826	-0,56
882,254	-0,54
882,681	-0,57
883,109	-0,53
883,536	-0,54
883,963	-0,56
884,391	-0,55
884,818	-0,54
885,245	-0,57
885,673	-0,59
886,1	-0,56
886,527	-0,56
886,954	-0,52
887,381	-0,53
887,809	-0,54
888,236	-0,55
888,663	-0,55
889,09	-0,59
889,517	-0,61
889,944	-0,6
890,371	-0,59
890,798	-0,6
891,225	-0,6
891,652	-0,63
892,078	-0,61
892,505	-0,64
892,932	-0,6
893,359	-0,61
893,786	-0,6
894,212	-0,56
894,639	-0,58
895,066	-0,6
895,492	-0,55
895,919	-0,55
896,346	-0,54
896,772	-0,55
897,199	-0,52
897,625	-0,55
898,052	-0,51
898,478	-0,5
898,904	-0,51
899,331	-0,51
899,757	-0,52
900,183	-0,54
900,61	-0,52
901,036	-0,53
901,462	-0,53
901,888	-0,53
902,315	-0,51
902,741	-0,57
903,167	-0,55
903,593	-0,58
904,019	-0,57
904,445	-0,53
904,871	-0,56
905,297	-0,58
905,723	-0,57
906,149	-0,56
906,575	-0,56
907,001	-0,57
907,427	-0,54
907,852	-0,53
908,278	-0,53
908,704	-0,51
909,13	-0,5
909,555	-0,5
909,981	-0,5
910,407	-0,5
910,832	-0,49
911,258	-0,49
911,684	-0,49
912,109	-0,49
912,535	-0,51
912,96	-0,46
913,386	-0,51
913,811	-0,5
914,236	-0,52
914,662	-0,49
915,087	-0,53
915,512	-0,54
915,938	-0,56
916,363	-0,56
916,788	-0,57
917,213	-0,55
917,639	-0,61
918,064	-0,59
918,489	-0,59
918,914	-0,6
919,339	-0,61
919,764	-0,58
920,189	-0,58
920,614	-0,6
921,039	-0,6
921,464	-0,55
921,889	-0,58
922,314	-0,58
922,738	-0,61
923,163	-0,63
923,588	-0,61
924,013	-0,61
924,437	-0,59
924,862	-0,61
925,287	-0,57
925,711	-0,58
926,136	-0,6
926,561	-0,58
926,985	-0,57
927,41	-0,54
927,834	-0,52
928,259	-0,49
928,683	-0,48
929,108	-0,46
929,532	-0,47
929,956	-0,46
930,381	-0,45
930,805	-0,45
931,229	-0,45
931,653	-0,43
932,078	-0,43
932,502	-0,45
932,926	-0,46
933,35	-0,46
933,774	-0,46
934,198	-0,44
934,622	-0,43
935,046	-0,44
935,47	-0,44
935,894	-0,43
936,318	-0,42
936,742	-0,43
937,166	-0,43
937,59	-0,41
938,014	-0,44
938,437	-0,44
938,861	-0,46
939,285	-0,47
939,709	-0,47
940,132	-0,47
940,556	-0,47
940,98	-0,48
941,403	-0,46
941,827	-0,47
942,25	-0,49
942,674	-0,47
943,097	-0,47
943,521	-0,47
943,944	-0,47
944,368	-0,47
944,791	-0,46
945,214	-0,48
945,638	-0,48
946,061	-0,52
946,484	-0,52
946,907	-0,51
947,331	-0,51
947,754	-0,54
948,177	-0,52
948,6	-0,51
949,023	-0,51
949,446	-0,5
949,869	-0,48
950,292	-0,47
950,715	-0,44
951,138	-0,42
951,561	-0,39
951,984	-0,4
952,407	-0,39
952,83	-0,37
953,252	-0,33
953,675	-0,33
954,098	-0,33
954,521	-0,33
954,943	-0,32
955,366	-0,33
955,789	-0,32
956,211	-0,33
956,634	-0,33
957,056	-0,31
957,479	-0,33
957,902	-0,36
958,324	-0,36
958,746	-0,35
959,169	-0,35
959,591	-0,36
960,014	-0,37
960,436	-0,37
960,858	-0,38
961,281	-0,38
961,703	-0,39
962,125	-0,39
962,547	-0,37
962,969	-0,37
963,391	-0,38
963,814	-0,39
964,236	-0,38
964,658	-0,34
965,08	-0,36
965,502	-0,34
965,924	-0,31
966,346	-0,31
966,768	-0,29
967,189	-0,31
967,611	-0,31
968,033	-0,31
968,455	-0,3
968,877	-0,3
969,298	-0,31
969,72	-0,32
970,142	-0,31
970,563	-0,32
970,985	-0,31
971,407	-0,3
971,828	-0,29
972,25	-0,28
972,671	-0,27
973,093	-0,26
973,514	-0,25
973,936	-0,23
974,357	-0,23
974,778	-0,23
975,2	-0,22
975,621	-0,22
976,042	-0,19
976,464	-0,18
976,885	-0,17
977,306	-0,16
977,727	-0,15
978,148	-0,14
978,57	-0,13
978,991	-0,11
979,412	-0,09
979,833	-0,09
980,254	-0,09
980,675	-0,09
981,096	-0,08
981,517	-0,07
981,937	-0,06
982,358	-0,05
982,779	-0,04
983,2	-0,03
983,621	-0,03
984,042	-0,02
984,462	-0,01
984,883	-0
985,304	0,01
985,724	0,02
986,145	0,03
986,565	0,04
986,986	0,04
987,407	0,05
987,827	0,06
988,248	0,07
988,668	0,08
989,088	0,09
989,509	0,1
989,929	0,1
990,35	0,12
990,77	0,13
991,19	0,13
991,61	0,14
992,031	0,14
992,451	0,15
992,871	0,16
993,291	0,17
993,711	0,18
994,131	0,18
994,551	0,19
994,971	0,19
995,391	0,2
995,811	0,2
996,231	0,2
996,651	0,21
997,071	0,21
997,491	0,22
997,911	0,22
998,331	0,23
998,75	0,23
999,17	0,24
999,59	0,24
1000,009	0,24
1000,429	0,25
1000,849	0,25
1001,268	0,26
1001,688	0,26
1002,107	0,26
1002,527	0,27
1002,946	0,27
1003,366	0,27
1003,785	0,27
1004,205	0,27
1004,624	0,28
1005,044	0,28
1005,463	0,28
1005,882	0,28
1006,301	0,28
1006,721	0,28
1007,14	0,28
1007,559	0,28
1007,978	0,28
1008,397	0,28
1008,816	0,28
1009,235	0,28
1009,655	0,28
1010,074	0,28
1010,492	0,28
1010,911	0,28
1011,33	0,28
1011,749	0,28
1012,168	0,28
1012,587	0,28
1013,006	0,27
1013,425	0,27
1013,843	0,27
1014,262	0,27
1014,681	0,27
1015,099	0,27
1015,518	0,27
1015,937	0,27
1016,355	0,27
1016,774	0,27
1017,192	0,27
1017,611	0,27
1018,029	0,27
1018,448	0,27
1018,866	0,27
1019,285	0,27
1019,703	0,27
1020,121	0,27
1020,54	0,27
1020,958	0,27
1021,376	0,28
1021,794	0,28
1022,213	0,27
1022,631	0,27
1023,049	0,27
1023,467	0,27
1023,885	0,27
1024,303	0,27
1024,721	0,27
1025,139	0,27
1025,557	0,27
1025,975	0,27
1026,393	0,27
1026,811	0,27
1027,229	0,27
1027,647	0,27
1028,065	0,27
1028,482	0,26
1028,9	0,27
1029,318	0,27
1029,735	0,26
1030,153	0,26
1030,571	0,26
1030,988	0,27
1031,406	0,27
1031,823	0,27
1032,241	0,27
1032,659	0,27
1033,076	0,27
1033,493	0,27
1033,911	0,27
1034,328	0,27
1034,746	0,27
1035,163	0,27
1035,58	0,26
1035,997	0,26
1036,415	0,26
1036,832	0,26
1037,249	0,26
1037,666	0,26
1038,083	0,26
1038,501	0,26
1038,918	0,26
1039,335	0,26
1039,752	0,26
1040,169	0,26
1040,586	0,26
1041,003	0,26
1041,419	0,26
1041,836	0,26
1042,253	0,26
1042,67	0,26
1043,087	0,26
1043,504	0,26
1043,92	0,26
1044,337	0,26
1044,754	0,26
1045,17	0,26
1045,587	0,26
1046,004	0,26
1046,42	0,26
1046,837	0,26
1047,253	0,25
1047,67	0,26
1048,086	0,25
1048,503	0,26
1048,919	0,25
1049,335	0,26
1049,752	0,26
1050,168	0,26
1050,584	0,26
1051,001	0,26
1051,417	0,26
1051,833	0,26
1052,249	0,26
1052,665	0,26
1053,081	0,26
1053,497	0,26
1053,914	0,26
1054,33	0,26
1054,746	0,26
1055,162	0,26
1055,578	0,26
1055,993	0,26
1056,409	0,26
1056,825	0,26
1057,241	0,26
1057,657	0,27
1058,073	0,27
1058,488	0,27
1058,904	0,27
1059,32	0,27
1059,736	0,27
1060,151	0,27
1060,567	0,27
1060,982	0,27
1061,398	0,27
1061,813	0,26
1062,229	0,26
1062,644	0,26
1063,06	0,26
1063,475	0,26
1063,891	0,26
1064,306	0,26
1064,721	0,26
1065,137	0,26
1065,552	0,26
1065,967	0,26
1066,382	0,26
1066,798	0,26
1067,213	0,26
1067,628	0,26
1068,043	0,26
1068,458	0,26
1068,873	0,26
1069,288	0,26
1069,703	0,26
1070,118	0,27
1070,533	0,27
1070,948	0,27
1071,363	0,27
1071,778	0,27
1072,193	0,27
1072,607	0,27
1073,022	0,27
1073,437	0,27
1073,852	0,27
1074,266	0,27
1074,681	0,27
1075,096	0,27
1075,51	0,27
1075,925	0,27
1076,339	0,27
1076,754	0,27
1077,168	0,27
1077,583	0,27
1077,997	0,27
1078,412	0,26
1078,826	0,26
1079,24	0,26
1079,655	0,26
1080,069	0,26
1080,483	0,26
1080,897	0,26
1081,312	0,26
1081,726	0,26
1082,14	0,26
1082,554	0,26
1082,968	0,26
1083,382	0,25
1083,796	0,25
1084,21	0,25
1084,624	0,25
1085,038	0,25
1085,452	0,25
1085,866	0,25
1086,28	0,25
1086,694	0,25
1087,108	0,25
1087,521	0,25
1087,935	0,25
1088,349	0,25
1088,763	0,24
1089,176	0,24
1089,59	0,24
1090,004	0,24
1090,417	0,23
1090,831	0,23
1091,244	0,23
1091,658	0,23
1092,071	0,22
1092,485	0,22
1092,898	0,22
1093,312	0,22
1093,725	0,22
1094,138	0,21
1094,552	0,21
1094,965	0,21
1095,378	0,21
1095,791	0,21
1096,205	0,21
1096,618	0,21
1097,031	0,21
1097,444	0,2
1097,857	0,2
1098,27	0,2
1098,683	0,2
1099,096	0,19
1099,509	0,19
1099,922	0,19
1100,335	0,18
1100,748	0,18
1101,161	0,18
1101,574	0,18
1101,986	0,17
1102,399	0,17
1102,812	0,17
1103,225	0,16
1103,637	0,16
1104,05	0,16
1104,463	0,16
1104,875	0,16
1105,288	0,16
1105,7	0,15
1106,113	0,15
1106,525	0,15
1106,938	0,14
1107,35	0,14
1107,763	0,14
1108,175	0,14
1108,588	0,13
1109	0,13
1109,412	0,13
1109,824	0,13
1110,237	0,13
1110,649	0,12
1111,061	0,11
