Data from 18C-808nm-8A-cont_Absorbance__264__01693.txt Node

Date: Mon Jul 17 17:27:35 CEST 2023
User: Laser008
Spectrometer: MAYP115816
Trigger mode: 0
Integration Time (sec): 2,500000E-1
Scans to average: 10
Electric dark correction enabled: true
Nonlinearity correction enabled: true
Boxcar width: 5
XAxis mode: Wavelengths
Number of Pixels in Spectrum: 2068
>>>>>Begin Spectral Data<<<<<
198,914	-0,65
199,384	-0,44
199,855	-0,32
200,325	-0,25
200,796	-0,22
201,266	-0,17
201,737	-0,16
202,207	-0,14
202,677	-0,14
203,147	-0,12
203,618	-0,1
204,088	-0,08
204,558	-0,07
205,028	-0,06
205,498	-0,06
205,968	-0,07
206,439	-0,08
206,909	-0,07
207,379	-0,08
207,849	-0,08
208,319	-0,08
208,789	-0,09
209,258	-0,09
209,728	-0,1
210,198	-0,1
210,668	-0,1
211,138	-0,1
211,608	-0,11
212,077	-0,11
212,547	-0,11
213,017	-0,11
213,486	-0,11
213,956	-0,12
214,426	-0,13
214,895	-0,14
215,365	-0,15
215,834	-0,15
216,304	-0,16
216,773	-0,16
217,243	-0,18
217,712	-0,19
218,181	-0,19
218,651	-0,2
219,12	-0,19
219,589	-0,19
220,058	-0,18
220,528	-0,18
220,997	-0,19
221,466	-0,19
221,935	-0,19
222,404	-0,18
222,873	-0,16
223,342	-0,16
223,812	-0,16
224,281	-0,16
224,749	-0,17
225,218	-0,18
225,687	-0,19
226,156	-0,18
226,625	-0,17
227,094	-0,17
227,563	-0,17
228,031	-0,18
228,5	-0,18
228,969	-0,19
229,438	-0,18
229,906	-0,16
230,375	-0,14
230,844	-0,14
231,312	-0,14
231,781	-0,14
232,249	-0,13
232,718	-0,14
233,186	-0,12
233,655	-0,13
234,123	-0,12
234,591	-0,13
235,06	-0,13
235,528	-0,13
235,996	-0,13
236,465	-0,12
236,933	-0,12
237,401	-0,12
237,869	-0,11
238,337	-0,11
238,805	-0,1
239,274	-0,1
239,742	-0,1
240,21	-0,1
240,678	-0,1
241,146	-0,09
241,614	-0,1
242,081	-0,09
242,549	-0,09
243,017	-0,1
243,485	-0,11
243,953	-0,1
244,421	-0,1
244,888	-0,1
245,356	-0,1
245,824	-0,1
246,291	-0,1
246,759	-0,1
247,227	-0,11
247,694	-0,1
248,162	-0,09
248,629	-0,08
249,097	-0,09
249,564	-0,09
250,032	-0,1
250,499	-0,11
250,967	-0,11
251,434	-0,12
251,901	-0,12
252,369	-0,12
252,836	-0,13
253,303	-0,14
253,77	-0,14
254,237	-0,14
254,705	-0,14
255,172	-0,13
255,639	-0,12
256,106	-0,14
256,573	-0,15
257,04	-0,14
257,507	-0,15
257,974	-0,15
258,441	-0,14
258,908	-0,15
259,375	-0,17
259,841	-0,17
260,308	-0,17
260,775	-0,18
261,242	-0,17
261,709	-0,17
262,175	-0,18
262,642	-0,17
263,109	-0,17
263,575	-0,18
264,042	-0,16
264,508	-0,16
264,975	-0,16
265,441	-0,19
265,908	-0,19
266,374	-0,18
266,841	-0,18
267,307	-0,18
267,773	-0,18
268,24	-0,18
268,706	-0,18
269,172	-0,19
269,639	-0,2
270,105	-0,19
270,571	-0,19
271,037	-0,19
271,503	-0,2
271,969	-0,2
272,435	-0,19
272,902	-0,21
273,368	-0,23
273,834	-0,21
274,3	-0,21
274,765	-0,2
275,231	-0,21
275,697	-0,19
276,163	-0,18
276,629	-0,19
277,095	-0,2
277,56	-0,19
278,026	-0,19
278,492	-0,18
278,958	-0,18
279,423	-0,18
279,889	-0,18
280,354	-0,18
280,82	-0,19
281,286	-0,2
281,751	-0,21
282,217	-0,2
282,682	-0,2
283,147	-0,2
283,613	-0,2
284,078	-0,21
284,544	-0,22
285,009	-0,24
285,474	-0,24
285,939	-0,25
286,405	-0,24
286,87	-0,23
287,335	-0,22
287,8	-0,21
288,265	-0,2
288,73	-0,21
289,195	-0,23
289,66	-0,22
290,125	-0,2
290,59	-0,2
291,055	-0,19
291,52	-0,18
291,985	-0,2
292,45	-0,21
292,915	-0,21
293,38	-0,21
293,844	-0,2
294,309	-0,18
294,774	-0,17
295,239	-0,19
295,703	-0,2
296,168	-0,19
296,632	-0,18
297,097	-0,16
297,562	-0,15
298,026	-0,15
298,491	-0,15
298,955	-0,15
299,419	-0,14
299,884	-0,14
300,348	-0,13
300,813	-0,12
301,277	-0,13
301,741	-0,13
302,205	-0,14
302,67	-0,14
303,134	-0,14
303,598	-0,13
304,062	-0,12
304,526	-0,12
304,99	-0,13
305,454	-0,13
305,919	-0,12
306,383	-0,12
306,847	-0,12
307,31	-0,13
307,774	-0,14
308,238	-0,13
308,702	-0,13
309,166	-0,14
309,63	-0,14
310,094	-0,12
310,557	-0,11
311,021	-0,11
311,485	-0,11
311,948	-0,11
312,412	-0,1
312,876	-0,09
313,339	-0,1
313,803	-0,1
314,266	-0,09
314,73	-0,09
315,193	-0,1
315,657	-0,09
316,12	-0,09
316,584	-0,08
317,047	-0,08
317,51	-0,07
317,973	-0,05
318,437	-0,04
318,9	-0,03
319,363	-0,02
319,826	-0,02
320,29	-0,02
320,753	-0,03
321,216	-0,02
321,679	-0,03
322,142	-0,02
322,605	-0,03
323,068	-0,03
323,531	-0,04
323,994	-0,03
324,457	-0,04
324,92	-0,03
325,382	-0,03
325,845	-0,03
326,308	-0,02
326,771	-0,01
327,233	-0
327,696	0
328,159	0,01
328,622	0,01
329,084	0,01
329,547	0,02
330,009	0,02
330,472	0,03
330,934	0,05
331,397	0,04
331,859	0,05
332,322	0,05
332,784	0,05
333,246	0,05
333,709	0,06
334,171	0,06
334,633	0,07
335,096	0,07
335,558	0,07
336,02	0,07
336,482	0,07
336,944	0,08
337,406	0,09
337,868	0,09
338,331	0,1
338,793	0,11
339,255	0,12
339,717	0,12
340,178	0,13
340,64	0,14
341,102	0,15
341,564	0,16
342,026	0,17
342,488	0,17
342,949	0,19
343,411	0,22
343,873	0,25
344,335	0,27
344,796	0,3
345,258	0,34
345,719	0,38
346,181	0,42
346,643	0,46
347,104	0,49
347,566	0,52
348,027	0,55
348,488	0,57
348,95	0,59
349,411	0,61
349,873	0,63
350,334	0,65
350,795	0,67
351,256	0,68
351,718	0,68
352,179	0,69
352,64	0,69
353,101	0,7
353,562	0,7
354,023	0,7
354,484	0,7
354,945	0,71
355,406	0,71
355,867	0,71
356,328	0,71
356,789	0,71
357,25	0,72
357,711	0,72
358,172	0,72
358,633	0,72
359,093	0,72
359,554	0,72
360,015	0,73
360,476	0,73
360,936	0,73
361,397	0,73
361,858	0,73
362,318	0,73
362,779	0,73
363,239	0,73
363,7	0,73
364,16	0,73
364,621	0,73
365,081	0,73
365,541	0,73
366,002	0,73
366,462	0,73
366,922	0,73
367,383	0,73
367,843	0,73
368,303	0,73
368,763	0,73
369,223	0,73
369,684	0,73
370,144	0,73
370,604	0,73
371,064	0,73
371,524	0,73
371,984	0,73
372,444	0,73
372,904	0,73
373,363	0,73
373,823	0,73
374,283	0,73
374,743	0,73
375,203	0,73
375,663	0,73
376,122	0,73
376,582	0,73
377,042	0,73
377,501	0,73
377,961	0,73
378,42	0,73
378,88	0,73
379,34	0,73
379,799	0,73
380,259	0,73
380,718	0,72
381,177	0,72
381,637	0,72
382,096	0,72
382,555	0,72
383,015	0,72
383,474	0,72
383,933	0,72
384,393	0,72
384,852	0,72
385,311	0,72
385,77	0,72
386,229	0,72
386,688	0,72
387,147	0,72
387,606	0,72
388,065	0,72
388,524	0,72
388,983	0,72
389,442	0,72
389,901	0,72
390,36	0,72
390,819	0,72
391,277	0,72
391,736	0,72
392,195	0,72
392,654	0,72
393,112	0,72
393,571	0,72
394,03	0,71
394,488	0,71
394,947	0,71
395,405	0,71
395,864	0,71
396,322	0,71
396,781	0,71
397,239	0,71
397,698	0,71
398,156	0,71
398,614	0,71
399,073	0,71
399,531	0,71
399,989	0,71
400,447	0,71
400,905	0,71
401,364	0,71
401,822	0,71
402,28	0,71
402,738	0,71
403,196	0,71
403,654	0,71
404,112	0,71
404,57	0,71
405,028	0,71
405,486	0,71
405,944	0,71
406,402	0,71
406,859	0,71
407,317	0,71
407,775	0,71
408,233	0,71
408,691	0,71
409,148	0,71
409,606	0,71
410,064	0,71
410,521	0,71
410,979	0,71
411,436	0,71
411,894	0,71
412,351	0,71
412,809	0,7
413,266	0,7
413,724	0,7
414,181	0,7
414,638	0,7
415,096	0,7
415,553	0,7
416,01	0,7
416,467	0,7
416,925	0,7
417,382	0,7
417,839	0,7
418,296	0,7
418,753	0,7
419,21	0,7
419,667	0,7
420,124	0,7
420,581	0,7
421,038	0,7
421,495	0,7
421,952	0,7
422,409	0,7
422,866	0,7
423,322	0,7
423,779	0,7
424,236	0,7
424,693	0,7
425,149	0,7
425,606	0,7
426,063	0,7
426,519	0,7
426,976	0,7
427,433	0,7
427,889	0,7
428,346	0,7
428,802	0,7
429,258	0,7
429,715	0,7
430,171	0,7
430,628	0,7
431,084	0,7
431,54	0,7
431,997	0,7
432,453	0,7
432,909	0,7
433,365	0,7
433,821	0,7
434,277	0,7
434,734	0,7
435,19	0,7
435,646	0,7
436,102	0,7
436,558	0,7
437,014	0,7
437,47	0,7
437,925	0,7
438,381	0,7
438,837	0,7
439,293	0,7
439,749	0,7
440,205	0,7
440,66	0,7
441,116	0,7
441,572	0,7
442,027	0,7
442,483	0,7
442,939	0,7
443,394	0,7
443,85	0,7
444,305	0,7
444,761	0,7
445,216	0,7
445,672	0,7
446,127	0,7
446,582	0,7
447,038	0,7
447,493	0,7
447,948	0,7
448,403	0,7
448,859	0,7
449,314	0,7
449,769	0,7
450,224	0,7
450,679	0,7
451,134	0,7
451,589	0,7
452,044	0,7
452,499	0,71
452,954	0,71
453,409	0,71
453,864	0,71
454,319	0,71
454,774	0,71
455,229	0,71
455,684	0,71
456,138	0,71
456,593	0,71
457,048	0,71
457,503	0,71
457,957	0,71
458,412	0,71
458,866	0,71
459,321	0,71
459,776	0,71
460,23	0,71
460,685	0,71
461,139	0,71
461,593	0,71
462,048	0,71
462,502	0,71
462,957	0,71
463,411	0,71
463,865	0,72
464,319	0,72
464,774	0,72
465,228	0,72
465,682	0,72
466,136	0,72
466,59	0,72
467,044	0,72
467,499	0,72
467,953	0,72
468,407	0,72
468,861	0,72
469,315	0,72
469,768	0,72
470,222	0,73
470,676	0,73
471,13	0,73
471,584	0,73
472,038	0,73
472,491	0,73
472,945	0,73
473,399	0,73
473,852	0,73
474,306	0,73
474,76	0,73
475,213	0,73
475,667	0,74
476,12	0,74
476,574	0,74
477,027	0,74
477,481	0,74
477,934	0,74
478,388	0,74
478,841	0,75
479,294	0,75
479,748	0,75
480,201	0,75
480,654	0,75
481,107	0,75
481,561	0,76
482,014	0,76
482,467	0,76
482,92	0,76
483,373	0,76
483,826	0,76
484,279	0,77
484,732	0,77
485,185	0,77
485,638	0,77
486,091	0,77
486,544	0,77
486,997	0,78
487,449	0,78
487,902	0,78
488,355	0,78
488,808	0,79
489,26	0,79
489,713	0,79
490,166	0,79
490,618	0,8
491,071	0,8
491,523	0,8
491,976	0,8
492,429	0,81
492,881	0,81
493,333	0,81
493,786	0,82
494,238	0,82
494,691	0,82
495,143	0,82
495,595	0,83
496,048	0,83
496,5	0,83
496,952	0,84
497,404	0,84
497,856	0,84
498,309	0,85
498,761	0,85
499,213	0,85
499,665	0,86
500,117	0,86
500,569	0,86
501,021	0,87
501,473	0,87
501,925	0,88
502,377	0,88
502,828	0,88
503,28	0,89
503,732	0,89
504,184	0,89
504,636	0,9
505,087	0,9
505,539	0,9
505,991	0,91
506,442	0,91
506,894	0,92
507,345	0,92
507,797	0,92
508,249	0,93
508,7	0,93
509,151	0,93
509,603	0,94
510,054	0,94
510,506	0,94
510,957	0,95
511,408	0,95
511,86	0,95
512,311	0,96
512,762	0,96
513,213	0,96
513,665	0,97
514,116	0,97
514,567	0,97
515,018	0,98
515,469	0,98
515,92	0,98
516,371	0,99
516,822	0,99
517,273	0,99
517,724	1
518,175	1
518,626	1
519,076	1
519,527	1,01
519,978	1,01
520,429	1,01
520,88	1,01
521,33	1,01
521,781	1,02
522,232	1,02
522,682	1,02
523,133	1,02
523,583	1,02
524,034	1,02
524,484	1,02
524,935	1,02
525,385	1,02
525,836	1,03
526,286	1,03
526,736	1,03
527,187	1,02
527,637	1,02
528,087	1,02
528,538	1,02
528,988	1,02
529,438	1,02
529,888	1,02
530,338	1,02
530,788	1,02
531,238	1,02
531,688	1,02
532,139	1,01
532,589	1,01
533,038	1,01
533,488	1,01
533,938	1,01
534,388	1,01
534,838	1
535,288	1
535,738	1
536,187	0,99
536,637	0,99
537,087	0,99
537,537	0,99
537,986	0,98
538,436	0,98
538,885	0,97
539,335	0,97
539,785	0,96
540,234	0,96
540,684	0,96
541,133	0,95
541,582	0,95
542,032	0,94
542,481	0,94
542,931	0,93
543,38	0,93
543,829	0,92
544,278	0,92
544,728	0,92
545,177	0,91
545,626	0,91
546,075	0,91
546,524	0,9
546,973	0,9
547,422	0,9
547,871	0,89
548,32	0,89
548,769	0,89
549,218	0,88
549,667	0,88
550,116	0,88
550,565	0,87
551,014	0,87
551,463	0,86
551,911	0,86
552,36	0,86
552,809	0,85
553,258	0,85
553,706	0,84
554,155	0,84
554,603	0,83
555,052	0,83
555,501	0,83
555,949	0,82
556,398	0,82
556,846	0,81
557,294	0,81
557,743	0,81
558,191	0,8
558,64	0,8
559,088	0,79
559,536	0,79
559,985	0,78
560,433	0,78
560,881	0,77
561,329	0,77
561,777	0,77
562,225	0,76
562,674	0,76
563,122	0,76
563,57	0,75
564,018	0,75
564,466	0,74
564,914	0,74
565,362	0,74
565,809	0,73
566,257	0,73
566,705	0,73
567,153	0,72
567,601	0,72
568,048	0,71
568,496	0,71
568,944	0,71
569,392	0,7
569,839	0,7
570,287	0,7
570,734	0,7
571,182	0,69
571,63	0,69
572,077	0,69
572,525	0,68
572,972	0,68
573,419	0,68
573,867	0,67
574,314	0,67
574,761	0,67
575,209	0,66
575,656	0,66
576,103	0,66
576,551	0,65
576,998	0,65
577,445	0,65
577,892	0,65
578,339	0,64
578,786	0,64
579,233	0,64
579,68	0,63
580,127	0,63
580,574	0,63
581,021	0,63
581,468	0,62
581,915	0,62
582,362	0,62
582,809	0,62
583,255	0,62
583,702	0,61
584,149	0,61
584,596	0,61
585,042	0,61
585,489	0,6
585,936	0,6
586,382	0,6
586,829	0,6
587,275	0,6
587,722	0,59
588,168	0,59
588,615	0,59
589,061	0,59
589,508	0,59
589,954	0,58
590,4	0,58
590,847	0,58
591,293	0,58
591,739	0,58
592,185	0,58
592,632	0,57
593,078	0,57
593,524	0,57
593,97	0,57
594,416	0,57
594,862	0,57
595,308	0,57
595,754	0,57
596,2	0,56
596,646	0,56
597,092	0,56
597,538	0,56
597,984	0,56
598,43	0,56
598,876	0,56
599,321	0,56
599,767	0,55
600,213	0,55
600,659	0,55
601,104	0,55
601,55	0,55
601,995	0,55
602,441	0,55
602,887	0,54
603,332	0,54
603,778	0,54
604,223	0,54
604,668	0,54
605,114	0,54
605,559	0,54
606,005	0,54
606,45	0,54
606,895	0,54
607,341	0,53
607,786	0,53
608,231	0,53
608,676	0,53
609,121	0,52
609,566	0,52
610,012	0,51
610,457	0,51
610,902	0,51
611,347	0,5
611,792	0,5
612,237	0,5
612,682	0,5
613,127	0,5
613,571	0,5
614,016	0,5
614,461	0,51
614,906	0,51
615,351	0,51
615,795	0,51
616,24	0,51
616,685	0,51
617,129	0,51
617,574	0,51
618,019	0,51
618,463	0,51
618,908	0,51
619,352	0,51
619,797	0,51
620,241	0,51
620,686	0,51
621,13	0,5
621,574	0,5
622,019	0,5
622,463	0,5
622,907	0,5
623,352	0,5
623,796	0,5
624,24	0,5
624,684	0,5
625,128	0,5
625,572	0,5
626,016	0,5
626,461	0,5
626,905	0,5
627,349	0,5
627,793	0,5
628,236	0,5
628,68	0,49
629,124	0,49
629,568	0,49
630,012	0,49
630,456	0,49
630,9	0,49
631,343	0,49
631,787	0,49
632,231	0,49
632,674	0,49
633,118	0,49
633,562	0,49
634,005	0,49
634,449	0,49
634,892	0,49
635,336	0,49
635,779	0,49
636,223	0,49
636,666	0,49
637,109	0,49
637,553	0,49
637,996	0,49
638,439	0,49
638,883	0,49
639,326	0,49
639,769	0,49
640,212	0,49
640,655	0,48
641,099	0,48
641,542	0,48
641,985	0,48
642,428	0,48
642,871	0,48
643,314	0,48
643,757	0,48
644,2	0,48
644,643	0,48
645,085	0,48
645,528	0,48
645,971	0,48
646,414	0,48
646,857	0,48
647,299	0,48
647,742	0,48
648,185	0,48
648,627	0,47
649,07	0,47
649,513	0,47
649,955	0,47
650,398	0,47
650,84	0,47
651,283	0,48
651,725	0,48
652,168	0,48
652,61	0,48
653,052	0,48
653,495	0,48
653,937	0,39
654,379	0,33
654,821	0,34
655,264	0,34
655,706	0,34
656,148	0,34
656,59	0,34
657,032	0,34
657,474	0,34
657,916	0,34
658,358	0,33
658,8	0,39
659,242	0,47
659,684	0,47
660,126	0,47
660,568	0,47
661,01	0,47
661,452	0,47
661,894	0,47
662,335	0,47
662,777	0,47
663,219	0,47
663,661	0,47
664,102	0,47
664,544	0,47
664,985	0,47
665,427	0,47
665,869	0,47
666,31	0,47
666,752	0,47
667,193	0,47
667,634	0,47
668,076	0,47
668,517	0,47
668,959	0,47
669,4	0,47
669,841	0,47
670,282	0,47
670,724	0,47
671,165	0,47
671,606	0,47
672,047	0,47
672,488	0,47
672,929	0,47
673,37	0,47
673,811	0,47
674,252	0,46
674,693	0,46
675,134	0,46
675,575	0,46
676,016	0,46
676,457	0,46
676,898	0,46
677,339	0,46
677,78	0,46
678,22	0,46
678,661	0,46
679,102	0,46
679,542	0,46
679,983	0,46
680,424	0,46
680,864	0,46
681,305	0,46
681,745	0,46
682,186	0,46
682,626	0,46
683,067	0,46
683,507	0,46
683,948	0,46
684,388	0,46
684,828	0,46
685,269	0,46
685,709	0,46
686,149	0,46
686,589	0,45
687,029	0,45
687,47	0,45
687,91	0,45
688,35	0,45
688,79	0,45
689,23	0,45
689,67	0,45
690,11	0,45
690,55	0,45
690,99	0,45
691,43	0,45
691,87	0,45
692,31	0,45
692,749	0,45
693,189	0,44
693,629	0,44
694,069	0,44
694,508	0,44
694,948	0,44
695,388	0,44
695,827	0,44
696,267	0,44
696,706	0,44
697,146	0,44
697,586	0,45
698,025	0,45
698,464	0,45
698,904	0,45
699,343	0,45
699,783	0,45
700,222	0,45
700,661	0,45
701,101	0,45
701,54	0,45
701,979	0,45
702,418	0,45
702,857	0,45
703,297	0,45
703,736	0,45
704,175	0,45
704,614	0,45
705,053	0,45
705,492	0,45
705,931	0,45
706,37	0,45
706,809	0,45
707,248	0,44
707,687	0,44
708,125	0,44
708,564	0,44
709,003	0,44
709,442	0,44
709,88	0,44
710,319	0,44
710,758	0,44
711,196	0,44
711,635	0,44
712,074	0,44
712,512	0,44
712,951	0,44
713,389	0,43
713,828	0,43
714,266	0,43
714,705	0,43
715,143	0,43
715,581	0,43
716,02	0,43
716,458	0,43
716,896	0,43
717,334	0,43
717,773	0,43
718,211	0,43
718,649	0,43
719,087	0,43
719,525	0,44
719,963	0,44
720,401	0,44
720,839	0,44
721,277	0,44
721,715	0,44
722,153	0,44
722,591	0,44
723,029	0,44
723,467	0,44
723,905	0,44
724,342	0,44
724,78	0,44
725,218	0,44
725,656	0,44
726,093	0,44
726,531	0,44
726,969	0,44
727,406	0,44
727,844	0,44
728,281	0,44
728,719	0,44
729,156	0,43
729,594	0,43
730,031	0,43
730,469	0,43
730,906	0,43
731,343	0,43
731,781	0,43
732,218	0,43
732,655	0,43
733,092	0,43
733,53	0,43
733,967	0,43
734,404	0,42
734,841	0,42
735,278	0,42
735,715	0,42
736,152	0,42
736,589	0,42
737,026	0,42
737,463	0,42
737,9	0,42
738,337	0,42
738,774	0,42
739,211	0,42
739,647	0,42
740,084	0,42
740,521	0,42
740,958	0,42
741,394	0,42
741,831	0,42
742,268	0,42
742,704	0,42
743,141	0,42
743,577	0,42
744,014	0,42
744,45	0,42
744,887	0,42
745,323	0,42
745,76	0,41
746,196	0,41
746,632	0,41
747,069	0,41
747,505	0,41
747,941	0,41
748,378	0,41
748,814	0,41
749,25	0,41
749,686	0,41
750,122	0,41
750,558	0,41
750,994	0,42
751,43	0,42
751,866	0,42
752,302	0,42
752,738	0,42
753,174	0,42
753,61	0,42
754,046	0,42
754,482	0,42
754,918	0,42
755,354	0,42
755,789	0,42
756,225	0,42
756,661	0,42
757,096	0,42
757,532	0,41
757,968	0,41
758,403	0,41
758,839	0,41
759,274	0,41
759,71	0,4
760,145	0,4
760,581	0,39
761,016	0,39
761,452	0,38
761,887	0,38
762,322	0,37
762,758	0,37
763,193	0,36
763,628	0,36
764,063	0,35
764,499	0,35
764,934	0,34
765,369	0,33
765,804	0,33
766,239	0,32
766,674	0,31
767,109	0,31
767,544	0,3
767,979	0,29
768,414	0,28
768,849	0,27
769,284	0,27
769,719	0,26
770,154	0,25
770,588	0,24
771,023	0,23
771,458	0,22
771,893	0,21
772,327	0,2
772,762	0,19
773,197	0,18
773,631	0,17
774,066	0,16
774,5	0,15
774,935	0,14
775,369	0,13
775,804	0,12
776,238	0,11
776,673	0,1
777,107	0,09
777,541	0,09
777,976	0,08
778,41	0,07
778,844	0,06
779,279	0,06
779,713	0,05
780,147	0,04
780,581	0,03
781,015	0,02
781,449	0,02
781,883	0,01
782,317	-0,01
782,751	-0,02
783,185	-0,03
783,619	-0,03
784,053	-0,05
784,487	-0,06
784,921	-0,06
785,355	-0,06
785,789	-0,08
786,223	-0,09
786,656	-0,1
787,09	-0,12
787,524	-0,12
787,957	-0,13
788,391	-0,15
788,825	-0,17
789,258	-0,18
789,692	-0,2
790,125	-0,22
790,559	-0,23
790,992	-0,25
791,426	-0,27
791,859	-0,28
792,293	-0,32
792,726	-0,33
793,159	-0,36
793,593	-0,37
794,026	-0,39
794,459	-0,42
794,892	-0,45
795,326	-0,48
795,759	-0,51
796,192	-0,56
796,625	-0,6
797,058	-0,63
797,491	-0,67
797,924	-0,71
798,357	-0,76
798,79	-0,8
799,223	-0,84
799,656	-0,9
800,089	-0,95
800,522	-0,99
800,955	-1,03
801,387	-1,09
801,82	-1,14
802,253	-1,21
802,686	-1,28
803,118	-1,34
803,551	-1,39
803,984	-1,44
804,416	-1,47
804,849	-1,51
805,281	-1,61
805,714	-1,96
806,146	-2,43
806,579	-2,7
807,011	-2,86
807,444	-2,96
807,876	-3,05
808,308	-3,08
808,741	-3,11
809,173	-3,16
809,605	-3,19
810,037	-3,26
810,47	-3,19
810,902	-2,99
811,334	-2,84
811,766	-2,69
812,198	-2,45
812,63	-2,02
813,062	-1,8
813,494	-1,7
813,926	-1,61
814,358	-1,55
814,79	-1,47
815,222	-1,41
815,654	-1,37
816,086	-1,3
816,518	-1,25
816,949	-1,19
817,381	-1,15
817,813	-1,13
818,245	-1,09
818,676	-1,05
819,108	-1,02
819,54	-1,01
819,971	-0,98
820,403	-0,93
820,834	-0,92
821,266	-0,88
821,697	-0,85
822,129	-0,84
822,56	-0,81
822,991	-0,79
823,423	-0,76
823,854	-0,76
824,286	-0,73
824,717	-0,72
825,148	-0,7
825,579	-0,69
826,01	-0,68
826,442	-0,67
826,873	-0,65
827,304	-0,61
827,735	-0,61
828,166	-0,61
828,597	-0,6
829,028	-0,6
829,459	-0,6
829,89	-0,6
830,321	-0,55
830,752	-0,56
831,183	-0,55
831,613	-0,54
832,044	-0,55
832,475	-0,54
832,906	-0,55
833,336	-0,56
833,767	-0,56
834,198	-0,55
834,628	-0,53
835,059	-0,56
835,49	-0,57
835,92	-0,55
836,351	-0,54
836,781	-0,54
837,212	-0,54
837,642	-0,54
838,072	-0,52
838,503	-0,53
838,933	-0,51
839,364	-0,52
839,794	-0,5
840,224	-0,48
840,654	-0,52
841,085	-0,53
841,515	-0,51
841,945	-0,51
842,375	-0,47
842,805	-0,46
843,235	-0,45
843,665	-0,48
844,095	-0,46
844,525	-0,47
844,955	-0,48
845,385	-0,45
845,815	-0,43
846,245	-0,45
846,675	-0,46
847,105	-0,48
847,534	-0,49
847,964	-0,47
848,394	-0,45
848,824	-0,48
849,253	-0,48
849,683	-0,48
850,112	-0,5
850,542	-0,54
850,972	-0,54
851,401	-0,52
851,831	-0,5
852,26	-0,5
852,69	-0,54
853,119	-0,53
853,548	-0,53
853,978	-0,54
854,407	-0,51
854,836	-0,52
855,266	-0,51
855,695	-0,52
856,124	-0,53
856,553	-0,54
856,983	-0,56
857,412	-0,55
857,841	-0,56
858,27	-0,57
858,699	-0,57
859,128	-0,6
859,557	-0,6
859,986	-0,62
860,415	-0,6
860,844	-0,57
861,273	-0,57
861,702	-0,57
862,13	-0,56
862,559	-0,57
862,988	-0,54
863,417	-0,53
863,845	-0,52
864,274	-0,54
864,703	-0,53
865,131	-0,53
865,56	-0,55
865,989	-0,57
866,417	-0,54
866,846	-0,55
867,274	-0,54
867,703	-0,56
868,131	-0,59
868,559	-0,59
868,988	-0,61
869,416	-0,6
869,844	-0,61
870,273	-0,63
870,701	-0,61
871,129	-0,65
871,557	-0,67
871,986	-0,68
872,414	-0,69
872,842	-0,64
873,27	-0,62
873,698	-0,59
874,126	-0,62
874,554	-0,62
874,982	-0,61
875,41	-0,63
875,838	-0,59
876,266	-0,56
876,694	-0,57
877,122	-0,56
877,549	-0,62
877,977	-0,59
878,405	-0,62
878,833	-0,59
879,26	-0,57
879,688	-0,58
880,116	-0,56
880,543	-0,54
880,971	-0,53
881,399	-0,56
881,826	-0,57
882,254	-0,55
882,681	-0,59
883,109	-0,55
883,536	-0,56
883,963	-0,57
884,391	-0,55
884,818	-0,53
885,245	-0,57
885,673	-0,59
886,1	-0,56
886,527	-0,56
886,954	-0,52
887,381	-0,54
887,809	-0,55
888,236	-0,56
888,663	-0,57
889,09	-0,61
889,517	-0,63
889,944	-0,63
890,371	-0,6
890,798	-0,6
891,225	-0,61
891,652	-0,64
892,078	-0,61
892,505	-0,64
892,932	-0,59
893,359	-0,61
893,786	-0,61
894,212	-0,58
894,639	-0,61
895,066	-0,64
895,492	-0,58
895,919	-0,58
896,346	-0,57
896,772	-0,57
897,199	-0,55
897,625	-0,58
898,052	-0,54
898,478	-0,53
898,904	-0,54
899,331	-0,53
899,757	-0,54
900,183	-0,56
900,61	-0,55
901,036	-0,56
901,462	-0,55
901,888	-0,55
902,315	-0,53
902,741	-0,58
903,167	-0,57
903,593	-0,6
904,019	-0,59
904,445	-0,56
904,871	-0,59
905,297	-0,6
905,723	-0,6
906,149	-0,59
906,575	-0,6
907,001	-0,61
907,427	-0,57
907,852	-0,56
908,278	-0,57
908,704	-0,55
909,13	-0,54
909,555	-0,53
909,981	-0,53
910,407	-0,53
910,832	-0,53
911,258	-0,52
911,684	-0,52
912,109	-0,53
912,535	-0,54
912,96	-0,5
913,386	-0,54
913,811	-0,54
914,236	-0,56
914,662	-0,53
915,087	-0,57
915,512	-0,58
915,938	-0,6
916,363	-0,6
916,788	-0,61
917,213	-0,59
917,639	-0,64
918,064	-0,61
918,489	-0,61
918,914	-0,61
919,339	-0,63
919,764	-0,59
920,189	-0,59
920,614	-0,61
921,039	-0,61
921,464	-0,57
921,889	-0,59
922,314	-0,59
922,738	-0,62
923,163	-0,64
923,588	-0,65
924,013	-0,64
924,437	-0,64
924,862	-0,64
925,287	-0,6
925,711	-0,6
926,136	-0,61
926,561	-0,6
926,985	-0,59
927,41	-0,56
927,834	-0,55
928,259	-0,51
928,683	-0,5
929,108	-0,46
929,532	-0,48
929,956	-0,47
930,381	-0,47
930,805	-0,47
931,229	-0,47
931,653	-0,45
932,078	-0,46
932,502	-0,46
932,926	-0,47
933,35	-0,47
933,774	-0,47
934,198	-0,45
934,622	-0,44
935,046	-0,44
935,47	-0,44
935,894	-0,44
936,318	-0,43
936,742	-0,43
937,166	-0,44
937,59	-0,43
938,014	-0,46
938,437	-0,46
938,861	-0,49
939,285	-0,49
939,709	-0,49
940,132	-0,49
940,556	-0,5
940,98	-0,49
941,403	-0,48
941,827	-0,48
942,25	-0,5
942,674	-0,48
943,097	-0,47
943,521	-0,47
943,944	-0,48
944,368	-0,46
944,791	-0,45
945,214	-0,47
945,638	-0,48
946,061	-0,51
946,484	-0,5
946,907	-0,49
947,331	-0,49
947,754	-0,53
948,177	-0,5
948,6	-0,51
949,023	-0,51
949,446	-0,51
949,869	-0,49
950,292	-0,49
950,715	-0,46
951,138	-0,44
951,561	-0,42
951,984	-0,42
952,407	-0,4
952,83	-0,39
953,252	-0,34
953,675	-0,34
954,098	-0,35
954,521	-0,33
954,943	-0,33
955,366	-0,34
955,789	-0,32
956,211	-0,35
956,634	-0,35
957,056	-0,33
957,479	-0,34
957,902	-0,36
958,324	-0,37
958,746	-0,36
959,169	-0,37
959,591	-0,37
960,014	-0,39
960,436	-0,39
960,858	-0,38
961,281	-0,38
961,703	-0,39
962,125	-0,39
962,547	-0,37
962,969	-0,37
963,391	-0,37
963,814	-0,38
964,236	-0,37
964,658	-0,34
965,08	-0,34
965,502	-0,33
965,924	-0,31
966,346	-0,31
966,768	-0,3
967,189	-0,31
967,611	-0,31
968,033	-0,31
968,455	-0,29
968,877	-0,3
969,298	-0,31
969,72	-0,32
970,142	-0,31
970,563	-0,32
970,985	-0,3
971,407	-0,29
971,828	-0,27
972,25	-0,27
972,671	-0,25
973,093	-0,24
973,514	-0,23
973,936	-0,22
974,357	-0,2
974,778	-0,2
975,2	-0,19
975,621	-0,18
976,042	-0,17
976,464	-0,16
976,885	-0,14
977,306	-0,14
977,727	-0,14
978,148	-0,13
978,57	-0,11
978,991	-0,1
979,412	-0,09
979,833	-0,08
980,254	-0,08
980,675	-0,08
981,096	-0,07
981,517	-0,06
981,937	-0,05
982,358	-0,04
982,779	-0,02
983,2	-0,02
983,621	-0,02
984,042	-0
984,462	0,01
984,883	0,02
985,304	0,04
985,724	0,05
986,145	0,06
986,565	0,08
986,986	0,09
987,407	0,1
987,827	0,11
988,248	0,13
988,668	0,14
989,088	0,15
989,509	0,16
989,929	0,17
990,35	0,18
990,77	0,19
991,19	0,2
991,61	0,22
992,031	0,23
992,451	0,24
992,871	0,24
993,291	0,25
993,711	0,26
994,131	0,27
994,551	0,27
994,971	0,28
995,391	0,29
995,811	0,29
996,231	0,3
996,651	0,3
997,071	0,31
997,491	0,32
997,911	0,33
998,331	0,34
998,75	0,34
999,17	0,35
999,59	0,35
1000,009	0,35
1000,429	0,36
1000,849	0,37
1001,268	0,37
1001,688	0,37
1002,107	0,38
1002,527	0,38
1002,946	0,38
1003,366	0,38
1003,785	0,39
1004,205	0,39
1004,624	0,39
1005,044	0,4
1005,463	0,4
1005,882	0,4
1006,301	0,4
1006,721	0,4
1007,14	0,4
1007,559	0,41
1007,978	0,41
1008,397	0,41
1008,816	0,41
1009,235	0,41
1009,655	0,41
1010,074	0,41
1010,492	0,41
1010,911	0,41
1011,33	0,41
1011,749	0,41
1012,168	0,4
1012,587	0,4
1013,006	0,4
1013,425	0,4
1013,843	0,4
1014,262	0,4
1014,681	0,4
1015,099	0,4
1015,518	0,4
1015,937	0,4
1016,355	0,4
1016,774	0,4
1017,192	0,4
1017,611	0,4
1018,029	0,4
1018,448	0,4
1018,866	0,4
1019,285	0,39
1019,703	0,39
1020,121	0,39
1020,54	0,39
1020,958	0,39
1021,376	0,39
1021,794	0,39
1022,213	0,39
1022,631	0,39
1023,049	0,39
1023,467	0,39
1023,885	0,39
1024,303	0,39
1024,721	0,39
1025,139	0,39
1025,557	0,39
1025,975	0,39
1026,393	0,38
1026,811	0,38
1027,229	0,38
1027,647	0,38
1028,065	0,38
1028,482	0,38
1028,9	0,38
1029,318	0,38
1029,735	0,38
1030,153	0,38
1030,571	0,38
1030,988	0,38
1031,406	0,38
1031,823	0,38
1032,241	0,38
1032,659	0,38
1033,076	0,38
1033,493	0,38
1033,911	0,38
1034,328	0,38
1034,746	0,38
1035,163	0,38
1035,58	0,38
1035,997	0,39
1036,415	0,39
1036,832	0,39
1037,249	0,39
1037,666	0,39
1038,083	0,39
1038,501	0,39
1038,918	0,39
1039,335	0,38
1039,752	0,38
1040,169	0,39
1040,586	0,38
1041,003	0,38
1041,419	0,39
1041,836	0,38
1042,253	0,38
1042,67	0,38
1043,087	0,38
1043,504	0,38
1043,92	0,38
1044,337	0,38
1044,754	0,38
1045,17	0,38
1045,587	0,38
1046,004	0,38
1046,42	0,38
1046,837	0,38
1047,253	0,38
1047,67	0,38
1048,086	0,38
1048,503	0,38
1048,919	0,38
1049,335	0,38
1049,752	0,38
1050,168	0,38
1050,584	0,38
1051,001	0,38
1051,417	0,38
1051,833	0,38
1052,249	0,38
1052,665	0,38
1053,081	0,38
1053,497	0,39
1053,914	0,39
1054,33	0,39
1054,746	0,39
1055,162	0,39
1055,578	0,39
1055,993	0,39
1056,409	0,39
1056,825	0,39
1057,241	0,39
1057,657	0,39
1058,073	0,39
1058,488	0,39
1058,904	0,39
1059,32	0,39
1059,736	0,39
1060,151	0,39
1060,567	0,39
1060,982	0,39
1061,398	0,39
1061,813	0,39
1062,229	0,39
1062,644	0,39
1063,06	0,39
1063,475	0,39
1063,891	0,39
1064,306	0,38
1064,721	0,38
1065,137	0,38
1065,552	0,38
1065,967	0,38
1066,382	0,38
1066,798	0,38
1067,213	0,38
1067,628	0,38
1068,043	0,38
1068,458	0,38
1068,873	0,38
1069,288	0,38
1069,703	0,38
1070,118	0,38
1070,533	0,39
1070,948	0,39
1071,363	0,38
1071,778	0,38
1072,193	0,38
1072,607	0,38
1073,022	0,38
1073,437	0,38
1073,852	0,38
1074,266	0,38
1074,681	0,38
1075,096	0,38
1075,51	0,38
1075,925	0,38
1076,339	0,38
1076,754	0,38
1077,168	0,38
1077,583	0,38
1077,997	0,38
1078,412	0,38
1078,826	0,38
1079,24	0,38
1079,655	0,38
1080,069	0,38
1080,483	0,38
1080,897	0,38
1081,312	0,38
1081,726	0,38
1082,14	0,38
1082,554	0,38
1082,968	0,38
1083,382	0,38
1083,796	0,38
1084,21	0,38
1084,624	0,38
1085,038	0,38
1085,452	0,38
1085,866	0,37
1086,28	0,37
1086,694	0,37
1087,108	0,37
1087,521	0,37
1087,935	0,36
1088,349	0,36
1088,763	0,36
1089,176	0,35
1089,59	0,35
1090,004	0,35
1090,417	0,35
1090,831	0,35
1091,244	0,34
1091,658	0,34
1092,071	0,34
1092,485	0,33
1092,898	0,33
1093,312	0,33
1093,725	0,33
1094,138	0,32
1094,552	0,32
1094,965	0,32
1095,378	0,32
1095,791	0,31
1096,205	0,31
1096,618	0,31
1097,031	0,31
1097,444	0,3
1097,857	0,3
1098,27	0,3
1098,683	0,3
1099,096	0,3
1099,509	0,29
1099,922	0,29
1100,335	0,29
1100,748	0,28
1101,161	0,28
1101,574	0,27
1101,986	0,27
1102,399	0,27
1102,812	0,26
1103,225	0,26
1103,637	0,26
1104,05	0,25
1104,463	0,25
1104,875	0,25
1105,288	0,25
1105,7	0,24
1106,113	0,24
1106,525	0,24
1106,938	0,23
1107,35	0,22
1107,763	0,22
1108,175	0,22
1108,588	0,21
1109	0,21
1109,412	0,2
1109,824	0,21
1110,237	0,21
1110,649	0,21
1111,061	0,19
