Data from 18C-808nm-8A-cont_Absorbance__203__01632.txt Node

Date: Mon Jul 17 17:25:03 CEST 2023
User: Laser008
Spectrometer: MAYP115816
Trigger mode: 0
Integration Time (sec): 2,500000E-1
Scans to average: 10
Electric dark correction enabled: true
Nonlinearity correction enabled: true
Boxcar width: 5
XAxis mode: Wavelengths
Number of Pixels in Spectrum: 2068
>>>>>Begin Spectral Data<<<<<
198,914	-0,66
199,384	-0,47
199,855	-0,35
200,325	-0,25
200,796	-0,21
201,266	-0,16
201,737	-0,15
202,207	-0,14
202,677	-0,13
203,147	-0,11
203,618	-0,09
204,088	-0,08
204,558	-0,07
205,028	-0,05
205,498	-0,07
205,968	-0,07
206,439	-0,09
206,909	-0,08
207,379	-0,09
207,849	-0,1
208,319	-0,11
208,789	-0,11
209,258	-0,11
209,728	-0,12
210,198	-0,12
210,668	-0,12
211,138	-0,12
211,608	-0,12
212,077	-0,13
212,547	-0,12
213,017	-0,12
213,486	-0,11
213,956	-0,12
214,426	-0,13
214,895	-0,12
215,365	-0,13
215,834	-0,14
216,304	-0,15
216,773	-0,14
217,243	-0,17
217,712	-0,18
218,181	-0,17
218,651	-0,18
219,12	-0,18
219,589	-0,18
220,058	-0,17
220,528	-0,18
220,997	-0,18
221,466	-0,19
221,935	-0,2
222,404	-0,19
222,873	-0,18
223,342	-0,18
223,812	-0,18
224,281	-0,18
224,749	-0,18
225,218	-0,19
225,687	-0,19
226,156	-0,18
226,625	-0,16
227,094	-0,16
227,563	-0,16
228,031	-0,17
228,5	-0,18
228,969	-0,19
229,438	-0,18
229,906	-0,17
230,375	-0,16
230,844	-0,16
231,312	-0,16
231,781	-0,17
232,249	-0,15
232,718	-0,16
233,186	-0,14
233,655	-0,15
234,123	-0,13
234,591	-0,12
235,06	-0,14
235,528	-0,15
235,996	-0,15
236,465	-0,14
236,933	-0,14
237,401	-0,14
237,869	-0,13
238,337	-0,13
238,805	-0,12
239,274	-0,12
239,742	-0,12
240,21	-0,11
240,678	-0,1
241,146	-0,09
241,614	-0,09
242,081	-0,08
242,549	-0,08
243,017	-0,09
243,485	-0,1
243,953	-0,1
244,421	-0,1
244,888	-0,1
245,356	-0,1
245,824	-0,1
246,291	-0,1
246,759	-0,11
247,227	-0,12
247,694	-0,11
248,162	-0,1
248,629	-0,09
249,097	-0,1
249,564	-0,1
250,032	-0,11
250,499	-0,11
250,967	-0,12
251,434	-0,11
251,901	-0,11
252,369	-0,11
252,836	-0,13
253,303	-0,14
253,77	-0,16
254,237	-0,15
254,705	-0,15
255,172	-0,15
255,639	-0,16
256,106	-0,17
256,573	-0,18
257,04	-0,19
257,507	-0,18
257,974	-0,19
258,441	-0,17
258,908	-0,18
259,375	-0,19
259,841	-0,19
260,308	-0,19
260,775	-0,19
261,242	-0,17
261,709	-0,17
262,175	-0,17
262,642	-0,18
263,109	-0,16
263,575	-0,17
264,042	-0,15
264,508	-0,15
264,975	-0,16
265,441	-0,18
265,908	-0,18
266,374	-0,17
266,841	-0,18
267,307	-0,18
267,773	-0,17
268,24	-0,17
268,706	-0,18
269,172	-0,19
269,639	-0,19
270,105	-0,17
270,571	-0,18
271,037	-0,19
271,503	-0,2
271,969	-0,2
272,435	-0,21
272,902	-0,22
273,368	-0,24
273,834	-0,23
274,3	-0,23
274,765	-0,23
275,231	-0,23
275,697	-0,22
276,163	-0,21
276,629	-0,21
277,095	-0,21
277,56	-0,2
278,026	-0,2
278,492	-0,18
278,958	-0,19
279,423	-0,2
279,889	-0,2
280,354	-0,2
280,82	-0,19
281,286	-0,2
281,751	-0,2
282,217	-0,19
282,682	-0,19
283,147	-0,19
283,613	-0,2
284,078	-0,21
284,544	-0,21
285,009	-0,22
285,474	-0,22
285,939	-0,24
286,405	-0,23
286,87	-0,22
287,335	-0,22
287,8	-0,21
288,265	-0,2
288,73	-0,2
289,195	-0,22
289,66	-0,21
290,125	-0,19
290,59	-0,2
291,055	-0,19
291,52	-0,19
291,985	-0,2
292,45	-0,21
292,915	-0,21
293,38	-0,21
293,844	-0,19
294,309	-0,17
294,774	-0,16
295,239	-0,17
295,703	-0,17
296,168	-0,17
296,632	-0,16
297,097	-0,14
297,562	-0,12
298,026	-0,12
298,491	-0,14
298,955	-0,13
299,419	-0,13
299,884	-0,13
300,348	-0,13
300,813	-0,12
301,277	-0,13
301,741	-0,13
302,205	-0,14
302,67	-0,13
303,134	-0,13
303,598	-0,13
304,062	-0,12
304,526	-0,12
304,99	-0,13
305,454	-0,13
305,919	-0,13
306,383	-0,12
306,847	-0,12
307,31	-0,13
307,774	-0,14
308,238	-0,14
308,702	-0,14
309,166	-0,15
309,63	-0,15
310,094	-0,13
310,557	-0,13
311,021	-0,12
311,485	-0,13
311,948	-0,12
312,412	-0,11
312,876	-0,1
313,339	-0,11
313,803	-0,12
314,266	-0,11
314,73	-0,11
315,193	-0,11
315,657	-0,09
316,12	-0,09
316,584	-0,09
317,047	-0,09
317,51	-0,07
317,973	-0,07
318,437	-0,06
318,9	-0,05
319,363	-0,04
319,826	-0,03
320,29	-0,04
320,753	-0,05
321,216	-0,05
321,679	-0,05
322,142	-0,05
322,605	-0,06
323,068	-0,07
323,531	-0,07
323,994	-0,06
324,457	-0,06
324,92	-0,06
325,382	-0,04
325,845	-0,04
326,308	-0,04
326,771	-0,03
327,233	-0,03
327,696	-0,02
328,159	-0,01
328,622	0
329,084	0
329,547	0,01
330,009	0,01
330,472	0,02
330,934	0,03
331,397	0,03
331,859	0,04
332,322	0,04
332,784	0,04
333,246	0,05
333,709	0,05
334,171	0,06
334,633	0,06
335,096	0,07
335,558	0,07
336,02	0,07
336,482	0,07
336,944	0,08
337,406	0,09
337,868	0,09
338,331	0,1
338,793	0,1
339,255	0,1
339,717	0,1
340,178	0,11
340,64	0,12
341,102	0,12
341,564	0,13
342,026	0,14
342,488	0,15
342,949	0,16
343,411	0,18
343,873	0,21
344,335	0,24
344,796	0,27
345,258	0,31
345,719	0,35
346,181	0,39
346,643	0,43
347,104	0,46
347,566	0,49
348,027	0,51
348,488	0,53
348,95	0,55
349,411	0,57
349,873	0,59
350,334	0,6
350,795	0,61
351,256	0,62
351,718	0,63
352,179	0,63
352,64	0,64
353,101	0,64
353,562	0,64
354,023	0,64
354,484	0,64
354,945	0,65
355,406	0,65
355,867	0,65
356,328	0,65
356,789	0,65
357,25	0,65
357,711	0,66
358,172	0,66
358,633	0,66
359,093	0,66
359,554	0,66
360,015	0,66
360,476	0,66
360,936	0,67
361,397	0,67
361,858	0,67
362,318	0,67
362,779	0,67
363,239	0,67
363,7	0,67
364,16	0,67
364,621	0,67
365,081	0,67
365,541	0,67
366,002	0,67
366,462	0,67
366,922	0,67
367,383	0,67
367,843	0,67
368,303	0,67
368,763	0,67
369,223	0,67
369,684	0,67
370,144	0,67
370,604	0,67
371,064	0,67
371,524	0,67
371,984	0,67
372,444	0,67
372,904	0,67
373,363	0,67
373,823	0,67
374,283	0,67
374,743	0,67
375,203	0,66
375,663	0,66
376,122	0,66
376,582	0,66
377,042	0,66
377,501	0,66
377,961	0,66
378,42	0,66
378,88	0,66
379,34	0,66
379,799	0,66
380,259	0,66
380,718	0,66
381,177	0,66
381,637	0,66
382,096	0,66
382,555	0,66
383,015	0,66
383,474	0,66
383,933	0,66
384,393	0,66
384,852	0,66
385,311	0,66
385,77	0,66
386,229	0,66
386,688	0,66
387,147	0,66
387,606	0,66
388,065	0,66
388,524	0,66
388,983	0,66
389,442	0,65
389,901	0,65
390,36	0,65
390,819	0,65
391,277	0,65
391,736	0,65
392,195	0,65
392,654	0,65
393,112	0,65
393,571	0,65
394,03	0,65
394,488	0,65
394,947	0,65
395,405	0,65
395,864	0,65
396,322	0,65
396,781	0,65
397,239	0,65
397,698	0,65
398,156	0,65
398,614	0,65
399,073	0,65
399,531	0,65
399,989	0,65
400,447	0,65
400,905	0,65
401,364	0,65
401,822	0,65
402,28	0,65
402,738	0,64
403,196	0,64
403,654	0,64
404,112	0,64
404,57	0,64
405,028	0,64
405,486	0,64
405,944	0,64
406,402	0,64
406,859	0,64
407,317	0,64
407,775	0,64
408,233	0,64
408,691	0,64
409,148	0,64
409,606	0,64
410,064	0,64
410,521	0,64
410,979	0,64
411,436	0,64
411,894	0,64
412,351	0,64
412,809	0,64
413,266	0,64
413,724	0,64
414,181	0,64
414,638	0,64
415,096	0,64
415,553	0,64
416,01	0,64
416,467	0,64
416,925	0,64
417,382	0,64
417,839	0,64
418,296	0,64
418,753	0,64
419,21	0,64
419,667	0,64
420,124	0,64
420,581	0,64
421,038	0,64
421,495	0,64
421,952	0,64
422,409	0,64
422,866	0,64
423,322	0,64
423,779	0,64
424,236	0,64
424,693	0,64
425,149	0,64
425,606	0,64
426,063	0,64
426,519	0,64
426,976	0,64
427,433	0,64
427,889	0,64
428,346	0,64
428,802	0,64
429,258	0,64
429,715	0,64
430,171	0,64
430,628	0,63
431,084	0,63
431,54	0,63
431,997	0,63
432,453	0,63
432,909	0,63
433,365	0,63
433,821	0,63
434,277	0,63
434,734	0,63
435,19	0,63
435,646	0,63
436,102	0,63
436,558	0,63
437,014	0,63
437,47	0,63
437,925	0,63
438,381	0,63
438,837	0,63
439,293	0,63
439,749	0,63
440,205	0,63
440,66	0,63
441,116	0,63
441,572	0,63
442,027	0,63
442,483	0,63
442,939	0,63
443,394	0,63
443,85	0,63
444,305	0,63
444,761	0,64
445,216	0,64
445,672	0,64
446,127	0,64
446,582	0,64
447,038	0,64
447,493	0,64
447,948	0,64
448,403	0,64
448,859	0,64
449,314	0,64
449,769	0,64
450,224	0,64
450,679	0,64
451,134	0,64
451,589	0,64
452,044	0,64
452,499	0,64
452,954	0,64
453,409	0,64
453,864	0,64
454,319	0,64
454,774	0,64
455,229	0,64
455,684	0,64
456,138	0,64
456,593	0,64
457,048	0,64
457,503	0,64
457,957	0,64
458,412	0,64
458,866	0,64
459,321	0,64
459,776	0,64
460,23	0,64
460,685	0,64
461,139	0,64
461,593	0,64
462,048	0,64
462,502	0,65
462,957	0,65
463,411	0,65
463,865	0,65
464,319	0,65
464,774	0,65
465,228	0,65
465,682	0,65
466,136	0,65
466,59	0,65
467,044	0,65
467,499	0,65
467,953	0,65
468,407	0,65
468,861	0,66
469,315	0,66
469,768	0,66
470,222	0,66
470,676	0,66
471,13	0,66
471,584	0,66
472,038	0,66
472,491	0,66
472,945	0,66
473,399	0,66
473,852	0,66
474,306	0,66
474,76	0,66
475,213	0,67
475,667	0,67
476,12	0,67
476,574	0,67
477,027	0,67
477,481	0,67
477,934	0,67
478,388	0,67
478,841	0,68
479,294	0,68
479,748	0,68
480,201	0,68
480,654	0,68
481,107	0,68
481,561	0,69
482,014	0,69
482,467	0,69
482,92	0,69
483,373	0,69
483,826	0,69
484,279	0,69
484,732	0,7
485,185	0,7
485,638	0,7
486,091	0,7
486,544	0,7
486,997	0,7
487,449	0,71
487,902	0,71
488,355	0,71
488,808	0,71
489,26	0,72
489,713	0,72
490,166	0,72
490,618	0,72
491,071	0,72
491,523	0,73
491,976	0,73
492,429	0,73
492,881	0,73
493,333	0,74
493,786	0,74
494,238	0,74
494,691	0,75
495,143	0,75
495,595	0,75
496,048	0,75
496,5	0,76
496,952	0,76
497,404	0,76
497,856	0,77
498,309	0,77
498,761	0,77
499,213	0,78
499,665	0,78
500,117	0,78
500,569	0,79
501,021	0,79
501,473	0,79
501,925	0,8
502,377	0,8
502,828	0,8
503,28	0,81
503,732	0,81
504,184	0,81
504,636	0,82
505,087	0,82
505,539	0,82
505,991	0,83
506,442	0,83
506,894	0,84
507,345	0,84
507,797	0,84
508,249	0,85
508,7	0,85
509,151	0,85
509,603	0,86
510,054	0,86
510,506	0,86
510,957	0,87
511,408	0,87
511,86	0,87
512,311	0,87
512,762	0,88
513,213	0,88
513,665	0,88
514,116	0,89
514,567	0,89
515,018	0,89
515,469	0,9
515,92	0,9
516,371	0,9
516,822	0,9
517,273	0,91
517,724	0,91
518,175	0,91
518,626	0,91
519,076	0,92
519,527	0,92
519,978	0,92
520,429	0,92
520,88	0,93
521,33	0,93
521,781	0,93
522,232	0,93
522,682	0,93
523,133	0,93
523,583	0,94
524,034	0,94
524,484	0,94
524,935	0,94
525,385	0,94
525,836	0,94
526,286	0,94
526,736	0,94
527,187	0,94
527,637	0,94
528,087	0,94
528,538	0,94
528,988	0,94
529,438	0,94
529,888	0,93
530,338	0,93
530,788	0,93
531,238	0,93
531,688	0,93
532,139	0,93
532,589	0,93
533,038	0,93
533,488	0,93
533,938	0,92
534,388	0,92
534,838	0,92
535,288	0,92
535,738	0,91
536,187	0,91
536,637	0,91
537,087	0,9
537,537	0,9
537,986	0,9
538,436	0,89
538,885	0,89
539,335	0,89
539,785	0,88
540,234	0,88
540,684	0,87
541,133	0,87
541,582	0,87
542,032	0,86
542,481	0,86
542,931	0,86
543,38	0,85
543,829	0,85
544,278	0,84
544,728	0,84
545,177	0,84
545,626	0,83
546,075	0,83
546,524	0,83
546,973	0,82
547,422	0,82
547,871	0,82
548,32	0,81
548,769	0,81
549,218	0,81
549,667	0,8
550,116	0,8
550,565	0,8
551,014	0,79
551,463	0,79
551,911	0,79
552,36	0,78
552,809	0,78
553,258	0,77
553,706	0,77
554,155	0,77
554,603	0,76
555,052	0,76
555,501	0,76
555,949	0,75
556,398	0,75
556,846	0,75
557,294	0,74
557,743	0,74
558,191	0,73
558,64	0,73
559,088	0,72
559,536	0,72
559,985	0,72
560,433	0,71
560,881	0,71
561,329	0,7
561,777	0,7
562,225	0,7
562,674	0,69
563,122	0,69
563,57	0,69
564,018	0,68
564,466	0,68
564,914	0,68
565,362	0,67
565,809	0,67
566,257	0,67
566,705	0,66
567,153	0,66
567,601	0,66
568,048	0,65
568,496	0,65
568,944	0,65
569,392	0,64
569,839	0,64
570,287	0,64
570,734	0,63
571,182	0,63
571,63	0,63
572,077	0,63
572,525	0,62
572,972	0,62
573,419	0,62
573,867	0,61
574,314	0,61
574,761	0,61
575,209	0,6
575,656	0,6
576,103	0,6
576,551	0,6
576,998	0,59
577,445	0,59
577,892	0,59
578,339	0,59
578,786	0,58
579,233	0,58
579,68	0,58
580,127	0,58
580,574	0,57
581,021	0,57
581,468	0,57
581,915	0,57
582,362	0,56
582,809	0,56
583,255	0,56
583,702	0,56
584,149	0,56
584,596	0,56
585,042	0,55
585,489	0,55
585,936	0,55
586,382	0,55
586,829	0,55
587,275	0,54
587,722	0,54
588,168	0,54
588,615	0,54
589,061	0,54
589,508	0,53
589,954	0,53
590,4	0,53
590,847	0,53
591,293	0,53
591,739	0,53
592,185	0,53
592,632	0,52
593,078	0,52
593,524	0,52
593,97	0,52
594,416	0,52
594,862	0,52
595,308	0,52
595,754	0,52
596,2	0,52
596,646	0,51
597,092	0,51
597,538	0,51
597,984	0,51
598,43	0,51
598,876	0,51
599,321	0,51
599,767	0,51
600,213	0,5
600,659	0,5
601,104	0,5
601,55	0,5
601,995	0,5
602,441	0,5
602,887	0,5
603,332	0,5
603,778	0,49
604,223	0,49
604,668	0,49
605,114	0,49
605,559	0,49
606,005	0,49
606,45	0,49
606,895	0,49
607,341	0,49
607,786	0,49
608,231	0,48
608,676	0,48
609,121	0,48
609,566	0,47
610,012	0,47
610,457	0,46
610,902	0,46
611,347	0,46
611,792	0,46
612,237	0,46
612,682	0,45
613,127	0,45
613,571	0,45
614,016	0,46
614,461	0,46
614,906	0,46
615,351	0,46
615,795	0,46
616,24	0,46
616,685	0,46
617,129	0,46
617,574	0,46
618,019	0,46
618,463	0,46
618,908	0,46
619,352	0,46
619,797	0,46
620,241	0,46
620,686	0,46
621,13	0,46
621,574	0,46
622,019	0,46
622,463	0,46
622,907	0,46
623,352	0,45
623,796	0,45
624,24	0,45
624,684	0,45
625,128	0,45
625,572	0,45
626,016	0,45
626,461	0,45
626,905	0,45
627,349	0,45
627,793	0,45
628,236	0,45
628,68	0,45
629,124	0,45
629,568	0,45
630,012	0,45
630,456	0,45
630,9	0,45
631,343	0,45
631,787	0,45
632,231	0,45
632,674	0,45
633,118	0,45
633,562	0,45
634,005	0,45
634,449	0,45
634,892	0,45
635,336	0,45
635,779	0,45
636,223	0,45
636,666	0,45
637,109	0,45
637,553	0,44
637,996	0,44
638,439	0,44
638,883	0,44
639,326	0,44
639,769	0,44
640,212	0,44
640,655	0,44
641,099	0,44
641,542	0,44
641,985	0,44
642,428	0,44
642,871	0,44
643,314	0,44
643,757	0,43
644,2	0,43
644,643	0,43
645,085	0,43
645,528	0,43
645,971	0,43
646,414	0,43
646,857	0,43
647,299	0,43
647,742	0,43
648,185	0,43
648,627	0,43
649,07	0,43
649,513	0,43
649,955	0,43
650,398	0,43
650,84	0,43
651,283	0,43
651,725	0,43
652,168	0,43
652,61	0,43
653,052	0,43
653,495	0,43
653,937	0,35
654,379	0,29
654,821	0,29
655,264	0,3
655,706	0,3
656,148	0,3
656,59	0,3
657,032	0,3
657,474	0,3
657,916	0,3
658,358	0,29
658,8	0,35
659,242	0,43
659,684	0,43
660,126	0,43
660,568	0,43
661,01	0,43
661,452	0,43
661,894	0,43
662,335	0,42
662,777	0,42
663,219	0,42
663,661	0,42
664,102	0,42
664,544	0,42
664,985	0,42
665,427	0,42
665,869	0,42
666,31	0,42
666,752	0,42
667,193	0,42
667,634	0,42
668,076	0,42
668,517	0,42
668,959	0,42
669,4	0,42
669,841	0,42
670,282	0,42
670,724	0,43
671,165	0,42
671,606	0,43
672,047	0,42
672,488	0,42
672,929	0,42
673,37	0,42
673,811	0,42
674,252	0,42
674,693	0,42
675,134	0,42
675,575	0,42
676,016	0,42
676,457	0,41
676,898	0,41
677,339	0,41
677,78	0,41
678,22	0,41
678,661	0,41
679,102	0,41
679,542	0,41
679,983	0,41
680,424	0,41
680,864	0,41
681,305	0,41
681,745	0,41
682,186	0,41
682,626	0,41
683,067	0,42
683,507	0,42
683,948	0,42
684,388	0,41
684,828	0,41
685,269	0,41
685,709	0,41
686,149	0,41
686,589	0,41
687,029	0,41
687,47	0,41
687,91	0,41
688,35	0,41
688,79	0,41
689,23	0,41
689,67	0,41
690,11	0,41
690,55	0,41
690,99	0,41
691,43	0,41
691,87	0,4
692,31	0,4
692,749	0,4
693,189	0,4
693,629	0,4
694,069	0,4
694,508	0,4
694,948	0,4
695,388	0,4
695,827	0,4
696,267	0,4
696,706	0,4
697,146	0,4
697,586	0,4
698,025	0,4
698,464	0,4
698,904	0,41
699,343	0,41
699,783	0,41
700,222	0,41
700,661	0,41
701,101	0,41
701,54	0,41
701,979	0,41
702,418	0,41
702,857	0,41
703,297	0,41
703,736	0,41
704,175	0,41
704,614	0,41
705,053	0,41
705,492	0,41
705,931	0,4
706,37	0,4
706,809	0,4
707,248	0,4
707,687	0,4
708,125	0,4
708,564	0,4
709,003	0,4
709,442	0,4
709,88	0,4
710,319	0,4
710,758	0,4
711,196	0,4
711,635	0,4
712,074	0,4
712,512	0,39
712,951	0,39
713,389	0,39
713,828	0,39
714,266	0,39
714,705	0,39
715,143	0,39
715,581	0,39
716,02	0,39
716,458	0,39
716,896	0,39
717,334	0,39
717,773	0,39
718,211	0,39
718,649	0,39
719,087	0,39
719,525	0,39
719,963	0,39
720,401	0,39
720,839	0,39
721,277	0,39
721,715	0,39
722,153	0,39
722,591	0,39
723,029	0,39
723,467	0,39
723,905	0,39
724,342	0,39
724,78	0,39
725,218	0,39
725,656	0,39
726,093	0,39
726,531	0,39
726,969	0,39
727,406	0,39
727,844	0,39
728,281	0,39
728,719	0,39
729,156	0,39
729,594	0,39
730,031	0,39
730,469	0,39
730,906	0,39
731,343	0,39
731,781	0,39
732,218	0,39
732,655	0,39
733,092	0,39
733,53	0,39
733,967	0,38
734,404	0,38
734,841	0,38
735,278	0,38
735,715	0,38
736,152	0,38
736,589	0,38
737,026	0,38
737,463	0,38
737,9	0,38
738,337	0,38
738,774	0,38
739,211	0,38
739,647	0,38
740,084	0,38
740,521	0,38
740,958	0,38
741,394	0,38
741,831	0,38
742,268	0,38
742,704	0,38
743,141	0,38
743,577	0,38
744,014	0,38
744,45	0,37
744,887	0,37
745,323	0,37
745,76	0,37
746,196	0,37
746,632	0,37
747,069	0,37
747,505	0,37
747,941	0,37
748,378	0,37
748,814	0,37
749,25	0,37
749,686	0,37
750,122	0,37
750,558	0,37
750,994	0,37
751,43	0,38
751,866	0,38
752,302	0,38
752,738	0,38
753,174	0,38
753,61	0,38
754,046	0,38
754,482	0,38
754,918	0,38
755,354	0,38
755,789	0,38
756,225	0,38
756,661	0,38
757,096	0,38
757,532	0,37
757,968	0,37
758,403	0,37
758,839	0,37
759,274	0,37
759,71	0,36
760,145	0,36
760,581	0,35
761,016	0,35
761,452	0,35
761,887	0,34
762,322	0,34
762,758	0,33
763,193	0,33
763,628	0,32
764,063	0,32
764,499	0,31
764,934	0,3
765,369	0,3
765,804	0,29
766,239	0,29
766,674	0,28
767,109	0,27
767,544	0,26
767,979	0,25
768,414	0,25
768,849	0,24
769,284	0,23
769,719	0,22
770,154	0,22
770,588	0,21
771,023	0,2
771,458	0,19
771,893	0,18
772,327	0,17
772,762	0,16
773,197	0,15
773,631	0,14
774,066	0,14
774,5	0,13
774,935	0,12
775,369	0,11
775,804	0,1
776,238	0,09
776,673	0,08
777,107	0,08
777,541	0,07
777,976	0,06
778,41	0,06
778,844	0,05
779,279	0,04
779,713	0,03
780,147	0,03
780,581	0,02
781,015	0,01
781,449	0
781,883	-0,01
782,317	-0,02
782,751	-0,03
783,185	-0,04
783,619	-0,05
784,053	-0,06
784,487	-0,07
784,921	-0,07
785,355	-0,07
785,789	-0,08
786,223	-0,09
786,656	-0,11
787,09	-0,12
787,524	-0,13
787,957	-0,14
788,391	-0,16
788,825	-0,17
789,258	-0,19
789,692	-0,21
790,125	-0,23
790,559	-0,24
790,992	-0,26
791,426	-0,29
791,859	-0,3
792,293	-0,33
792,726	-0,34
793,159	-0,36
793,593	-0,37
794,026	-0,39
794,459	-0,42
794,892	-0,45
795,326	-0,48
795,759	-0,52
796,192	-0,56
796,625	-0,6
797,058	-0,62
797,491	-0,67
797,924	-0,71
798,357	-0,76
798,79	-0,8
799,223	-0,84
799,656	-0,9
800,089	-0,95
800,522	-0,99
800,955	-1,03
801,387	-1,09
801,82	-1,15
802,253	-1,21
802,686	-1,29
803,118	-1,34
803,551	-1,4
803,984	-1,44
804,416	-1,48
804,849	-1,52
805,281	-1,63
805,714	-1,99
806,146	-2,45
806,579	-2,71
807,011	-2,87
807,444	-2,97
807,876	-3,05
808,308	-3,08
808,741	-3,11
809,173	-3,16
809,605	-3,18
810,037	-3,26
810,47	-3,18
810,902	-2,98
811,334	-2,83
811,766	-2,67
812,198	-2,41
812,63	-1,99
813,062	-1,79
813,494	-1,69
813,926	-1,6
814,358	-1,55
814,79	-1,47
815,222	-1,41
815,654	-1,36
816,086	-1,3
816,518	-1,24
816,949	-1,19
817,381	-1,15
817,813	-1,13
818,245	-1,09
818,676	-1,05
819,108	-1,01
819,54	-1
819,971	-0,98
820,403	-0,93
820,834	-0,91
821,266	-0,87
821,697	-0,84
822,129	-0,83
822,56	-0,8
822,991	-0,78
823,423	-0,75
823,854	-0,74
824,286	-0,72
824,717	-0,71
825,148	-0,7
825,579	-0,69
826,01	-0,67
826,442	-0,66
826,873	-0,64
827,304	-0,6
827,735	-0,6
828,166	-0,6
828,597	-0,6
829,028	-0,59
829,459	-0,59
829,89	-0,59
830,321	-0,55
830,752	-0,56
831,183	-0,55
831,613	-0,55
832,044	-0,55
832,475	-0,54
832,906	-0,55
833,336	-0,56
833,767	-0,56
834,198	-0,55
834,628	-0,53
835,059	-0,56
835,49	-0,57
835,92	-0,54
836,351	-0,53
836,781	-0,53
837,212	-0,54
837,642	-0,54
838,072	-0,51
838,503	-0,52
838,933	-0,49
839,364	-0,49
839,794	-0,47
840,224	-0,46
840,654	-0,51
841,085	-0,51
841,515	-0,49
841,945	-0,5
842,375	-0,45
842,805	-0,45
843,235	-0,44
843,665	-0,46
844,095	-0,45
844,525	-0,48
844,955	-0,48
845,385	-0,46
845,815	-0,45
846,245	-0,47
846,675	-0,47
847,105	-0,5
847,534	-0,5
847,964	-0,48
848,394	-0,46
848,824	-0,49
849,253	-0,48
849,683	-0,48
850,112	-0,5
850,542	-0,53
850,972	-0,53
851,401	-0,51
851,831	-0,49
852,26	-0,49
852,69	-0,52
853,119	-0,52
853,548	-0,53
853,978	-0,52
854,407	-0,5
854,836	-0,5
855,266	-0,49
855,695	-0,5
856,124	-0,5
856,553	-0,52
856,983	-0,55
857,412	-0,55
857,841	-0,55
858,27	-0,56
858,699	-0,57
859,128	-0,6
859,557	-0,61
859,986	-0,62
860,415	-0,61
860,844	-0,59
861,273	-0,58
861,702	-0,58
862,13	-0,56
862,559	-0,58
862,988	-0,55
863,417	-0,54
863,845	-0,54
864,274	-0,55
864,703	-0,54
865,131	-0,54
865,56	-0,55
865,989	-0,58
866,417	-0,56
866,846	-0,56
867,274	-0,55
867,703	-0,58
868,131	-0,59
868,559	-0,59
868,988	-0,6
869,416	-0,59
869,844	-0,6
870,273	-0,63
870,701	-0,61
871,129	-0,63
871,557	-0,66
871,986	-0,66
872,414	-0,67
872,842	-0,64
873,27	-0,62
873,698	-0,6
874,126	-0,64
874,554	-0,62
874,982	-0,62
875,41	-0,64
875,838	-0,6
876,266	-0,58
876,694	-0,58
877,122	-0,57
877,549	-0,63
877,977	-0,61
878,405	-0,63
878,833	-0,6
879,26	-0,59
879,688	-0,58
880,116	-0,57
880,543	-0,55
880,971	-0,54
881,399	-0,56
881,826	-0,56
882,254	-0,54
882,681	-0,58
883,109	-0,54
883,536	-0,54
883,963	-0,57
884,391	-0,55
884,818	-0,53
885,245	-0,58
885,673	-0,59
886,1	-0,56
886,527	-0,56
886,954	-0,52
887,381	-0,54
887,809	-0,55
888,236	-0,56
888,663	-0,56
889,09	-0,6
889,517	-0,62
889,944	-0,61
890,371	-0,6
890,798	-0,62
891,225	-0,61
891,652	-0,64
892,078	-0,61
892,505	-0,65
892,932	-0,6
893,359	-0,61
893,786	-0,6
894,212	-0,57
894,639	-0,59
895,066	-0,61
895,492	-0,55
895,919	-0,56
896,346	-0,55
896,772	-0,56
897,199	-0,53
897,625	-0,56
898,052	-0,53
898,478	-0,52
898,904	-0,53
899,331	-0,53
899,757	-0,55
900,183	-0,56
900,61	-0,54
901,036	-0,55
901,462	-0,54
901,888	-0,54
902,315	-0,52
902,741	-0,57
903,167	-0,56
903,593	-0,6
904,019	-0,57
904,445	-0,55
904,871	-0,57
905,297	-0,6
905,723	-0,59
906,149	-0,59
906,575	-0,59
907,001	-0,59
907,427	-0,56
907,852	-0,55
908,278	-0,56
908,704	-0,55
909,13	-0,54
909,555	-0,54
909,981	-0,53
910,407	-0,53
910,832	-0,53
911,258	-0,53
911,684	-0,52
912,109	-0,53
912,535	-0,55
912,96	-0,5
913,386	-0,53
913,811	-0,53
914,236	-0,54
914,662	-0,52
915,087	-0,55
915,512	-0,55
915,938	-0,57
916,363	-0,57
916,788	-0,58
917,213	-0,56
917,639	-0,6
918,064	-0,57
918,489	-0,58
918,914	-0,59
919,339	-0,6
919,764	-0,58
920,189	-0,57
920,614	-0,59
921,039	-0,6
921,464	-0,55
921,889	-0,59
922,314	-0,6
922,738	-0,63
923,163	-0,64
923,588	-0,64
924,013	-0,63
924,437	-0,63
924,862	-0,65
925,287	-0,61
925,711	-0,62
926,136	-0,63
926,561	-0,61
926,985	-0,6
927,41	-0,56
927,834	-0,54
928,259	-0,52
928,683	-0,5
929,108	-0,47
929,532	-0,48
929,956	-0,48
930,381	-0,47
930,805	-0,47
931,229	-0,47
931,653	-0,45
932,078	-0,47
932,502	-0,48
932,926	-0,49
933,35	-0,49
933,774	-0,48
934,198	-0,46
934,622	-0,45
935,046	-0,46
935,47	-0,46
935,894	-0,45
936,318	-0,44
936,742	-0,44
937,166	-0,44
937,59	-0,43
938,014	-0,45
938,437	-0,45
938,861	-0,47
939,285	-0,48
939,709	-0,47
940,132	-0,48
940,556	-0,48
940,98	-0,48
941,403	-0,46
941,827	-0,46
942,25	-0,48
942,674	-0,46
943,097	-0,47
943,521	-0,46
943,944	-0,47
944,368	-0,46
944,791	-0,45
945,214	-0,47
945,638	-0,48
946,061	-0,51
946,484	-0,52
946,907	-0,5
947,331	-0,5
947,754	-0,54
948,177	-0,51
948,6	-0,51
949,023	-0,51
949,446	-0,52
949,869	-0,49
950,292	-0,49
950,715	-0,46
951,138	-0,44
951,561	-0,42
951,984	-0,41
952,407	-0,4
952,83	-0,39
953,252	-0,34
953,675	-0,35
954,098	-0,36
954,521	-0,34
954,943	-0,34
955,366	-0,35
955,789	-0,34
956,211	-0,36
956,634	-0,37
957,056	-0,35
957,479	-0,36
957,902	-0,38
958,324	-0,38
958,746	-0,36
959,169	-0,38
959,591	-0,38
960,014	-0,39
960,436	-0,39
960,858	-0,38
961,281	-0,37
961,703	-0,38
962,125	-0,38
962,547	-0,36
962,969	-0,37
963,391	-0,37
963,814	-0,37
964,236	-0,36
964,658	-0,33
965,08	-0,34
965,502	-0,34
965,924	-0,32
966,346	-0,32
966,768	-0,31
967,189	-0,34
967,611	-0,33
968,033	-0,33
968,455	-0,32
968,877	-0,32
969,298	-0,34
969,72	-0,34
970,142	-0,34
970,563	-0,34
970,985	-0,33
971,407	-0,32
971,828	-0,29
972,25	-0,28
972,671	-0,27
973,093	-0,27
973,514	-0,25
973,936	-0,22
974,357	-0,21
974,778	-0,21
975,2	-0,2
975,621	-0,19
976,042	-0,18
976,464	-0,18
976,885	-0,18
977,306	-0,17
977,727	-0,17
978,148	-0,16
978,57	-0,15
978,991	-0,13
979,412	-0,12
979,833	-0,11
980,254	-0,11
980,675	-0,11
981,096	-0,1
981,517	-0,08
981,937	-0,08
982,358	-0,06
982,779	-0,04
983,2	-0,04
983,621	-0,03
984,042	-0,01
984,462	-0
984,883	0,02
985,304	0,03
985,724	0,04
986,145	0,05
986,565	0,06
986,986	0,07
987,407	0,08
987,827	0,09
988,248	0,1
988,668	0,11
989,088	0,12
989,509	0,13
989,929	0,14
990,35	0,15
990,77	0,17
991,19	0,18
991,61	0,19
992,031	0,19
992,451	0,2
992,871	0,21
993,291	0,21
993,711	0,22
994,131	0,23
994,551	0,23
994,971	0,24
995,391	0,25
995,811	0,25
996,231	0,26
996,651	0,26
997,071	0,27
997,491	0,28
997,911	0,29
998,331	0,29
998,75	0,3
999,17	0,3
999,59	0,31
1000,009	0,31
1000,429	0,32
1000,849	0,32
1001,268	0,33
1001,688	0,33
1002,107	0,33
1002,527	0,34
1002,946	0,34
1003,366	0,34
1003,785	0,35
1004,205	0,35
1004,624	0,35
1005,044	0,35
1005,463	0,35
1005,882	0,36
1006,301	0,36
1006,721	0,36
1007,14	0,36
1007,559	0,36
1007,978	0,36
1008,397	0,36
1008,816	0,36
1009,235	0,36
1009,655	0,36
1010,074	0,36
1010,492	0,36
1010,911	0,36
1011,33	0,36
1011,749	0,36
1012,168	0,36
1012,587	0,35
1013,006	0,35
1013,425	0,35
1013,843	0,35
1014,262	0,35
1014,681	0,35
1015,099	0,35
1015,518	0,35
1015,937	0,35
1016,355	0,35
1016,774	0,35
1017,192	0,35
1017,611	0,35
1018,029	0,35
1018,448	0,35
1018,866	0,35
1019,285	0,35
1019,703	0,35
1020,121	0,35
1020,54	0,35
1020,958	0,35
1021,376	0,35
1021,794	0,35
1022,213	0,35
1022,631	0,35
1023,049	0,34
1023,467	0,34
1023,885	0,34
1024,303	0,34
1024,721	0,34
1025,139	0,34
1025,557	0,34
1025,975	0,34
1026,393	0,34
1026,811	0,34
1027,229	0,34
1027,647	0,34
1028,065	0,34
1028,482	0,34
1028,9	0,34
1029,318	0,34
1029,735	0,34
1030,153	0,34
1030,571	0,34
1030,988	0,34
1031,406	0,33
1031,823	0,34
1032,241	0,34
1032,659	0,34
1033,076	0,34
1033,493	0,34
1033,911	0,34
1034,328	0,34
1034,746	0,34
1035,163	0,34
1035,58	0,34
1035,997	0,34
1036,415	0,34
1036,832	0,34
1037,249	0,34
1037,666	0,34
1038,083	0,34
1038,501	0,34
1038,918	0,34
1039,335	0,34
1039,752	0,34
1040,169	0,34
1040,586	0,34
1041,003	0,34
1041,419	0,34
1041,836	0,34
1042,253	0,34
1042,67	0,34
1043,087	0,34
1043,504	0,34
1043,92	0,34
1044,337	0,34
1044,754	0,34
1045,17	0,33
1045,587	0,33
1046,004	0,33
1046,42	0,33
1046,837	0,33
1047,253	0,33
1047,67	0,33
1048,086	0,33
1048,503	0,33
1048,919	0,33
1049,335	0,33
1049,752	0,33
1050,168	0,33
1050,584	0,34
1051,001	0,34
1051,417	0,34
1051,833	0,34
1052,249	0,34
1052,665	0,34
1053,081	0,34
1053,497	0,34
1053,914	0,34
1054,33	0,34
1054,746	0,34
1055,162	0,35
1055,578	0,35
1055,993	0,35
1056,409	0,35
1056,825	0,35
1057,241	0,35
1057,657	0,35
1058,073	0,35
1058,488	0,35
1058,904	0,35
1059,32	0,35
1059,736	0,35
1060,151	0,34
1060,567	0,34
1060,982	0,34
1061,398	0,34
1061,813	0,34
1062,229	0,34
1062,644	0,34
1063,06	0,34
1063,475	0,34
1063,891	0,34
1064,306	0,34
1064,721	0,34
1065,137	0,34
1065,552	0,34
1065,967	0,34
1066,382	0,34
1066,798	0,34
1067,213	0,34
1067,628	0,34
1068,043	0,34
1068,458	0,34
1068,873	0,34
1069,288	0,34
1069,703	0,34
1070,118	0,34
1070,533	0,34
1070,948	0,34
1071,363	0,34
1071,778	0,34
1072,193	0,34
1072,607	0,34
1073,022	0,34
1073,437	0,34
1073,852	0,34
1074,266	0,34
1074,681	0,34
1075,096	0,34
1075,51	0,34
1075,925	0,34
1076,339	0,34
1076,754	0,34
1077,168	0,34
1077,583	0,34
1077,997	0,34
1078,412	0,34
1078,826	0,34
1079,24	0,34
1079,655	0,34
1080,069	0,34
1080,483	0,34
1080,897	0,34
1081,312	0,34
1081,726	0,33
1082,14	0,33
1082,554	0,33
1082,968	0,33
1083,382	0,33
1083,796	0,33
1084,21	0,33
1084,624	0,33
1085,038	0,33
1085,452	0,33
1085,866	0,33
1086,28	0,32
1086,694	0,32
1087,108	0,32
1087,521	0,32
1087,935	0,32
1088,349	0,32
1088,763	0,31
1089,176	0,31
1089,59	0,31
1090,004	0,31
1090,417	0,3
1090,831	0,3
1091,244	0,3
1091,658	0,3
1092,071	0,29
1092,485	0,29
1092,898	0,29
1093,312	0,29
1093,725	0,28
1094,138	0,28
1094,552	0,28
1094,965	0,28
1095,378	0,28
1095,791	0,27
1096,205	0,27
1096,618	0,27
1097,031	0,27
1097,444	0,27
1097,857	0,26
1098,27	0,26
1098,683	0,26
1099,096	0,26
1099,509	0,25
1099,922	0,25
1100,335	0,25
1100,748	0,24
1101,161	0,24
1101,574	0,23
1101,986	0,23
1102,399	0,23
1102,812	0,23
1103,225	0,22
1103,637	0,22
1104,05	0,22
1104,463	0,22
1104,875	0,22
1105,288	0,22
1105,7	0,21
1106,113	0,21
1106,525	0,21
1106,938	0,2
1107,35	0,2
1107,763	0,2
1108,175	0,19
1108,588	0,18
1109	0,18
1109,412	0,17
1109,824	0,18
1110,237	0,18
1110,649	0,18
1111,061	0,17
