Data from 18C-808nm-8A-cont_Absorbance__167__01596.txt Node

Date: Mon Jul 17 17:23:33 CEST 2023
User: Laser008
Spectrometer: MAYP115816
Trigger mode: 0
Integration Time (sec): 2,500000E-1
Scans to average: 10
Electric dark correction enabled: true
Nonlinearity correction enabled: true
Boxcar width: 5
XAxis mode: Wavelengths
Number of Pixels in Spectrum: 2068
>>>>>Begin Spectral Data<<<<<
198,914	-0,64
199,384	-0,43
199,855	-0,32
200,325	-0,24
200,796	-0,22
201,266	-0,18
201,737	-0,16
202,207	-0,15
202,677	-0,15
203,147	-0,13
203,618	-0,1
204,088	-0,09
204,558	-0,07
205,028	-0,07
205,498	-0,08
205,968	-0,08
206,439	-0,09
206,909	-0,08
207,379	-0,08
207,849	-0,08
208,319	-0,08
208,789	-0,08
209,258	-0,08
209,728	-0,11
210,198	-0,11
210,668	-0,11
211,138	-0,1
211,608	-0,11
212,077	-0,1
212,547	-0,11
213,017	-0,11
213,486	-0,12
213,956	-0,13
214,426	-0,14
214,895	-0,13
215,365	-0,14
215,834	-0,13
216,304	-0,14
216,773	-0,14
217,243	-0,16
217,712	-0,18
218,181	-0,18
218,651	-0,18
219,12	-0,17
219,589	-0,17
220,058	-0,16
220,528	-0,16
220,997	-0,17
221,466	-0,18
221,935	-0,18
222,404	-0,18
222,873	-0,17
223,342	-0,16
223,812	-0,17
224,281	-0,17
224,749	-0,17
225,218	-0,19
225,687	-0,18
226,156	-0,17
226,625	-0,15
227,094	-0,16
227,563	-0,15
228,031	-0,16
228,5	-0,17
228,969	-0,16
229,438	-0,16
229,906	-0,15
230,375	-0,15
230,844	-0,14
231,312	-0,14
231,781	-0,15
232,249	-0,15
232,718	-0,15
233,186	-0,14
233,655	-0,14
234,123	-0,14
234,591	-0,15
235,06	-0,15
235,528	-0,16
235,996	-0,15
236,465	-0,15
236,933	-0,15
237,401	-0,14
237,869	-0,13
238,337	-0,14
238,805	-0,12
239,274	-0,12
239,742	-0,11
240,21	-0,11
240,678	-0,11
241,146	-0,1
241,614	-0,1
242,081	-0,1
242,549	-0,11
243,017	-0,11
243,485	-0,11
243,953	-0,11
244,421	-0,1
244,888	-0,1
245,356	-0,1
245,824	-0,1
246,291	-0,1
246,759	-0,1
247,227	-0,1
247,694	-0,09
248,162	-0,08
248,629	-0,07
249,097	-0,07
249,564	-0,08
250,032	-0,09
250,499	-0,08
250,967	-0,1
251,434	-0,1
251,901	-0,1
252,369	-0,1
252,836	-0,12
253,303	-0,14
253,77	-0,15
254,237	-0,14
254,705	-0,13
255,172	-0,13
255,639	-0,13
256,106	-0,14
256,573	-0,14
257,04	-0,15
257,507	-0,15
257,974	-0,16
258,441	-0,13
258,908	-0,14
259,375	-0,16
259,841	-0,16
260,308	-0,17
260,775	-0,18
261,242	-0,17
261,709	-0,18
262,175	-0,19
262,642	-0,19
263,109	-0,18
263,575	-0,2
264,042	-0,18
264,508	-0,17
264,975	-0,19
265,441	-0,19
265,908	-0,19
266,374	-0,18
266,841	-0,19
267,307	-0,18
267,773	-0,17
268,24	-0,18
268,706	-0,18
269,172	-0,18
269,639	-0,2
270,105	-0,18
270,571	-0,19
271,037	-0,19
271,503	-0,2
271,969	-0,2
272,435	-0,2
272,902	-0,22
273,368	-0,23
273,834	-0,23
274,3	-0,23
274,765	-0,22
275,231	-0,23
275,697	-0,23
276,163	-0,22
276,629	-0,22
277,095	-0,23
277,56	-0,22
278,026	-0,22
278,492	-0,21
278,958	-0,21
279,423	-0,22
279,889	-0,22
280,354	-0,22
280,82	-0,22
281,286	-0,23
281,751	-0,23
282,217	-0,21
282,682	-0,21
283,147	-0,21
283,613	-0,21
284,078	-0,21
284,544	-0,22
285,009	-0,22
285,474	-0,21
285,939	-0,22
286,405	-0,21
286,87	-0,21
287,335	-0,21
287,8	-0,2
288,265	-0,19
288,73	-0,21
289,195	-0,23
289,66	-0,22
290,125	-0,21
290,59	-0,21
291,055	-0,21
291,52	-0,21
291,985	-0,21
292,45	-0,23
292,915	-0,23
293,38	-0,24
293,844	-0,22
294,309	-0,2
294,774	-0,19
295,239	-0,2
295,703	-0,2
296,168	-0,19
296,632	-0,18
297,097	-0,16
297,562	-0,14
298,026	-0,14
298,491	-0,15
298,955	-0,15
299,419	-0,16
299,884	-0,15
300,348	-0,15
300,813	-0,14
301,277	-0,15
301,741	-0,15
302,205	-0,15
302,67	-0,14
303,134	-0,15
303,598	-0,15
304,062	-0,13
304,526	-0,12
304,99	-0,14
305,454	-0,14
305,919	-0,14
306,383	-0,14
306,847	-0,14
307,31	-0,15
307,774	-0,16
308,238	-0,16
308,702	-0,15
309,166	-0,17
309,63	-0,16
310,094	-0,13
310,557	-0,13
311,021	-0,12
311,485	-0,12
311,948	-0,12
312,412	-0,12
312,876	-0,12
313,339	-0,12
313,803	-0,12
314,266	-0,12
314,73	-0,12
315,193	-0,13
315,657	-0,12
316,12	-0,12
316,584	-0,1
317,047	-0,1
317,51	-0,09
317,973	-0,08
318,437	-0,06
318,9	-0,05
319,363	-0,04
319,826	-0,04
320,29	-0,05
320,753	-0,05
321,216	-0,05
321,679	-0,05
322,142	-0,05
322,605	-0,07
323,068	-0,07
323,531	-0,07
323,994	-0,07
324,457	-0,08
324,92	-0,06
325,382	-0,05
325,845	-0,05
326,308	-0,04
326,771	-0,04
327,233	-0,03
327,696	-0,02
328,159	-0,01
328,622	-0
329,084	-0,01
329,547	0
330,009	0
330,472	0,01
330,934	0,01
331,397	0,02
331,859	0,03
332,322	0,03
332,784	0,04
333,246	0,04
333,709	0,04
334,171	0,04
334,633	0,05
335,096	0,05
335,558	0,05
336,02	0,05
336,482	0,05
336,944	0,06
337,406	0,06
337,868	0,06
338,331	0,07
338,793	0,07
339,255	0,09
339,717	0,09
340,178	0,1
340,64	0,11
341,102	0,11
341,564	0,12
342,026	0,14
342,488	0,15
342,949	0,16
343,411	0,19
343,873	0,21
344,335	0,23
344,796	0,27
345,258	0,31
345,719	0,35
346,181	0,39
346,643	0,42
347,104	0,45
347,566	0,48
348,027	0,5
348,488	0,52
348,95	0,54
349,411	0,56
349,873	0,58
350,334	0,59
350,795	0,61
351,256	0,61
351,718	0,62
352,179	0,63
352,64	0,63
353,101	0,63
353,562	0,63
354,023	0,63
354,484	0,64
354,945	0,64
355,406	0,64
355,867	0,64
356,328	0,64
356,789	0,65
357,25	0,65
357,711	0,65
358,172	0,65
358,633	0,66
359,093	0,66
359,554	0,66
360,015	0,66
360,476	0,66
360,936	0,66
361,397	0,66
361,858	0,66
362,318	0,66
362,779	0,66
363,239	0,66
363,7	0,66
364,16	0,66
364,621	0,66
365,081	0,66
365,541	0,66
366,002	0,66
366,462	0,66
366,922	0,66
367,383	0,66
367,843	0,66
368,303	0,66
368,763	0,66
369,223	0,66
369,684	0,66
370,144	0,66
370,604	0,66
371,064	0,66
371,524	0,66
371,984	0,66
372,444	0,66
372,904	0,66
373,363	0,66
373,823	0,66
374,283	0,66
374,743	0,66
375,203	0,66
375,663	0,66
376,122	0,66
376,582	0,66
377,042	0,66
377,501	0,66
377,961	0,65
378,42	0,65
378,88	0,65
379,34	0,65
379,799	0,65
380,259	0,65
380,718	0,65
381,177	0,65
381,637	0,65
382,096	0,65
382,555	0,65
383,015	0,65
383,474	0,65
383,933	0,65
384,393	0,65
384,852	0,65
385,311	0,65
385,77	0,65
386,229	0,65
386,688	0,65
387,147	0,65
387,606	0,65
388,065	0,65
388,524	0,65
388,983	0,65
389,442	0,65
389,901	0,65
390,36	0,65
390,819	0,64
391,277	0,64
391,736	0,64
392,195	0,64
392,654	0,64
393,112	0,64
393,571	0,64
394,03	0,64
394,488	0,64
394,947	0,64
395,405	0,64
395,864	0,64
396,322	0,64
396,781	0,64
397,239	0,64
397,698	0,64
398,156	0,64
398,614	0,64
399,073	0,64
399,531	0,64
399,989	0,64
400,447	0,64
400,905	0,64
401,364	0,64
401,822	0,64
402,28	0,64
402,738	0,64
403,196	0,64
403,654	0,64
404,112	0,64
404,57	0,64
405,028	0,64
405,486	0,64
405,944	0,64
406,402	0,64
406,859	0,64
407,317	0,64
407,775	0,64
408,233	0,64
408,691	0,64
409,148	0,64
409,606	0,63
410,064	0,63
410,521	0,63
410,979	0,63
411,436	0,63
411,894	0,63
412,351	0,63
412,809	0,63
413,266	0,63
413,724	0,63
414,181	0,63
414,638	0,63
415,096	0,63
415,553	0,63
416,01	0,63
416,467	0,63
416,925	0,63
417,382	0,63
417,839	0,63
418,296	0,63
418,753	0,63
419,21	0,63
419,667	0,63
420,124	0,63
420,581	0,63
421,038	0,63
421,495	0,63
421,952	0,63
422,409	0,63
422,866	0,63
423,322	0,63
423,779	0,63
424,236	0,63
424,693	0,63
425,149	0,63
425,606	0,63
426,063	0,63
426,519	0,63
426,976	0,63
427,433	0,63
427,889	0,63
428,346	0,63
428,802	0,63
429,258	0,63
429,715	0,63
430,171	0,63
430,628	0,63
431,084	0,63
431,54	0,63
431,997	0,63
432,453	0,63
432,909	0,63
433,365	0,63
433,821	0,62
434,277	0,62
434,734	0,62
435,19	0,62
435,646	0,62
436,102	0,62
436,558	0,62
437,014	0,62
437,47	0,62
437,925	0,62
438,381	0,62
438,837	0,63
439,293	0,63
439,749	0,63
440,205	0,63
440,66	0,63
441,116	0,63
441,572	0,63
442,027	0,63
442,483	0,63
442,939	0,63
443,394	0,63
443,85	0,63
444,305	0,63
444,761	0,63
445,216	0,63
445,672	0,63
446,127	0,63
446,582	0,63
447,038	0,63
447,493	0,63
447,948	0,63
448,403	0,63
448,859	0,63
449,314	0,63
449,769	0,63
450,224	0,63
450,679	0,63
451,134	0,63
451,589	0,63
452,044	0,63
452,499	0,63
452,954	0,63
453,409	0,63
453,864	0,63
454,319	0,63
454,774	0,63
455,229	0,63
455,684	0,63
456,138	0,63
456,593	0,63
457,048	0,63
457,503	0,63
457,957	0,63
458,412	0,63
458,866	0,63
459,321	0,63
459,776	0,63
460,23	0,63
460,685	0,63
461,139	0,64
461,593	0,64
462,048	0,64
462,502	0,64
462,957	0,64
463,411	0,64
463,865	0,64
464,319	0,64
464,774	0,64
465,228	0,64
465,682	0,64
466,136	0,64
466,59	0,64
467,044	0,64
467,499	0,64
467,953	0,65
468,407	0,65
468,861	0,65
469,315	0,65
469,768	0,65
470,222	0,65
470,676	0,65
471,13	0,65
471,584	0,65
472,038	0,65
472,491	0,65
472,945	0,65
473,399	0,65
473,852	0,65
474,306	0,66
474,76	0,66
475,213	0,66
475,667	0,66
476,12	0,66
476,574	0,66
477,027	0,66
477,481	0,66
477,934	0,66
478,388	0,67
478,841	0,67
479,294	0,67
479,748	0,67
480,201	0,67
480,654	0,67
481,107	0,67
481,561	0,68
482,014	0,68
482,467	0,68
482,92	0,68
483,373	0,68
483,826	0,68
484,279	0,68
484,732	0,69
485,185	0,69
485,638	0,69
486,091	0,69
486,544	0,69
486,997	0,69
487,449	0,7
487,902	0,7
488,355	0,7
488,808	0,7
489,26	0,7
489,713	0,71
490,166	0,71
490,618	0,71
491,071	0,71
491,523	0,72
491,976	0,72
492,429	0,72
492,881	0,72
493,333	0,73
493,786	0,73
494,238	0,73
494,691	0,73
495,143	0,74
495,595	0,74
496,048	0,74
496,5	0,75
496,952	0,75
497,404	0,75
497,856	0,75
498,309	0,76
498,761	0,76
499,213	0,76
499,665	0,77
500,117	0,77
500,569	0,77
501,021	0,78
501,473	0,78
501,925	0,78
502,377	0,79
502,828	0,79
503,28	0,79
503,732	0,8
504,184	0,8
504,636	0,8
505,087	0,81
505,539	0,81
505,991	0,81
506,442	0,82
506,894	0,82
507,345	0,82
507,797	0,83
508,249	0,83
508,7	0,83
509,151	0,84
509,603	0,84
510,054	0,84
510,506	0,85
510,957	0,85
511,408	0,85
511,86	0,86
512,311	0,86
512,762	0,86
513,213	0,87
513,665	0,87
514,116	0,87
514,567	0,87
515,018	0,88
515,469	0,88
515,92	0,88
516,371	0,89
516,822	0,89
517,273	0,89
517,724	0,89
518,175	0,9
518,626	0,9
519,076	0,9
519,527	0,9
519,978	0,9
520,429	0,91
520,88	0,91
521,33	0,91
521,781	0,91
522,232	0,91
522,682	0,91
523,133	0,92
523,583	0,92
524,034	0,92
524,484	0,92
524,935	0,92
525,385	0,92
525,836	0,92
526,286	0,92
526,736	0,92
527,187	0,92
527,637	0,92
528,087	0,92
528,538	0,92
528,988	0,92
529,438	0,92
529,888	0,92
530,338	0,92
530,788	0,92
531,238	0,92
531,688	0,91
532,139	0,91
532,589	0,91
533,038	0,91
533,488	0,91
533,938	0,91
534,388	0,9
534,838	0,9
535,288	0,9
535,738	0,9
536,187	0,89
536,637	0,89
537,087	0,89
537,537	0,89
537,986	0,88
538,436	0,88
538,885	0,87
539,335	0,87
539,785	0,87
540,234	0,86
540,684	0,86
541,133	0,86
541,582	0,85
542,032	0,85
542,481	0,84
542,931	0,84
543,38	0,84
543,829	0,83
544,278	0,83
544,728	0,82
545,177	0,82
545,626	0,82
546,075	0,82
546,524	0,81
546,973	0,81
547,422	0,81
547,871	0,8
548,32	0,8
548,769	0,8
549,218	0,8
549,667	0,79
550,116	0,79
550,565	0,79
551,014	0,78
551,463	0,78
551,911	0,77
552,36	0,77
552,809	0,77
553,258	0,76
553,706	0,76
554,155	0,76
554,603	0,75
555,052	0,75
555,501	0,75
555,949	0,74
556,398	0,74
556,846	0,74
557,294	0,73
557,743	0,73
558,191	0,72
558,64	0,72
559,088	0,72
559,536	0,71
559,985	0,71
560,433	0,7
560,881	0,7
561,329	0,7
561,777	0,69
562,225	0,69
562,674	0,69
563,122	0,68
563,57	0,68
564,018	0,68
564,466	0,67
564,914	0,67
565,362	0,67
565,809	0,66
566,257	0,66
566,705	0,66
567,153	0,65
567,601	0,65
568,048	0,65
568,496	0,65
568,944	0,64
569,392	0,64
569,839	0,64
570,287	0,63
570,734	0,63
571,182	0,63
571,63	0,63
572,077	0,62
572,525	0,62
572,972	0,62
573,419	0,61
573,867	0,61
574,314	0,61
574,761	0,6
575,209	0,6
575,656	0,6
576,103	0,6
576,551	0,59
576,998	0,59
577,445	0,59
577,892	0,59
578,339	0,58
578,786	0,58
579,233	0,58
579,68	0,58
580,127	0,57
580,574	0,57
581,021	0,57
581,468	0,57
581,915	0,57
582,362	0,56
582,809	0,56
583,255	0,56
583,702	0,56
584,149	0,56
584,596	0,56
585,042	0,55
585,489	0,55
585,936	0,55
586,382	0,55
586,829	0,55
587,275	0,54
587,722	0,54
588,168	0,54
588,615	0,54
589,061	0,54
589,508	0,54
589,954	0,53
590,4	0,53
590,847	0,53
591,293	0,53
591,739	0,53
592,185	0,53
592,632	0,53
593,078	0,52
593,524	0,52
593,97	0,52
594,416	0,52
594,862	0,52
595,308	0,52
595,754	0,52
596,2	0,52
596,646	0,51
597,092	0,51
597,538	0,51
597,984	0,51
598,43	0,51
598,876	0,51
599,321	0,51
599,767	0,51
600,213	0,51
600,659	0,51
601,104	0,5
601,55	0,5
601,995	0,5
602,441	0,5
602,887	0,5
603,332	0,5
603,778	0,5
604,223	0,5
604,668	0,5
605,114	0,49
605,559	0,49
606,005	0,49
606,45	0,49
606,895	0,49
607,341	0,49
607,786	0,49
608,231	0,49
608,676	0,48
609,121	0,48
609,566	0,47
610,012	0,47
610,457	0,47
610,902	0,46
611,347	0,46
611,792	0,46
612,237	0,46
612,682	0,46
613,127	0,46
613,571	0,46
614,016	0,46
614,461	0,46
614,906	0,47
615,351	0,47
615,795	0,47
616,24	0,47
616,685	0,47
617,129	0,47
617,574	0,47
618,019	0,47
618,463	0,47
618,908	0,47
619,352	0,47
619,797	0,47
620,241	0,47
620,686	0,46
621,13	0,46
621,574	0,46
622,019	0,46
622,463	0,46
622,907	0,46
623,352	0,46
623,796	0,46
624,24	0,46
624,684	0,46
625,128	0,46
625,572	0,46
626,016	0,46
626,461	0,46
626,905	0,46
627,349	0,46
627,793	0,46
628,236	0,46
628,68	0,45
629,124	0,45
629,568	0,45
630,012	0,45
630,456	0,45
630,9	0,45
631,343	0,45
631,787	0,45
632,231	0,45
632,674	0,45
633,118	0,45
633,562	0,45
634,005	0,45
634,449	0,45
634,892	0,45
635,336	0,45
635,779	0,45
636,223	0,45
636,666	0,45
637,109	0,45
637,553	0,45
637,996	0,45
638,439	0,45
638,883	0,45
639,326	0,45
639,769	0,45
640,212	0,45
640,655	0,45
641,099	0,44
641,542	0,44
641,985	0,44
642,428	0,44
642,871	0,44
643,314	0,44
643,757	0,44
644,2	0,44
644,643	0,44
645,085	0,44
645,528	0,44
645,971	0,44
646,414	0,44
646,857	0,44
647,299	0,44
647,742	0,44
648,185	0,44
648,627	0,44
649,07	0,44
649,513	0,44
649,955	0,44
650,398	0,44
650,84	0,44
651,283	0,44
651,725	0,44
652,168	0,44
652,61	0,44
653,052	0,44
653,495	0,44
653,937	0,35
654,379	0,29
654,821	0,3
655,264	0,3
655,706	0,3
656,148	0,3
656,59	0,3
657,032	0,3
657,474	0,3
657,916	0,3
658,358	0,29
658,8	0,35
659,242	0,43
659,684	0,44
660,126	0,43
660,568	0,43
661,01	0,43
661,452	0,43
661,894	0,43
662,335	0,43
662,777	0,43
663,219	0,43
663,661	0,43
664,102	0,43
664,544	0,43
664,985	0,43
665,427	0,43
665,869	0,43
666,31	0,43
666,752	0,43
667,193	0,43
667,634	0,43
668,076	0,43
668,517	0,43
668,959	0,43
669,4	0,43
669,841	0,43
670,282	0,43
670,724	0,43
671,165	0,43
671,606	0,43
672,047	0,43
672,488	0,43
672,929	0,43
673,37	0,43
673,811	0,43
674,252	0,43
674,693	0,42
675,134	0,42
675,575	0,42
676,016	0,42
676,457	0,42
676,898	0,42
677,339	0,42
677,78	0,42
678,22	0,42
678,661	0,42
679,102	0,42
679,542	0,42
679,983	0,42
680,424	0,42
680,864	0,42
681,305	0,42
681,745	0,42
682,186	0,42
682,626	0,42
683,067	0,42
683,507	0,42
683,948	0,42
684,388	0,42
684,828	0,42
685,269	0,42
685,709	0,42
686,149	0,42
686,589	0,42
687,029	0,42
687,47	0,41
687,91	0,41
688,35	0,41
688,79	0,41
689,23	0,41
689,67	0,41
690,11	0,41
690,55	0,41
690,99	0,41
691,43	0,41
691,87	0,41
692,31	0,41
692,749	0,41
693,189	0,41
693,629	0,41
694,069	0,41
694,508	0,41
694,948	0,41
695,388	0,41
695,827	0,41
696,267	0,41
696,706	0,41
697,146	0,41
697,586	0,41
698,025	0,41
698,464	0,41
698,904	0,41
699,343	0,41
699,783	0,41
700,222	0,41
700,661	0,41
701,101	0,41
701,54	0,41
701,979	0,41
702,418	0,41
702,857	0,41
703,297	0,41
703,736	0,41
704,175	0,41
704,614	0,41
705,053	0,41
705,492	0,41
705,931	0,41
706,37	0,41
706,809	0,41
707,248	0,41
707,687	0,41
708,125	0,41
708,564	0,41
709,003	0,41
709,442	0,41
709,88	0,41
710,319	0,41
710,758	0,4
711,196	0,4
711,635	0,4
712,074	0,4
712,512	0,4
712,951	0,4
713,389	0,4
713,828	0,4
714,266	0,4
714,705	0,4
715,143	0,4
715,581	0,4
716,02	0,4
716,458	0,4
716,896	0,4
717,334	0,4
717,773	0,4
718,211	0,4
718,649	0,4
719,087	0,4
719,525	0,4
719,963	0,4
720,401	0,4
720,839	0,4
721,277	0,4
721,715	0,4
722,153	0,4
722,591	0,4
723,029	0,4
723,467	0,4
723,905	0,4
724,342	0,4
724,78	0,4
725,218	0,4
725,656	0,4
726,093	0,4
726,531	0,4
726,969	0,4
727,406	0,4
727,844	0,4
728,281	0,4
728,719	0,4
729,156	0,4
729,594	0,4
730,031	0,4
730,469	0,4
730,906	0,39
731,343	0,39
731,781	0,39
732,218	0,39
732,655	0,39
733,092	0,39
733,53	0,39
733,967	0,39
734,404	0,39
734,841	0,39
735,278	0,39
735,715	0,39
736,152	0,39
736,589	0,39
737,026	0,39
737,463	0,38
737,9	0,38
738,337	0,38
738,774	0,38
739,211	0,38
739,647	0,38
740,084	0,38
740,521	0,38
740,958	0,38
741,394	0,38
741,831	0,38
742,268	0,38
742,704	0,38
743,141	0,38
743,577	0,38
744,014	0,38
744,45	0,38
744,887	0,38
745,323	0,38
745,76	0,38
746,196	0,38
746,632	0,37
747,069	0,37
747,505	0,37
747,941	0,37
748,378	0,37
748,814	0,37
749,25	0,37
749,686	0,38
750,122	0,38
750,558	0,38
750,994	0,38
751,43	0,38
751,866	0,38
752,302	0,38
752,738	0,39
753,174	0,39
753,61	0,39
754,046	0,39
754,482	0,39
754,918	0,39
755,354	0,39
755,789	0,38
756,225	0,38
756,661	0,38
757,096	0,38
757,532	0,38
757,968	0,38
758,403	0,37
758,839	0,37
759,274	0,37
759,71	0,37
760,145	0,36
760,581	0,36
761,016	0,35
761,452	0,35
761,887	0,34
762,322	0,34
762,758	0,34
763,193	0,33
763,628	0,33
764,063	0,32
764,499	0,31
764,934	0,31
765,369	0,3
765,804	0,3
766,239	0,29
766,674	0,29
767,109	0,28
767,544	0,27
767,979	0,26
768,414	0,25
768,849	0,24
769,284	0,24
769,719	0,23
770,154	0,23
770,588	0,22
771,023	0,2
771,458	0,19
771,893	0,18
772,327	0,17
772,762	0,16
773,197	0,15
773,631	0,15
774,066	0,14
774,5	0,13
774,935	0,12
775,369	0,11
775,804	0,1
776,238	0,09
776,673	0,08
777,107	0,07
777,541	0,06
777,976	0,06
778,41	0,05
778,844	0,04
779,279	0,03
779,713	0,02
780,147	0,01
780,581	0,01
781,015	-0
781,449	-0,01
781,883	-0,01
782,317	-0,03
782,751	-0,04
783,185	-0,05
783,619	-0,05
784,053	-0,06
784,487	-0,06
784,921	-0,06
785,355	-0,07
785,789	-0,08
786,223	-0,09
786,656	-0,1
787,09	-0,11
787,524	-0,12
787,957	-0,13
788,391	-0,15
788,825	-0,17
789,258	-0,19
789,692	-0,2
790,125	-0,22
790,559	-0,23
790,992	-0,25
791,426	-0,27
791,859	-0,29
792,293	-0,32
792,726	-0,34
793,159	-0,36
793,593	-0,38
794,026	-0,4
794,459	-0,43
794,892	-0,46
795,326	-0,49
795,759	-0,53
796,192	-0,57
796,625	-0,62
797,058	-0,65
797,491	-0,69
797,924	-0,73
798,357	-0,78
798,79	-0,82
799,223	-0,87
799,656	-0,92
800,089	-0,97
800,522	-1,01
800,955	-1,05
801,387	-1,11
801,82	-1,16
802,253	-1,23
802,686	-1,3
803,118	-1,36
803,551	-1,41
803,984	-1,46
804,416	-1,49
804,849	-1,53
805,281	-1,64
805,714	-2,02
806,146	-2,46
806,579	-2,72
807,011	-2,88
807,444	-2,97
807,876	-3,05
808,308	-3,09
808,741	-3,12
809,173	-3,17
809,605	-3,19
810,037	-3,26
810,47	-3,18
810,902	-2,98
811,334	-2,83
811,766	-2,67
812,198	-2,43
812,63	-2
813,062	-1,8
813,494	-1,7
813,926	-1,61
814,358	-1,56
814,79	-1,48
815,222	-1,42
815,654	-1,37
816,086	-1,31
816,518	-1,25
816,949	-1,2
817,381	-1,16
817,813	-1,14
818,245	-1,1
818,676	-1,05
819,108	-1,02
819,54	-1
819,971	-0,98
820,403	-0,93
820,834	-0,92
821,266	-0,88
821,697	-0,85
822,129	-0,84
822,56	-0,82
822,991	-0,8
823,423	-0,77
823,854	-0,77
824,286	-0,74
824,717	-0,73
825,148	-0,72
825,579	-0,7
826,01	-0,69
826,442	-0,69
826,873	-0,67
827,304	-0,63
827,735	-0,62
828,166	-0,63
828,597	-0,62
829,028	-0,61
829,459	-0,62
829,89	-0,62
830,321	-0,58
830,752	-0,59
831,183	-0,58
831,613	-0,57
832,044	-0,56
832,475	-0,55
832,906	-0,56
833,336	-0,56
833,767	-0,56
834,198	-0,54
834,628	-0,52
835,059	-0,55
835,49	-0,56
835,92	-0,53
836,351	-0,52
836,781	-0,53
837,212	-0,54
837,642	-0,54
838,072	-0,53
838,503	-0,54
838,933	-0,51
839,364	-0,52
839,794	-0,5
840,224	-0,49
840,654	-0,53
841,085	-0,54
841,515	-0,52
841,945	-0,52
842,375	-0,48
842,805	-0,47
843,235	-0,45
843,665	-0,47
844,095	-0,45
844,525	-0,47
844,955	-0,47
845,385	-0,45
845,815	-0,43
846,245	-0,45
846,675	-0,47
847,105	-0,49
847,534	-0,48
847,964	-0,47
848,394	-0,46
848,824	-0,49
849,253	-0,49
849,683	-0,5
850,112	-0,51
850,542	-0,54
850,972	-0,53
851,401	-0,5
851,831	-0,48
852,26	-0,5
852,69	-0,54
853,119	-0,53
853,548	-0,53
853,978	-0,53
854,407	-0,51
854,836	-0,51
855,266	-0,5
855,695	-0,52
856,124	-0,54
856,553	-0,55
856,983	-0,57
857,412	-0,57
857,841	-0,58
858,27	-0,59
858,699	-0,58
859,128	-0,61
859,557	-0,62
859,986	-0,64
860,415	-0,62
860,844	-0,58
861,273	-0,58
861,702	-0,58
862,13	-0,56
862,559	-0,58
862,988	-0,55
863,417	-0,55
863,845	-0,55
864,274	-0,55
864,703	-0,55
865,131	-0,55
865,56	-0,56
865,989	-0,59
866,417	-0,55
866,846	-0,55
867,274	-0,54
867,703	-0,57
868,131	-0,57
868,559	-0,57
868,988	-0,59
869,416	-0,58
869,844	-0,59
870,273	-0,62
870,701	-0,6
871,129	-0,64
871,557	-0,68
871,986	-0,68
872,414	-0,68
872,842	-0,65
873,27	-0,64
873,698	-0,6
874,126	-0,64
874,554	-0,61
874,982	-0,61
875,41	-0,63
875,838	-0,57
876,266	-0,55
876,694	-0,55
877,122	-0,54
877,549	-0,6
877,977	-0,57
878,405	-0,61
878,833	-0,58
879,26	-0,58
879,688	-0,58
880,116	-0,57
880,543	-0,56
880,971	-0,55
881,399	-0,58
881,826	-0,58
882,254	-0,56
882,681	-0,59
883,109	-0,55
883,536	-0,56
883,963	-0,58
884,391	-0,56
884,818	-0,54
885,245	-0,58
885,673	-0,59
886,1	-0,55
886,527	-0,55
886,954	-0,51
887,381	-0,54
887,809	-0,54
888,236	-0,55
888,663	-0,55
889,09	-0,58
889,517	-0,6
889,944	-0,6
890,371	-0,59
890,798	-0,6
891,225	-0,6
891,652	-0,64
892,078	-0,61
892,505	-0,64
892,932	-0,59
893,359	-0,61
893,786	-0,61
894,212	-0,58
894,639	-0,6
895,066	-0,62
895,492	-0,56
895,919	-0,57
896,346	-0,56
896,772	-0,56
897,199	-0,53
897,625	-0,56
898,052	-0,53
898,478	-0,51
898,904	-0,53
899,331	-0,52
899,757	-0,54
900,183	-0,55
900,61	-0,54
901,036	-0,55
901,462	-0,55
901,888	-0,54
902,315	-0,53
902,741	-0,58
903,167	-0,57
903,593	-0,59
904,019	-0,58
904,445	-0,54
904,871	-0,58
905,297	-0,6
905,723	-0,59
906,149	-0,59
906,575	-0,6
907,001	-0,6
907,427	-0,57
907,852	-0,56
908,278	-0,57
908,704	-0,56
909,13	-0,55
909,555	-0,55
909,981	-0,53
910,407	-0,53
910,832	-0,53
911,258	-0,52
911,684	-0,53
912,109	-0,52
912,535	-0,54
912,96	-0,5
913,386	-0,54
913,811	-0,54
914,236	-0,56
914,662	-0,54
915,087	-0,57
915,512	-0,56
915,938	-0,58
916,363	-0,57
916,788	-0,59
917,213	-0,57
917,639	-0,61
918,064	-0,58
918,489	-0,58
918,914	-0,58
919,339	-0,59
919,764	-0,56
920,189	-0,58
920,614	-0,6
921,039	-0,61
921,464	-0,56
921,889	-0,59
922,314	-0,59
922,738	-0,63
923,163	-0,65
923,588	-0,64
924,013	-0,65
924,437	-0,65
924,862	-0,67
925,287	-0,62
925,711	-0,63
926,136	-0,64
926,561	-0,62
926,985	-0,62
927,41	-0,59
927,834	-0,56
928,259	-0,53
928,683	-0,5
929,108	-0,48
929,532	-0,47
929,956	-0,47
930,381	-0,47
930,805	-0,47
931,229	-0,46
931,653	-0,44
932,078	-0,43
932,502	-0,45
932,926	-0,46
933,35	-0,46
933,774	-0,45
934,198	-0,43
934,622	-0,42
935,046	-0,43
935,47	-0,43
935,894	-0,43
936,318	-0,43
936,742	-0,43
937,166	-0,43
937,59	-0,42
938,014	-0,45
938,437	-0,46
938,861	-0,48
939,285	-0,49
939,709	-0,49
940,132	-0,48
940,556	-0,49
940,98	-0,49
941,403	-0,48
941,827	-0,48
942,25	-0,49
942,674	-0,47
943,097	-0,47
943,521	-0,47
943,944	-0,48
944,368	-0,46
944,791	-0,45
945,214	-0,46
945,638	-0,47
946,061	-0,5
946,484	-0,5
946,907	-0,49
947,331	-0,49
947,754	-0,53
948,177	-0,51
948,6	-0,51
949,023	-0,51
949,446	-0,52
949,869	-0,5
950,292	-0,5
950,715	-0,47
951,138	-0,47
951,561	-0,44
951,984	-0,44
952,407	-0,43
952,83	-0,42
953,252	-0,37
953,675	-0,37
954,098	-0,37
954,521	-0,36
954,943	-0,35
955,366	-0,36
955,789	-0,33
956,211	-0,36
956,634	-0,36
957,056	-0,32
957,479	-0,33
957,902	-0,36
958,324	-0,36
958,746	-0,34
959,169	-0,36
959,591	-0,36
960,014	-0,37
960,436	-0,37
960,858	-0,37
961,281	-0,37
961,703	-0,38
962,125	-0,38
962,547	-0,36
962,969	-0,37
963,391	-0,38
963,814	-0,39
964,236	-0,38
964,658	-0,34
965,08	-0,35
965,502	-0,34
965,924	-0,32
966,346	-0,33
966,768	-0,32
967,189	-0,34
967,611	-0,33
968,033	-0,32
968,455	-0,3
968,877	-0,31
969,298	-0,33
969,72	-0,34
970,142	-0,33
970,563	-0,33
970,985	-0,32
971,407	-0,31
971,828	-0,29
972,25	-0,29
972,671	-0,27
973,093	-0,26
973,514	-0,25
973,936	-0,23
974,357	-0,21
974,778	-0,21
975,2	-0,21
975,621	-0,2
976,042	-0,18
976,464	-0,18
976,885	-0,16
977,306	-0,16
977,727	-0,15
978,148	-0,14
978,57	-0,14
978,991	-0,12
979,412	-0,11
979,833	-0,1
980,254	-0,09
980,675	-0,09
981,096	-0,09
981,517	-0,08
981,937	-0,07
982,358	-0,05
982,779	-0,04
983,2	-0,04
983,621	-0,04
984,042	-0,02
984,462	-0
984,883	0,01
985,304	0,02
985,724	0,03
986,145	0,04
986,565	0,06
986,986	0,07
987,407	0,08
987,827	0,09
988,248	0,11
988,668	0,12
989,088	0,12
989,509	0,14
989,929	0,15
990,35	0,16
990,77	0,17
991,19	0,18
991,61	0,19
992,031	0,2
992,451	0,21
992,871	0,22
993,291	0,22
993,711	0,23
994,131	0,24
994,551	0,24
994,971	0,25
995,391	0,26
995,811	0,26
996,231	0,27
996,651	0,27
997,071	0,28
997,491	0,28
997,911	0,29
998,331	0,3
998,75	0,3
999,17	0,31
999,59	0,31
1000,009	0,32
1000,429	0,32
1000,849	0,33
1001,268	0,33
1001,688	0,33
1002,107	0,34
1002,527	0,34
1002,946	0,34
1003,366	0,35
1003,785	0,35
1004,205	0,35
1004,624	0,35
1005,044	0,35
1005,463	0,36
1005,882	0,36
1006,301	0,36
1006,721	0,36
1007,14	0,36
1007,559	0,36
1007,978	0,37
1008,397	0,37
1008,816	0,37
1009,235	0,37
1009,655	0,37
1010,074	0,37
1010,492	0,36
1010,911	0,36
1011,33	0,36
1011,749	0,36
1012,168	0,36
1012,587	0,36
1013,006	0,36
1013,425	0,36
1013,843	0,36
1014,262	0,35
1014,681	0,35
1015,099	0,35
1015,518	0,35
1015,937	0,35
1016,355	0,35
1016,774	0,35
1017,192	0,35
1017,611	0,35
1018,029	0,35
1018,448	0,35
1018,866	0,35
1019,285	0,35
1019,703	0,35
1020,121	0,35
1020,54	0,35
1020,958	0,35
1021,376	0,35
1021,794	0,35
1022,213	0,35
1022,631	0,35
1023,049	0,35
1023,467	0,35
1023,885	0,35
1024,303	0,35
1024,721	0,35
1025,139	0,35
1025,557	0,35
1025,975	0,35
1026,393	0,34
1026,811	0,34
1027,229	0,34
1027,647	0,34
1028,065	0,34
1028,482	0,34
1028,9	0,34
1029,318	0,34
1029,735	0,34
1030,153	0,34
1030,571	0,34
1030,988	0,34
1031,406	0,34
1031,823	0,34
1032,241	0,34
1032,659	0,34
1033,076	0,34
1033,493	0,34
1033,911	0,34
1034,328	0,34
1034,746	0,34
1035,163	0,34
1035,58	0,34
1035,997	0,34
1036,415	0,34
1036,832	0,34
1037,249	0,34
1037,666	0,34
1038,083	0,34
1038,501	0,34
1038,918	0,34
1039,335	0,34
1039,752	0,34
1040,169	0,34
1040,586	0,34
1041,003	0,34
1041,419	0,34
1041,836	0,34
1042,253	0,34
1042,67	0,34
1043,087	0,34
1043,504	0,34
1043,92	0,34
1044,337	0,34
1044,754	0,34
1045,17	0,34
1045,587	0,34
1046,004	0,34
1046,42	0,34
1046,837	0,34
1047,253	0,34
1047,67	0,34
1048,086	0,34
1048,503	0,34
1048,919	0,34
1049,335	0,34
1049,752	0,34
1050,168	0,34
1050,584	0,34
1051,001	0,34
1051,417	0,34
1051,833	0,34
1052,249	0,34
1052,665	0,34
1053,081	0,34
1053,497	0,34
1053,914	0,34
1054,33	0,34
1054,746	0,35
1055,162	0,35
1055,578	0,35
1055,993	0,35
1056,409	0,35
1056,825	0,35
1057,241	0,35
1057,657	0,35
1058,073	0,35
1058,488	0,35
1058,904	0,35
1059,32	0,35
1059,736	0,35
1060,151	0,35
1060,567	0,35
1060,982	0,35
1061,398	0,35
1061,813	0,35
1062,229	0,35
1062,644	0,35
1063,06	0,35
1063,475	0,35
1063,891	0,34
1064,306	0,34
1064,721	0,34
1065,137	0,34
1065,552	0,34
1065,967	0,34
1066,382	0,34
1066,798	0,34
1067,213	0,34
1067,628	0,34
1068,043	0,34
1068,458	0,34
1068,873	0,35
1069,288	0,35
1069,703	0,35
1070,118	0,35
1070,533	0,35
1070,948	0,35
1071,363	0,35
1071,778	0,35
1072,193	0,35
1072,607	0,35
1073,022	0,35
1073,437	0,35
1073,852	0,35
1074,266	0,35
1074,681	0,35
1075,096	0,35
1075,51	0,34
1075,925	0,34
1076,339	0,34
1076,754	0,34
1077,168	0,34
1077,583	0,34
1077,997	0,34
1078,412	0,34
1078,826	0,34
1079,24	0,34
1079,655	0,34
1080,069	0,34
1080,483	0,34
1080,897	0,34
1081,312	0,34
1081,726	0,34
1082,14	0,34
1082,554	0,34
1082,968	0,34
1083,382	0,34
1083,796	0,34
1084,21	0,34
1084,624	0,33
1085,038	0,33
1085,452	0,33
1085,866	0,33
1086,28	0,33
1086,694	0,33
1087,108	0,33
1087,521	0,32
1087,935	0,32
1088,349	0,32
1088,763	0,32
1089,176	0,31
1089,59	0,31
1090,004	0,31
1090,417	0,31
1090,831	0,3
1091,244	0,3
1091,658	0,3
1092,071	0,3
1092,485	0,3
1092,898	0,29
1093,312	0,29
1093,725	0,29
1094,138	0,29
1094,552	0,29
1094,965	0,29
1095,378	0,29
1095,791	0,28
1096,205	0,28
1096,618	0,28
1097,031	0,27
1097,444	0,27
1097,857	0,27
1098,27	0,26
1098,683	0,26
1099,096	0,26
1099,509	0,25
1099,922	0,25
1100,335	0,25
1100,748	0,24
1101,161	0,24
1101,574	0,23
1101,986	0,23
1102,399	0,23
1102,812	0,23
1103,225	0,22
1103,637	0,22
1104,05	0,22
1104,463	0,21
1104,875	0,22
1105,288	0,21
1105,7	0,21
1106,113	0,21
1106,525	0,2
1106,938	0,2
1107,35	0,19
1107,763	0,19
1108,175	0,19
1108,588	0,18
1109	0,18
1109,412	0,17
1109,824	0,17
1110,237	0,17
1110,649	0,18
1111,061	0,17
