Data from 18C-808nm-8A-cont_Absorbance__498__01927.txt Node

Date: Mon Jul 17 17:37:20 CEST 2023
User: Laser008
Spectrometer: MAYP115816
Trigger mode: 0
Integration Time (sec): 2,500000E-1
Scans to average: 10
Electric dark correction enabled: true
Nonlinearity correction enabled: true
Boxcar width: 5
XAxis mode: Wavelengths
Number of Pixels in Spectrum: 2068
>>>>>Begin Spectral Data<<<<<
198,914	-0,74
199,384	-0,52
199,855	-0,36
200,325	-0,26
200,796	-0,23
201,266	-0,17
201,737	-0,16
202,207	-0,15
202,677	-0,14
203,147	-0,13
203,618	-0,11
204,088	-0,09
204,558	-0,08
205,028	-0,08
205,498	-0,09
205,968	-0,09
206,439	-0,12
206,909	-0,11
207,379	-0,12
207,849	-0,12
208,319	-0,12
208,789	-0,12
209,258	-0,11
209,728	-0,13
210,198	-0,12
210,668	-0,12
211,138	-0,12
211,608	-0,12
212,077	-0,12
212,547	-0,11
213,017	-0,11
213,486	-0,12
213,956	-0,13
214,426	-0,15
214,895	-0,15
215,365	-0,16
215,834	-0,15
216,304	-0,16
216,773	-0,16
217,243	-0,18
217,712	-0,19
218,181	-0,19
218,651	-0,18
219,12	-0,17
219,589	-0,17
220,058	-0,16
220,528	-0,18
220,997	-0,18
221,466	-0,2
221,935	-0,2
222,404	-0,19
222,873	-0,18
223,342	-0,19
223,812	-0,19
224,281	-0,19
224,749	-0,19
225,218	-0,2
225,687	-0,19
226,156	-0,19
226,625	-0,17
227,094	-0,17
227,563	-0,17
228,031	-0,18
228,5	-0,18
228,969	-0,18
229,438	-0,18
229,906	-0,17
230,375	-0,16
230,844	-0,16
231,312	-0,15
231,781	-0,16
232,249	-0,15
232,718	-0,15
233,186	-0,14
233,655	-0,14
234,123	-0,13
234,591	-0,14
235,06	-0,14
235,528	-0,15
235,996	-0,15
236,465	-0,15
236,933	-0,14
237,401	-0,13
237,869	-0,12
238,337	-0,13
238,805	-0,12
239,274	-0,11
239,742	-0,11
240,21	-0,1
240,678	-0,1
241,146	-0,09
241,614	-0,09
242,081	-0,1
242,549	-0,1
243,017	-0,1
243,485	-0,09
243,953	-0,09
244,421	-0,1
244,888	-0,1
245,356	-0,1
245,824	-0,1
246,291	-0,1
246,759	-0,11
247,227	-0,12
247,694	-0,1
248,162	-0,1
248,629	-0,09
249,097	-0,1
249,564	-0,11
250,032	-0,11
250,499	-0,12
250,967	-0,12
251,434	-0,13
251,901	-0,12
252,369	-0,12
252,836	-0,13
253,303	-0,15
253,77	-0,17
254,237	-0,16
254,705	-0,16
255,172	-0,15
255,639	-0,15
256,106	-0,17
256,573	-0,17
257,04	-0,17
257,507	-0,18
257,974	-0,19
258,441	-0,16
258,908	-0,16
259,375	-0,17
259,841	-0,17
260,308	-0,17
260,775	-0,18
261,242	-0,16
261,709	-0,16
262,175	-0,18
262,642	-0,17
263,109	-0,16
263,575	-0,18
264,042	-0,18
264,508	-0,18
264,975	-0,2
265,441	-0,21
265,908	-0,21
266,374	-0,21
266,841	-0,21
267,307	-0,21
267,773	-0,2
268,24	-0,21
268,706	-0,21
269,172	-0,21
269,639	-0,23
270,105	-0,21
270,571	-0,21
271,037	-0,21
271,503	-0,22
271,969	-0,21
272,435	-0,21
272,902	-0,22
273,368	-0,24
273,834	-0,23
274,3	-0,23
274,765	-0,23
275,231	-0,23
275,697	-0,22
276,163	-0,21
276,629	-0,21
277,095	-0,22
277,56	-0,21
278,026	-0,21
278,492	-0,2
278,958	-0,19
279,423	-0,2
279,889	-0,2
280,354	-0,21
280,82	-0,21
281,286	-0,23
281,751	-0,23
282,217	-0,22
282,682	-0,22
283,147	-0,23
283,613	-0,22
284,078	-0,23
284,544	-0,24
285,009	-0,24
285,474	-0,22
285,939	-0,24
286,405	-0,23
286,87	-0,22
287,335	-0,22
287,8	-0,21
288,265	-0,2
288,73	-0,22
289,195	-0,24
289,66	-0,23
290,125	-0,22
290,59	-0,22
291,055	-0,21
291,52	-0,21
291,985	-0,22
292,45	-0,23
292,915	-0,23
293,38	-0,23
293,844	-0,21
294,309	-0,2
294,774	-0,19
295,239	-0,21
295,703	-0,22
296,168	-0,21
296,632	-0,21
297,097	-0,19
297,562	-0,18
298,026	-0,18
298,491	-0,19
298,955	-0,18
299,419	-0,17
299,884	-0,16
300,348	-0,15
300,813	-0,13
301,277	-0,14
301,741	-0,14
302,205	-0,14
302,67	-0,14
303,134	-0,14
303,598	-0,14
304,062	-0,13
304,526	-0,13
304,99	-0,14
305,454	-0,14
305,919	-0,14
306,383	-0,14
306,847	-0,13
307,31	-0,15
307,774	-0,16
308,238	-0,15
308,702	-0,14
309,166	-0,16
309,63	-0,16
310,094	-0,13
310,557	-0,14
311,021	-0,14
311,485	-0,14
311,948	-0,13
312,412	-0,12
312,876	-0,1
313,339	-0,11
313,803	-0,12
314,266	-0,11
314,73	-0,12
315,193	-0,12
315,657	-0,1
316,12	-0,11
316,584	-0,09
317,047	-0,08
317,51	-0,08
317,973	-0,08
318,437	-0,06
318,9	-0,05
319,363	-0,04
319,826	-0,03
320,29	-0,04
320,753	-0,05
321,216	-0,04
321,679	-0,04
322,142	-0,04
322,605	-0,05
323,068	-0,05
323,531	-0,06
323,994	-0,06
324,457	-0,06
324,92	-0,06
325,382	-0,04
325,845	-0,04
326,308	-0,03
326,771	-0,02
327,233	-0,02
327,696	-0
328,159	0,01
328,622	0,02
329,084	0,02
329,547	0,03
330,009	0,04
330,472	0,04
330,934	0,05
331,397	0,05
331,859	0,05
332,322	0,05
332,784	0,06
333,246	0,06
333,709	0,06
334,171	0,06
334,633	0,07
335,096	0,07
335,558	0,08
336,02	0,07
336,482	0,08
336,944	0,09
337,406	0,1
337,868	0,1
338,331	0,1
338,793	0,11
339,255	0,12
339,717	0,12
340,178	0,12
340,64	0,13
341,102	0,13
341,564	0,14
342,026	0,16
342,488	0,17
342,949	0,18
343,411	0,22
343,873	0,24
344,335	0,27
344,796	0,31
345,258	0,36
345,719	0,41
346,181	0,47
346,643	0,51
347,104	0,55
347,566	0,58
348,027	0,61
348,488	0,64
348,95	0,66
349,411	0,7
349,873	0,72
350,334	0,75
350,795	0,77
351,256	0,78
351,718	0,79
352,179	0,8
352,64	0,81
353,101	0,81
353,562	0,81
354,023	0,82
354,484	0,82
354,945	0,82
355,406	0,83
355,867	0,83
356,328	0,83
356,789	0,84
357,25	0,84
357,711	0,84
358,172	0,84
358,633	0,85
359,093	0,85
359,554	0,85
360,015	0,85
360,476	0,85
360,936	0,86
361,397	0,86
361,858	0,86
362,318	0,86
362,779	0,86
363,239	0,86
363,7	0,86
364,16	0,86
364,621	0,86
365,081	0,86
365,541	0,86
366,002	0,86
366,462	0,86
366,922	0,86
367,383	0,86
367,843	0,86
368,303	0,86
368,763	0,86
369,223	0,86
369,684	0,86
370,144	0,86
370,604	0,86
371,064	0,86
371,524	0,86
371,984	0,86
372,444	0,86
372,904	0,86
373,363	0,86
373,823	0,86
374,283	0,86
374,743	0,86
375,203	0,86
375,663	0,86
376,122	0,86
376,582	0,86
377,042	0,86
377,501	0,86
377,961	0,86
378,42	0,86
378,88	0,86
379,34	0,86
379,799	0,86
380,259	0,86
380,718	0,86
381,177	0,86
381,637	0,86
382,096	0,85
382,555	0,85
383,015	0,85
383,474	0,85
383,933	0,85
384,393	0,85
384,852	0,85
385,311	0,85
385,77	0,85
386,229	0,85
386,688	0,85
387,147	0,85
387,606	0,85
388,065	0,85
388,524	0,85
388,983	0,85
389,442	0,85
389,901	0,85
390,36	0,85
390,819	0,85
391,277	0,85
391,736	0,85
392,195	0,85
392,654	0,85
393,112	0,85
393,571	0,85
394,03	0,85
394,488	0,85
394,947	0,84
395,405	0,84
395,864	0,84
396,322	0,84
396,781	0,84
397,239	0,84
397,698	0,84
398,156	0,84
398,614	0,84
399,073	0,84
399,531	0,84
399,989	0,84
400,447	0,84
400,905	0,84
401,364	0,84
401,822	0,84
402,28	0,84
402,738	0,84
403,196	0,84
403,654	0,84
404,112	0,84
404,57	0,84
405,028	0,84
405,486	0,84
405,944	0,84
406,402	0,84
406,859	0,84
407,317	0,84
407,775	0,84
408,233	0,84
408,691	0,84
409,148	0,84
409,606	0,84
410,064	0,84
410,521	0,84
410,979	0,84
411,436	0,84
411,894	0,84
412,351	0,84
412,809	0,84
413,266	0,83
413,724	0,83
414,181	0,83
414,638	0,83
415,096	0,83
415,553	0,83
416,01	0,83
416,467	0,83
416,925	0,83
417,382	0,83
417,839	0,83
418,296	0,83
418,753	0,83
419,21	0,83
419,667	0,83
420,124	0,83
420,581	0,83
421,038	0,83
421,495	0,83
421,952	0,83
422,409	0,83
422,866	0,83
423,322	0,83
423,779	0,83
424,236	0,83
424,693	0,83
425,149	0,83
425,606	0,83
426,063	0,83
426,519	0,83
426,976	0,83
427,433	0,83
427,889	0,83
428,346	0,83
428,802	0,83
429,258	0,83
429,715	0,83
430,171	0,83
430,628	0,83
431,084	0,83
431,54	0,83
431,997	0,83
432,453	0,83
432,909	0,83
433,365	0,83
433,821	0,83
434,277	0,82
434,734	0,82
435,19	0,82
435,646	0,82
436,102	0,82
436,558	0,82
437,014	0,82
437,47	0,82
437,925	0,83
438,381	0,83
438,837	0,83
439,293	0,83
439,749	0,83
440,205	0,83
440,66	0,83
441,116	0,83
441,572	0,83
442,027	0,83
442,483	0,83
442,939	0,83
443,394	0,83
443,85	0,83
444,305	0,83
444,761	0,83
445,216	0,83
445,672	0,83
446,127	0,83
446,582	0,83
447,038	0,83
447,493	0,83
447,948	0,83
448,403	0,83
448,859	0,83
449,314	0,83
449,769	0,83
450,224	0,84
450,679	0,84
451,134	0,84
451,589	0,84
452,044	0,84
452,499	0,84
452,954	0,84
453,409	0,84
453,864	0,84
454,319	0,84
454,774	0,84
455,229	0,84
455,684	0,84
456,138	0,84
456,593	0,84
457,048	0,84
457,503	0,84
457,957	0,84
458,412	0,84
458,866	0,84
459,321	0,84
459,776	0,84
460,23	0,84
460,685	0,84
461,139	0,84
461,593	0,84
462,048	0,84
462,502	0,85
462,957	0,85
463,411	0,85
463,865	0,85
464,319	0,85
464,774	0,85
465,228	0,85
465,682	0,85
466,136	0,85
466,59	0,85
467,044	0,86
467,499	0,86
467,953	0,86
468,407	0,86
468,861	0,86
469,315	0,86
469,768	0,86
470,222	0,86
470,676	0,86
471,13	0,86
471,584	0,86
472,038	0,87
472,491	0,87
472,945	0,87
473,399	0,87
473,852	0,87
474,306	0,87
474,76	0,87
475,213	0,87
475,667	0,88
476,12	0,88
476,574	0,88
477,027	0,88
477,481	0,88
477,934	0,88
478,388	0,89
478,841	0,89
479,294	0,89
479,748	0,89
480,201	0,89
480,654	0,9
481,107	0,9
481,561	0,9
482,014	0,9
482,467	0,9
482,92	0,9
483,373	0,9
483,826	0,91
484,279	0,91
484,732	0,91
485,185	0,91
485,638	0,92
486,091	0,92
486,544	0,92
486,997	0,92
487,449	0,93
487,902	0,93
488,355	0,93
488,808	0,93
489,26	0,94
489,713	0,94
490,166	0,94
490,618	0,95
491,071	0,95
491,523	0,95
491,976	0,95
492,429	0,96
492,881	0,96
493,333	0,96
493,786	0,97
494,238	0,97
494,691	0,98
495,143	0,98
495,595	0,98
496,048	0,99
496,5	0,99
496,952	0,99
497,404	1
497,856	1
498,309	1,01
498,761	1,01
499,213	1,01
499,665	1,02
500,117	1,02
500,569	1,03
501,021	1,03
501,473	1,04
501,925	1,04
502,377	1,05
502,828	1,05
503,28	1,05
503,732	1,06
504,184	1,06
504,636	1,07
505,087	1,07
505,539	1,07
505,991	1,08
506,442	1,08
506,894	1,09
507,345	1,09
507,797	1,1
508,249	1,1
508,7	1,1
509,151	1,11
509,603	1,11
510,054	1,12
510,506	1,12
510,957	1,13
511,408	1,13
511,86	1,13
512,311	1,14
512,762	1,14
513,213	1,14
513,665	1,15
514,116	1,15
514,567	1,15
515,018	1,16
515,469	1,16
515,92	1,17
516,371	1,17
516,822	1,17
517,273	1,17
517,724	1,18
518,175	1,18
518,626	1,18
519,076	1,19
519,527	1,19
519,978	1,19
520,429	1,2
520,88	1,2
521,33	1,2
521,781	1,2
522,232	1,2
522,682	1,2
523,133	1,21
523,583	1,21
524,034	1,21
524,484	1,21
524,935	1,21
525,385	1,21
525,836	1,21
526,286	1,21
526,736	1,21
527,187	1,21
527,637	1,21
528,087	1,21
528,538	1,21
528,988	1,21
529,438	1,21
529,888	1,21
530,338	1,21
530,788	1,21
531,238	1,2
531,688	1,2
532,139	1,2
532,589	1,2
533,038	1,2
533,488	1,2
533,938	1,19
534,388	1,19
534,838	1,19
535,288	1,18
535,738	1,18
536,187	1,18
536,637	1,17
537,087	1,17
537,537	1,16
537,986	1,16
538,436	1,15
538,885	1,15
539,335	1,14
539,785	1,14
540,234	1,13
540,684	1,13
541,133	1,12
541,582	1,12
542,032	1,11
542,481	1,11
542,931	1,1
543,38	1,09
543,829	1,09
544,278	1,08
544,728	1,08
545,177	1,07
545,626	1,07
546,075	1,06
546,524	1,06
546,973	1,05
547,422	1,05
547,871	1,04
548,32	1,04
548,769	1,04
549,218	1,03
549,667	1,03
550,116	1,03
550,565	1,02
551,014	1,02
551,463	1,01
551,911	1,01
552,36	1
552,809	1
553,258	0,99
553,706	0,99
554,155	0,98
554,603	0,98
555,052	0,97
555,501	0,97
555,949	0,96
556,398	0,96
556,846	0,95
557,294	0,95
557,743	0,94
558,191	0,94
558,64	0,93
559,088	0,92
559,536	0,92
559,985	0,91
560,433	0,91
560,881	0,9
561,329	0,9
561,777	0,89
562,225	0,89
562,674	0,88
563,122	0,88
563,57	0,87
564,018	0,87
564,466	0,86
564,914	0,86
565,362	0,85
565,809	0,85
566,257	0,85
566,705	0,84
567,153	0,84
567,601	0,83
568,048	0,83
568,496	0,82
568,944	0,82
569,392	0,81
569,839	0,81
570,287	0,81
570,734	0,8
571,182	0,8
571,63	0,8
572,077	0,79
572,525	0,79
572,972	0,78
573,419	0,78
573,867	0,78
574,314	0,77
574,761	0,77
575,209	0,76
575,656	0,76
576,103	0,76
576,551	0,75
576,998	0,75
577,445	0,75
577,892	0,74
578,339	0,74
578,786	0,73
579,233	0,73
579,68	0,73
580,127	0,72
580,574	0,72
581,021	0,72
581,468	0,71
581,915	0,71
582,362	0,71
582,809	0,71
583,255	0,7
583,702	0,7
584,149	0,7
584,596	0,7
585,042	0,69
585,489	0,69
585,936	0,69
586,382	0,68
586,829	0,68
587,275	0,68
587,722	0,68
588,168	0,68
588,615	0,67
589,061	0,67
589,508	0,67
589,954	0,67
590,4	0,66
590,847	0,66
591,293	0,66
591,739	0,65
592,185	0,65
592,632	0,65
593,078	0,65
593,524	0,65
593,97	0,65
594,416	0,65
594,862	0,64
595,308	0,64
595,754	0,64
596,2	0,64
596,646	0,64
597,092	0,64
597,538	0,63
597,984	0,63
598,43	0,63
598,876	0,63
599,321	0,63
599,767	0,63
600,213	0,62
600,659	0,62
601,104	0,62
601,55	0,62
601,995	0,62
602,441	0,62
602,887	0,62
603,332	0,61
603,778	0,61
604,223	0,61
604,668	0,61
605,114	0,61
605,559	0,61
606,005	0,61
606,45	0,61
606,895	0,6
607,341	0,6
607,786	0,6
608,231	0,6
608,676	0,59
609,121	0,59
609,566	0,58
610,012	0,57
610,457	0,57
610,902	0,57
611,347	0,56
611,792	0,56
612,237	0,56
612,682	0,56
613,127	0,56
613,571	0,56
614,016	0,56
614,461	0,57
614,906	0,57
615,351	0,57
615,795	0,57
616,24	0,57
616,685	0,57
617,129	0,57
617,574	0,57
618,019	0,57
618,463	0,57
618,908	0,57
619,352	0,57
619,797	0,57
620,241	0,57
620,686	0,57
621,13	0,57
621,574	0,56
622,019	0,56
622,463	0,56
622,907	0,56
623,352	0,56
623,796	0,56
624,24	0,56
624,684	0,56
625,128	0,56
625,572	0,55
626,016	0,56
626,461	0,56
626,905	0,56
627,349	0,56
627,793	0,55
628,236	0,55
628,68	0,55
629,124	0,55
629,568	0,55
630,012	0,55
630,456	0,55
630,9	0,55
631,343	0,55
631,787	0,55
632,231	0,55
632,674	0,55
633,118	0,55
633,562	0,55
634,005	0,55
634,449	0,55
634,892	0,55
635,336	0,55
635,779	0,55
636,223	0,55
636,666	0,55
637,109	0,55
637,553	0,55
637,996	0,55
638,439	0,54
638,883	0,54
639,326	0,54
639,769	0,54
640,212	0,54
640,655	0,54
641,099	0,54
641,542	0,54
641,985	0,54
642,428	0,54
642,871	0,54
643,314	0,54
643,757	0,54
644,2	0,53
644,643	0,53
645,085	0,53
645,528	0,53
645,971	0,53
646,414	0,53
646,857	0,53
647,299	0,53
647,742	0,53
648,185	0,53
648,627	0,53
649,07	0,53
649,513	0,53
649,955	0,53
650,398	0,53
650,84	0,53
651,283	0,53
651,725	0,53
652,168	0,53
652,61	0,53
653,052	0,53
653,495	0,53
653,937	0,44
654,379	0,38
654,821	0,39
655,264	0,39
655,706	0,39
656,148	0,39
656,59	0,39
657,032	0,39
657,474	0,39
657,916	0,39
658,358	0,38
658,8	0,45
659,242	0,53
659,684	0,53
660,126	0,52
660,568	0,52
661,01	0,52
661,452	0,52
661,894	0,52
662,335	0,52
662,777	0,52
663,219	0,52
663,661	0,52
664,102	0,52
664,544	0,52
664,985	0,52
665,427	0,52
665,869	0,52
666,31	0,52
666,752	0,52
667,193	0,52
667,634	0,52
668,076	0,52
668,517	0,52
668,959	0,52
669,4	0,52
669,841	0,52
670,282	0,52
670,724	0,52
671,165	0,52
671,606	0,52
672,047	0,52
672,488	0,52
672,929	0,52
673,37	0,52
673,811	0,52
674,252	0,52
674,693	0,51
675,134	0,51
675,575	0,51
676,016	0,51
676,457	0,51
676,898	0,51
677,339	0,51
677,78	0,51
678,22	0,51
678,661	0,51
679,102	0,51
679,542	0,51
679,983	0,51
680,424	0,51
680,864	0,51
681,305	0,51
681,745	0,51
682,186	0,51
682,626	0,51
683,067	0,51
683,507	0,51
683,948	0,51
684,388	0,51
684,828	0,51
685,269	0,51
685,709	0,51
686,149	0,51
686,589	0,51
687,029	0,51
687,47	0,51
687,91	0,51
688,35	0,51
688,79	0,5
689,23	0,5
689,67	0,5
690,11	0,5
690,55	0,5
690,99	0,5
691,43	0,5
691,87	0,5
692,31	0,5
692,749	0,5
693,189	0,5
693,629	0,5
694,069	0,49
694,508	0,49
694,948	0,49
695,388	0,49
695,827	0,49
696,267	0,5
696,706	0,5
697,146	0,5
697,586	0,5
698,025	0,5
698,464	0,5
698,904	0,5
699,343	0,5
699,783	0,5
700,222	0,5
700,661	0,5
701,101	0,5
701,54	0,5
701,979	0,5
702,418	0,5
702,857	0,5
703,297	0,5
703,736	0,5
704,175	0,5
704,614	0,5
705,053	0,5
705,492	0,5
705,931	0,5
706,37	0,5
706,809	0,5
707,248	0,5
707,687	0,5
708,125	0,5
708,564	0,5
709,003	0,5
709,442	0,5
709,88	0,49
710,319	0,49
710,758	0,49
711,196	0,49
711,635	0,49
712,074	0,49
712,512	0,49
712,951	0,49
713,389	0,49
713,828	0,49
714,266	0,49
714,705	0,49
715,143	0,49
715,581	0,49
716,02	0,49
716,458	0,49
716,896	0,49
717,334	0,49
717,773	0,49
718,211	0,49
718,649	0,49
719,087	0,49
719,525	0,49
719,963	0,49
720,401	0,49
720,839	0,49
721,277	0,49
721,715	0,49
722,153	0,49
722,591	0,49
723,029	0,49
723,467	0,49
723,905	0,49
724,342	0,49
724,78	0,49
725,218	0,49
725,656	0,49
726,093	0,49
726,531	0,49
726,969	0,49
727,406	0,49
727,844	0,49
728,281	0,49
728,719	0,49
729,156	0,49
729,594	0,49
730,031	0,49
730,469	0,48
730,906	0,48
731,343	0,48
731,781	0,48
732,218	0,48
732,655	0,48
733,092	0,48
733,53	0,48
733,967	0,48
734,404	0,48
734,841	0,48
735,278	0,48
735,715	0,47
736,152	0,47
736,589	0,47
737,026	0,47
737,463	0,47
737,9	0,47
738,337	0,47
738,774	0,47
739,211	0,47
739,647	0,47
740,084	0,47
740,521	0,47
740,958	0,48
741,394	0,48
741,831	0,48
742,268	0,48
742,704	0,48
743,141	0,48
743,577	0,48
744,014	0,47
744,45	0,47
744,887	0,47
745,323	0,47
745,76	0,47
746,196	0,47
746,632	0,47
747,069	0,47
747,505	0,47
747,941	0,47
748,378	0,47
748,814	0,47
749,25	0,47
749,686	0,47
750,122	0,47
750,558	0,47
750,994	0,47
751,43	0,47
751,866	0,47
752,302	0,47
752,738	0,48
753,174	0,48
753,61	0,47
754,046	0,47
754,482	0,47
754,918	0,47
755,354	0,47
755,789	0,47
756,225	0,47
756,661	0,47
757,096	0,47
757,532	0,46
757,968	0,46
758,403	0,46
758,839	0,46
759,274	0,45
759,71	0,45
760,145	0,44
760,581	0,43
761,016	0,43
761,452	0,43
761,887	0,42
762,322	0,42
762,758	0,41
763,193	0,41
763,628	0,4
764,063	0,39
764,499	0,39
764,934	0,38
765,369	0,37
765,804	0,36
766,239	0,36
766,674	0,35
767,109	0,34
767,544	0,33
767,979	0,32
768,414	0,31
768,849	0,3
769,284	0,29
769,719	0,28
770,154	0,27
770,588	0,26
771,023	0,25
771,458	0,24
771,893	0,23
772,327	0,21
772,762	0,2
773,197	0,19
773,631	0,18
774,066	0,17
774,5	0,16
774,935	0,15
775,369	0,14
775,804	0,12
776,238	0,11
776,673	0,11
777,107	0,1
777,541	0,08
777,976	0,07
778,41	0,07
778,844	0,06
779,279	0,05
779,713	0,04
780,147	0,03
780,581	0,02
781,015	0,01
781,449	-0
781,883	-0,01
782,317	-0,02
782,751	-0,03
783,185	-0,04
783,619	-0,05
784,053	-0,06
784,487	-0,07
784,921	-0,07
785,355	-0,08
785,789	-0,09
786,223	-0,1
786,656	-0,11
787,09	-0,12
787,524	-0,13
787,957	-0,14
788,391	-0,16
788,825	-0,17
789,258	-0,18
789,692	-0,2
790,125	-0,22
790,559	-0,24
790,992	-0,26
791,426	-0,28
791,859	-0,29
792,293	-0,33
792,726	-0,34
793,159	-0,36
793,593	-0,39
794,026	-0,41
794,459	-0,44
794,892	-0,46
795,326	-0,49
795,759	-0,52
796,192	-0,57
796,625	-0,61
797,058	-0,63
797,491	-0,68
797,924	-0,72
798,357	-0,76
798,79	-0,81
799,223	-0,85
799,656	-0,9
800,089	-0,95
800,522	-0,99
800,955	-1,04
801,387	-1,09
801,82	-1,15
802,253	-1,21
802,686	-1,29
803,118	-1,35
803,551	-1,4
803,984	-1,44
804,416	-1,48
804,849	-1,51
805,281	-1,6
805,714	-1,93
806,146	-2,42
806,579	-2,69
807,011	-2,86
807,444	-2,95
807,876	-3,04
808,308	-3,07
808,741	-3,1
809,173	-3,16
809,605	-3,18
810,037	-3,25
810,47	-3,18
810,902	-2,98
811,334	-2,83
811,766	-2,67
812,198	-2,43
812,63	-2
813,062	-1,79
813,494	-1,69
813,926	-1,61
814,358	-1,55
814,79	-1,48
815,222	-1,42
815,654	-1,37
816,086	-1,3
816,518	-1,25
816,949	-1,2
817,381	-1,15
817,813	-1,13
818,245	-1,09
818,676	-1,05
819,108	-1,02
819,54	-1
819,971	-0,98
820,403	-0,93
820,834	-0,92
821,266	-0,88
821,697	-0,85
822,129	-0,84
822,56	-0,81
822,991	-0,79
823,423	-0,76
823,854	-0,75
824,286	-0,73
824,717	-0,72
825,148	-0,7
825,579	-0,7
826,01	-0,68
826,442	-0,68
826,873	-0,66
827,304	-0,63
827,735	-0,62
828,166	-0,62
828,597	-0,62
829,028	-0,61
829,459	-0,62
829,89	-0,62
830,321	-0,58
830,752	-0,58
831,183	-0,57
831,613	-0,57
832,044	-0,57
832,475	-0,56
832,906	-0,57
833,336	-0,58
833,767	-0,58
834,198	-0,57
834,628	-0,55
835,059	-0,57
835,49	-0,58
835,92	-0,55
836,351	-0,55
836,781	-0,55
837,212	-0,57
837,642	-0,57
838,072	-0,55
838,503	-0,55
838,933	-0,53
839,364	-0,55
839,794	-0,53
840,224	-0,52
840,654	-0,56
841,085	-0,57
841,515	-0,54
841,945	-0,54
842,375	-0,49
842,805	-0,49
843,235	-0,48
843,665	-0,49
844,095	-0,47
844,525	-0,49
844,955	-0,49
845,385	-0,46
845,815	-0,45
846,245	-0,48
846,675	-0,49
847,105	-0,51
847,534	-0,5
847,964	-0,49
848,394	-0,48
848,824	-0,51
849,253	-0,51
849,683	-0,51
850,112	-0,54
850,542	-0,57
850,972	-0,57
851,401	-0,54
851,831	-0,52
852,26	-0,53
852,69	-0,55
853,119	-0,54
853,548	-0,55
853,978	-0,55
854,407	-0,54
854,836	-0,52
855,266	-0,52
855,695	-0,54
856,124	-0,55
856,553	-0,56
856,983	-0,58
857,412	-0,58
857,841	-0,59
858,27	-0,6
858,699	-0,59
859,128	-0,61
859,557	-0,63
859,986	-0,64
860,415	-0,62
860,844	-0,6
861,273	-0,6
861,702	-0,6
862,13	-0,58
862,559	-0,61
862,988	-0,58
863,417	-0,58
863,845	-0,58
864,274	-0,57
864,703	-0,56
865,131	-0,56
865,56	-0,57
865,989	-0,6
866,417	-0,57
866,846	-0,58
867,274	-0,56
867,703	-0,59
868,131	-0,59
868,559	-0,59
868,988	-0,63
869,416	-0,62
869,844	-0,63
870,273	-0,66
870,701	-0,64
871,129	-0,67
871,557	-0,68
871,986	-0,69
872,414	-0,69
872,842	-0,67
873,27	-0,65
873,698	-0,62
874,126	-0,66
874,554	-0,64
874,982	-0,63
875,41	-0,66
875,838	-0,62
876,266	-0,6
876,694	-0,61
877,122	-0,59
877,549	-0,65
877,977	-0,63
878,405	-0,66
878,833	-0,62
879,26	-0,61
879,688	-0,61
880,116	-0,58
880,543	-0,56
880,971	-0,55
881,399	-0,58
881,826	-0,59
882,254	-0,57
882,681	-0,6
883,109	-0,55
883,536	-0,57
883,963	-0,59
884,391	-0,57
884,818	-0,56
885,245	-0,59
885,673	-0,62
886,1	-0,59
886,527	-0,58
886,954	-0,54
887,381	-0,56
887,809	-0,58
888,236	-0,59
888,663	-0,6
889,09	-0,64
889,517	-0,66
889,944	-0,66
890,371	-0,65
890,798	-0,65
891,225	-0,66
891,652	-0,69
892,078	-0,66
892,505	-0,68
892,932	-0,64
893,359	-0,65
893,786	-0,65
894,212	-0,61
894,639	-0,62
895,066	-0,64
895,492	-0,58
895,919	-0,59
896,346	-0,59
896,772	-0,6
897,199	-0,57
897,625	-0,59
898,052	-0,55
898,478	-0,53
898,904	-0,55
899,331	-0,55
899,757	-0,57
900,183	-0,6
900,61	-0,58
901,036	-0,58
901,462	-0,57
901,888	-0,57
902,315	-0,56
902,741	-0,62
903,167	-0,6
903,593	-0,62
904,019	-0,6
904,445	-0,57
904,871	-0,59
905,297	-0,61
905,723	-0,61
906,149	-0,61
906,575	-0,62
907,001	-0,62
907,427	-0,59
907,852	-0,58
908,278	-0,59
908,704	-0,56
909,13	-0,56
909,555	-0,55
909,981	-0,54
910,407	-0,54
910,832	-0,54
911,258	-0,53
911,684	-0,53
912,109	-0,53
912,535	-0,55
912,96	-0,51
913,386	-0,55
913,811	-0,54
914,236	-0,56
914,662	-0,54
915,087	-0,58
915,512	-0,58
915,938	-0,6
916,363	-0,59
916,788	-0,61
917,213	-0,58
917,639	-0,64
918,064	-0,61
918,489	-0,61
918,914	-0,62
919,339	-0,63
919,764	-0,6
920,189	-0,6
920,614	-0,61
921,039	-0,62
921,464	-0,58
921,889	-0,62
922,314	-0,62
922,738	-0,65
923,163	-0,67
923,588	-0,66
924,013	-0,66
924,437	-0,66
924,862	-0,67
925,287	-0,64
925,711	-0,64
926,136	-0,65
926,561	-0,63
926,985	-0,62
927,41	-0,59
927,834	-0,56
928,259	-0,53
928,683	-0,51
929,108	-0,48
929,532	-0,49
929,956	-0,47
930,381	-0,47
930,805	-0,47
931,229	-0,46
931,653	-0,44
932,078	-0,44
932,502	-0,45
932,926	-0,46
933,35	-0,46
933,774	-0,45
934,198	-0,43
934,622	-0,43
935,046	-0,43
935,47	-0,44
935,894	-0,44
936,318	-0,44
936,742	-0,44
937,166	-0,44
937,59	-0,44
938,014	-0,47
938,437	-0,48
938,861	-0,5
939,285	-0,51
939,709	-0,5
940,132	-0,5
940,556	-0,5
940,98	-0,5
941,403	-0,49
941,827	-0,5
942,25	-0,51
942,674	-0,49
943,097	-0,5
943,521	-0,49
943,944	-0,5
944,368	-0,49
944,791	-0,48
945,214	-0,51
945,638	-0,51
946,061	-0,53
946,484	-0,53
946,907	-0,51
947,331	-0,51
947,754	-0,55
948,177	-0,52
948,6	-0,52
949,023	-0,52
949,446	-0,52
949,869	-0,49
950,292	-0,5
950,715	-0,47
951,138	-0,47
951,561	-0,44
951,984	-0,45
952,407	-0,43
952,83	-0,42
953,252	-0,38
953,675	-0,38
954,098	-0,38
954,521	-0,37
954,943	-0,36
955,366	-0,37
955,789	-0,35
956,211	-0,37
956,634	-0,38
957,056	-0,36
957,479	-0,37
957,902	-0,4
958,324	-0,4
958,746	-0,38
959,169	-0,39
959,591	-0,39
960,014	-0,4
960,436	-0,39
960,858	-0,38
961,281	-0,38
961,703	-0,39
962,125	-0,38
962,547	-0,35
962,969	-0,36
963,391	-0,37
963,814	-0,38
964,236	-0,37
964,658	-0,34
965,08	-0,35
965,502	-0,35
965,924	-0,33
966,346	-0,34
966,768	-0,33
967,189	-0,36
967,611	-0,35
968,033	-0,34
968,455	-0,32
968,877	-0,34
969,298	-0,34
969,72	-0,35
970,142	-0,34
970,563	-0,35
970,985	-0,34
971,407	-0,33
971,828	-0,31
972,25	-0,3
972,671	-0,29
973,093	-0,29
973,514	-0,27
973,936	-0,25
974,357	-0,23
974,778	-0,24
975,2	-0,24
975,621	-0,22
976,042	-0,2
976,464	-0,2
976,885	-0,19
977,306	-0,18
977,727	-0,17
978,148	-0,17
978,57	-0,15
978,991	-0,14
979,412	-0,12
979,833	-0,11
980,254	-0,1
980,675	-0,1
981,096	-0,09
981,517	-0,07
981,937	-0,07
982,358	-0,04
982,779	-0,03
983,2	-0,04
983,621	-0,03
984,042	-0,01
984,462	0
984,883	0,02
985,304	0,03
985,724	0,04
986,145	0,06
986,565	0,07
986,986	0,08
987,407	0,1
987,827	0,12
988,248	0,14
988,668	0,15
989,088	0,16
989,509	0,17
989,929	0,18
990,35	0,19
990,77	0,21
991,19	0,21
991,61	0,23
992,031	0,24
992,451	0,25
992,871	0,26
993,291	0,27
993,711	0,29
994,131	0,3
994,551	0,31
994,971	0,32
995,391	0,32
995,811	0,33
996,231	0,34
996,651	0,34
997,071	0,35
997,491	0,36
997,911	0,37
998,331	0,38
998,75	0,39
999,17	0,39
999,59	0,4
1000,009	0,4
1000,429	0,41
1000,849	0,42
1001,268	0,42
1001,688	0,43
1002,107	0,43
1002,527	0,44
1002,946	0,44
1003,366	0,44
1003,785	0,45
1004,205	0,45
1004,624	0,45
1005,044	0,46
1005,463	0,46
1005,882	0,46
1006,301	0,46
1006,721	0,47
1007,14	0,47
1007,559	0,47
1007,978	0,47
1008,397	0,47
1008,816	0,47
1009,235	0,47
1009,655	0,47
1010,074	0,47
1010,492	0,47
1010,911	0,47
1011,33	0,47
1011,749	0,47
1012,168	0,47
1012,587	0,47
1013,006	0,47
1013,425	0,47
1013,843	0,46
1014,262	0,46
1014,681	0,46
1015,099	0,46
1015,518	0,46
1015,937	0,46
1016,355	0,46
1016,774	0,46
1017,192	0,46
1017,611	0,46
1018,029	0,46
1018,448	0,46
1018,866	0,46
1019,285	0,46
1019,703	0,46
1020,121	0,46
1020,54	0,46
1020,958	0,46
1021,376	0,46
1021,794	0,46
1022,213	0,46
1022,631	0,46
1023,049	0,46
1023,467	0,45
1023,885	0,45
1024,303	0,45
1024,721	0,45
1025,139	0,45
1025,557	0,45
1025,975	0,45
1026,393	0,45
1026,811	0,45
1027,229	0,45
1027,647	0,45
1028,065	0,45
1028,482	0,45
1028,9	0,45
1029,318	0,45
1029,735	0,44
1030,153	0,44
1030,571	0,44
1030,988	0,44
1031,406	0,45
1031,823	0,45
1032,241	0,45
1032,659	0,45
1033,076	0,45
1033,493	0,45
1033,911	0,45
1034,328	0,45
1034,746	0,45
1035,163	0,45
1035,58	0,45
1035,997	0,45
1036,415	0,45
1036,832	0,45
1037,249	0,45
1037,666	0,45
1038,083	0,45
1038,501	0,45
1038,918	0,45
1039,335	0,45
1039,752	0,45
1040,169	0,45
1040,586	0,45
1041,003	0,45
1041,419	0,45
1041,836	0,45
1042,253	0,45
1042,67	0,45
1043,087	0,45
1043,504	0,45
1043,92	0,45
1044,337	0,45
1044,754	0,45
1045,17	0,45
1045,587	0,45
1046,004	0,44
1046,42	0,44
1046,837	0,44
1047,253	0,44
1047,67	0,44
1048,086	0,44
1048,503	0,44
1048,919	0,44
1049,335	0,44
1049,752	0,44
1050,168	0,44
1050,584	0,44
1051,001	0,44
1051,417	0,44
1051,833	0,44
1052,249	0,44
1052,665	0,45
1053,081	0,45
1053,497	0,45
1053,914	0,45
1054,33	0,45
1054,746	0,45
1055,162	0,45
1055,578	0,46
1055,993	0,46
1056,409	0,46
1056,825	0,46
1057,241	0,46
1057,657	0,46
1058,073	0,46
1058,488	0,46
1058,904	0,46
1059,32	0,46
1059,736	0,46
1060,151	0,46
1060,567	0,46
1060,982	0,46
1061,398	0,46
1061,813	0,45
1062,229	0,45
1062,644	0,45
1063,06	0,45
1063,475	0,45
1063,891	0,45
1064,306	0,45
1064,721	0,45
1065,137	0,45
1065,552	0,45
1065,967	0,45
1066,382	0,45
1066,798	0,45
1067,213	0,45
1067,628	0,45
1068,043	0,45
1068,458	0,45
1068,873	0,45
1069,288	0,45
1069,703	0,45
1070,118	0,45
1070,533	0,45
1070,948	0,45
1071,363	0,45
1071,778	0,45
1072,193	0,45
1072,607	0,45
1073,022	0,45
1073,437	0,45
1073,852	0,45
1074,266	0,45
1074,681	0,45
1075,096	0,45
1075,51	0,45
1075,925	0,45
1076,339	0,45
1076,754	0,45
1077,168	0,45
1077,583	0,45
1077,997	0,45
1078,412	0,45
1078,826	0,45
1079,24	0,45
1079,655	0,45
1080,069	0,44
1080,483	0,44
1080,897	0,44
1081,312	0,44
1081,726	0,44
1082,14	0,44
1082,554	0,44
1082,968	0,44
1083,382	0,44
1083,796	0,43
1084,21	0,43
1084,624	0,43
1085,038	0,43
1085,452	0,43
1085,866	0,43
1086,28	0,42
1086,694	0,42
1087,108	0,42
1087,521	0,42
1087,935	0,42
1088,349	0,42
1088,763	0,42
1089,176	0,41
1089,59	0,41
1090,004	0,41
1090,417	0,4
1090,831	0,4
1091,244	0,4
1091,658	0,39
1092,071	0,39
1092,485	0,39
1092,898	0,38
1093,312	0,38
1093,725	0,38
1094,138	0,38
1094,552	0,37
1094,965	0,37
1095,378	0,37
1095,791	0,36
1096,205	0,36
1096,618	0,36
1097,031	0,35
1097,444	0,35
1097,857	0,34
1098,27	0,34
1098,683	0,34
1099,096	0,33
1099,509	0,33
1099,922	0,33
1100,335	0,32
1100,748	0,31
1101,161	0,31
1101,574	0,31
1101,986	0,3
1102,399	0,3
1102,812	0,3
1103,225	0,29
1103,637	0,29
1104,05	0,29
1104,463	0,28
1104,875	0,28
1105,288	0,28
1105,7	0,28
1106,113	0,27
1106,525	0,27
1106,938	0,27
1107,35	0,26
1107,763	0,25
1108,175	0,25
1108,588	0,25
1109	0,24
1109,412	0,23
1109,824	0,23
1110,237	0,24
1110,649	0,23
1111,061	0,22
