Data from 18C-808nm-8A-cont_Absorbance__650__02079.txt Node

Date: Mon Jul 17 17:43:40 CEST 2023
User: Laser008
Spectrometer: MAYP115816
Trigger mode: 0
Integration Time (sec): 2,500000E-1
Scans to average: 10
Electric dark correction enabled: true
Nonlinearity correction enabled: true
Boxcar width: 5
XAxis mode: Wavelengths
Number of Pixels in Spectrum: 2068
>>>>>Begin Spectral Data<<<<<
198,914	-0,7
199,384	-0,46
199,855	-0,35
200,325	-0,27
200,796	-0,23
201,266	-0,18
201,737	-0,16
202,207	-0,15
202,677	-0,14
203,147	-0,13
203,618	-0,09
204,088	-0,08
204,558	-0,07
205,028	-0,06
205,498	-0,06
205,968	-0,05
206,439	-0,07
206,909	-0,07
207,379	-0,08
207,849	-0,09
208,319	-0,09
208,789	-0,1
209,258	-0,1
209,728	-0,11
210,198	-0,11
210,668	-0,11
211,138	-0,11
211,608	-0,11
212,077	-0,11
212,547	-0,09
213,017	-0,09
213,486	-0,09
213,956	-0,1
214,426	-0,1
214,895	-0,09
215,365	-0,09
215,834	-0,1
216,304	-0,12
216,773	-0,12
217,243	-0,13
217,712	-0,16
218,181	-0,15
218,651	-0,15
219,12	-0,16
219,589	-0,16
220,058	-0,16
220,528	-0,18
220,997	-0,18
221,466	-0,19
221,935	-0,2
222,404	-0,19
222,873	-0,17
223,342	-0,18
223,812	-0,18
224,281	-0,17
224,749	-0,18
225,218	-0,19
225,687	-0,18
226,156	-0,16
226,625	-0,15
227,094	-0,15
227,563	-0,15
228,031	-0,18
228,5	-0,17
228,969	-0,18
229,438	-0,18
229,906	-0,17
230,375	-0,16
230,844	-0,16
231,312	-0,15
231,781	-0,16
232,249	-0,14
232,718	-0,15
233,186	-0,12
233,655	-0,13
234,123	-0,12
234,591	-0,12
235,06	-0,13
235,528	-0,13
235,996	-0,13
236,465	-0,13
236,933	-0,13
237,401	-0,12
237,869	-0,1
238,337	-0,11
238,805	-0,1
239,274	-0,1
239,742	-0,09
240,21	-0,09
240,678	-0,07
241,146	-0,06
241,614	-0,06
242,081	-0,06
242,549	-0,07
243,017	-0,08
243,485	-0,08
243,953	-0,07
244,421	-0,07
244,888	-0,07
245,356	-0,08
245,824	-0,08
246,291	-0,08
246,759	-0,09
247,227	-0,08
247,694	-0,07
248,162	-0,06
248,629	-0,06
249,097	-0,07
249,564	-0,08
250,032	-0,08
250,499	-0,08
250,967	-0,08
251,434	-0,09
251,901	-0,09
252,369	-0,09
252,836	-0,1
253,303	-0,11
253,77	-0,13
254,237	-0,12
254,705	-0,12
255,172	-0,12
255,639	-0,13
256,106	-0,15
256,573	-0,14
257,04	-0,14
257,507	-0,15
257,974	-0,15
258,441	-0,14
258,908	-0,14
259,375	-0,16
259,841	-0,16
260,308	-0,16
260,775	-0,16
261,242	-0,14
261,709	-0,15
262,175	-0,17
262,642	-0,16
263,109	-0,17
263,575	-0,18
264,042	-0,16
264,508	-0,16
264,975	-0,17
265,441	-0,17
265,908	-0,18
266,374	-0,17
266,841	-0,17
267,307	-0,17
267,773	-0,16
268,24	-0,16
268,706	-0,16
269,172	-0,17
269,639	-0,18
270,105	-0,17
270,571	-0,18
271,037	-0,17
271,503	-0,18
271,969	-0,19
272,435	-0,18
272,902	-0,2
273,368	-0,21
273,834	-0,2
274,3	-0,21
274,765	-0,2
275,231	-0,2
275,697	-0,19
276,163	-0,19
276,629	-0,19
277,095	-0,2
277,56	-0,2
278,026	-0,2
278,492	-0,19
278,958	-0,19
279,423	-0,19
279,889	-0,18
280,354	-0,19
280,82	-0,19
281,286	-0,2
281,751	-0,21
282,217	-0,19
282,682	-0,19
283,147	-0,18
283,613	-0,19
284,078	-0,2
284,544	-0,21
285,009	-0,22
285,474	-0,21
285,939	-0,23
286,405	-0,21
286,87	-0,2
287,335	-0,2
287,8	-0,2
288,265	-0,18
288,73	-0,19
289,195	-0,21
289,66	-0,2
290,125	-0,19
290,59	-0,19
291,055	-0,17
291,52	-0,18
291,985	-0,19
292,45	-0,2
292,915	-0,2
293,38	-0,21
293,844	-0,19
294,309	-0,17
294,774	-0,17
295,239	-0,18
295,703	-0,19
296,168	-0,18
296,632	-0,18
297,097	-0,16
297,562	-0,14
298,026	-0,15
298,491	-0,15
298,955	-0,15
299,419	-0,14
299,884	-0,14
300,348	-0,12
300,813	-0,12
301,277	-0,13
301,741	-0,14
302,205	-0,14
302,67	-0,13
303,134	-0,13
303,598	-0,13
304,062	-0,12
304,526	-0,12
304,99	-0,14
305,454	-0,14
305,919	-0,13
306,383	-0,13
306,847	-0,12
307,31	-0,13
307,774	-0,13
308,238	-0,14
308,702	-0,13
309,166	-0,15
309,63	-0,14
310,094	-0,12
310,557	-0,11
311,021	-0,1
311,485	-0,11
311,948	-0,11
312,412	-0,09
312,876	-0,08
313,339	-0,08
313,803	-0,08
314,266	-0,07
314,73	-0,08
315,193	-0,08
315,657	-0,07
316,12	-0,07
316,584	-0,06
317,047	-0,06
317,51	-0,04
317,973	-0,05
318,437	-0,04
318,9	-0,03
319,363	-0,03
319,826	-0,02
320,29	-0,02
320,753	-0,02
321,216	-0,02
321,679	-0,02
322,142	-0,01
322,605	-0,03
323,068	-0,03
323,531	-0,03
323,994	-0,02
324,457	-0,02
324,92	-0,01
325,382	-0
325,845	-0
326,308	0
326,771	0,01
327,233	0,01
327,696	0,02
328,159	0,03
328,622	0,04
329,084	0,03
329,547	0,04
330,009	0,04
330,472	0,05
330,934	0,05
331,397	0,06
331,859	0,06
332,322	0,07
332,784	0,07
333,246	0,08
333,709	0,07
334,171	0,08
334,633	0,08
335,096	0,08
335,558	0,08
336,02	0,08
336,482	0,09
336,944	0,1
337,406	0,1
337,868	0,11
338,331	0,11
338,793	0,13
339,255	0,14
339,717	0,14
340,178	0,15
340,64	0,16
341,102	0,17
341,564	0,19
342,026	0,2
342,488	0,2
342,949	0,22
343,411	0,24
343,873	0,27
344,335	0,3
344,796	0,35
345,258	0,39
345,719	0,44
346,181	0,49
346,643	0,53
347,104	0,57
347,566	0,61
348,027	0,64
348,488	0,67
348,95	0,7
349,411	0,72
349,873	0,75
350,334	0,77
350,795	0,79
351,256	0,81
351,718	0,82
352,179	0,82
352,64	0,83
353,101	0,83
353,562	0,84
354,023	0,84
354,484	0,84
354,945	0,85
355,406	0,85
355,867	0,85
356,328	0,86
356,789	0,87
357,25	0,87
357,711	0,88
358,172	0,88
358,633	0,88
359,093	0,88
359,554	0,88
360,015	0,88
360,476	0,88
360,936	0,88
361,397	0,89
361,858	0,88
362,318	0,88
362,779	0,88
363,239	0,88
363,7	0,88
364,16	0,88
364,621	0,89
365,081	0,88
365,541	0,89
366,002	0,88
366,462	0,88
366,922	0,88
367,383	0,88
367,843	0,88
368,303	0,88
368,763	0,88
369,223	0,89
369,684	0,89
370,144	0,89
370,604	0,89
371,064	0,89
371,524	0,89
371,984	0,89
372,444	0,89
372,904	0,88
373,363	0,88
373,823	0,88
374,283	0,88
374,743	0,88
375,203	0,88
375,663	0,88
376,122	0,88
376,582	0,88
377,042	0,88
377,501	0,88
377,961	0,88
378,42	0,88
378,88	0,88
379,34	0,88
379,799	0,88
380,259	0,88
380,718	0,88
381,177	0,88
381,637	0,88
382,096	0,88
382,555	0,88
383,015	0,88
383,474	0,88
383,933	0,87
384,393	0,87
384,852	0,87
385,311	0,87
385,77	0,87
386,229	0,87
386,688	0,87
387,147	0,87
387,606	0,87
388,065	0,87
388,524	0,87
388,983	0,87
389,442	0,87
389,901	0,87
390,36	0,87
390,819	0,87
391,277	0,87
391,736	0,87
392,195	0,87
392,654	0,87
393,112	0,87
393,571	0,87
394,03	0,87
394,488	0,87
394,947	0,87
395,405	0,87
395,864	0,87
396,322	0,87
396,781	0,87
397,239	0,87
397,698	0,87
398,156	0,87
398,614	0,87
399,073	0,87
399,531	0,87
399,989	0,87
400,447	0,86
400,905	0,86
401,364	0,86
401,822	0,86
402,28	0,86
402,738	0,86
403,196	0,86
403,654	0,86
404,112	0,86
404,57	0,86
405,028	0,86
405,486	0,86
405,944	0,86
406,402	0,86
406,859	0,86
407,317	0,86
407,775	0,86
408,233	0,86
408,691	0,86
409,148	0,86
409,606	0,86
410,064	0,86
410,521	0,86
410,979	0,86
411,436	0,86
411,894	0,86
412,351	0,86
412,809	0,86
413,266	0,86
413,724	0,86
414,181	0,86
414,638	0,86
415,096	0,86
415,553	0,86
416,01	0,86
416,467	0,85
416,925	0,85
417,382	0,85
417,839	0,85
418,296	0,85
418,753	0,85
419,21	0,85
419,667	0,85
420,124	0,85
420,581	0,85
421,038	0,85
421,495	0,85
421,952	0,85
422,409	0,85
422,866	0,85
423,322	0,85
423,779	0,85
424,236	0,85
424,693	0,85
425,149	0,85
425,606	0,85
426,063	0,85
426,519	0,85
426,976	0,85
427,433	0,85
427,889	0,85
428,346	0,85
428,802	0,85
429,258	0,85
429,715	0,85
430,171	0,85
430,628	0,85
431,084	0,85
431,54	0,85
431,997	0,85
432,453	0,85
432,909	0,85
433,365	0,85
433,821	0,85
434,277	0,85
434,734	0,85
435,19	0,85
435,646	0,85
436,102	0,85
436,558	0,85
437,014	0,85
437,47	0,85
437,925	0,85
438,381	0,85
438,837	0,85
439,293	0,85
439,749	0,85
440,205	0,85
440,66	0,85
441,116	0,85
441,572	0,85
442,027	0,85
442,483	0,85
442,939	0,85
443,394	0,85
443,85	0,85
444,305	0,85
444,761	0,85
445,216	0,85
445,672	0,85
446,127	0,85
446,582	0,85
447,038	0,85
447,493	0,85
447,948	0,86
448,403	0,86
448,859	0,86
449,314	0,86
449,769	0,86
450,224	0,86
450,679	0,86
451,134	0,86
451,589	0,86
452,044	0,86
452,499	0,86
452,954	0,86
453,409	0,86
453,864	0,86
454,319	0,86
454,774	0,86
455,229	0,86
455,684	0,86
456,138	0,86
456,593	0,86
457,048	0,86
457,503	0,86
457,957	0,86
458,412	0,86
458,866	0,86
459,321	0,86
459,776	0,86
460,23	0,86
460,685	0,87
461,139	0,87
461,593	0,87
462,048	0,87
462,502	0,87
462,957	0,87
463,411	0,87
463,865	0,87
464,319	0,87
464,774	0,88
465,228	0,88
465,682	0,88
466,136	0,88
466,59	0,88
467,044	0,88
467,499	0,88
467,953	0,88
468,407	0,88
468,861	0,88
469,315	0,88
469,768	0,88
470,222	0,89
470,676	0,89
471,13	0,89
471,584	0,89
472,038	0,89
472,491	0,89
472,945	0,89
473,399	0,89
473,852	0,89
474,306	0,89
474,76	0,9
475,213	0,9
475,667	0,9
476,12	0,9
476,574	0,9
477,027	0,9
477,481	0,9
477,934	0,91
478,388	0,91
478,841	0,91
479,294	0,91
479,748	0,92
480,201	0,92
480,654	0,92
481,107	0,92
481,561	0,92
482,014	0,93
482,467	0,93
482,92	0,93
483,373	0,93
483,826	0,93
484,279	0,94
484,732	0,94
485,185	0,94
485,638	0,94
486,091	0,94
486,544	0,95
486,997	0,95
487,449	0,95
487,902	0,95
488,355	0,96
488,808	0,96
489,26	0,96
489,713	0,97
490,166	0,97
490,618	0,97
491,071	0,98
491,523	0,98
491,976	0,98
492,429	0,99
492,881	0,99
493,333	0,99
493,786	0,99
494,238	1
494,691	1
495,143	1,01
495,595	1,01
496,048	1,01
496,5	1,02
496,952	1,02
497,404	1,03
497,856	1,03
498,309	1,03
498,761	1,04
499,213	1,04
499,665	1,05
500,117	1,05
500,569	1,06
501,021	1,06
501,473	1,07
501,925	1,07
502,377	1,08
502,828	1,08
503,28	1,08
503,732	1,09
504,184	1,09
504,636	1,1
505,087	1,1
505,539	1,1
505,991	1,11
506,442	1,11
506,894	1,12
507,345	1,12
507,797	1,13
508,249	1,13
508,7	1,14
509,151	1,14
509,603	1,14
510,054	1,15
510,506	1,15
510,957	1,16
511,408	1,16
511,86	1,17
512,311	1,17
512,762	1,17
513,213	1,18
513,665	1,18
514,116	1,18
514,567	1,19
515,018	1,19
515,469	1,19
515,92	1,2
516,371	1,2
516,822	1,2
517,273	1,21
517,724	1,21
518,175	1,21
518,626	1,22
519,076	1,22
519,527	1,22
519,978	1,22
520,429	1,23
520,88	1,23
521,33	1,23
521,781	1,23
522,232	1,23
522,682	1,23
523,133	1,24
523,583	1,24
524,034	1,24
524,484	1,24
524,935	1,24
525,385	1,24
525,836	1,24
526,286	1,24
526,736	1,24
527,187	1,24
527,637	1,24
528,087	1,24
528,538	1,24
528,988	1,24
529,438	1,24
529,888	1,24
530,338	1,24
530,788	1,23
531,238	1,23
531,688	1,23
532,139	1,23
532,589	1,23
533,038	1,23
533,488	1,23
533,938	1,22
534,388	1,22
534,838	1,22
535,288	1,21
535,738	1,21
536,187	1,21
536,637	1,2
537,087	1,2
537,537	1,19
537,986	1,19
538,436	1,18
538,885	1,18
539,335	1,17
539,785	1,16
540,234	1,16
540,684	1,15
541,133	1,15
541,582	1,14
542,032	1,14
542,481	1,13
542,931	1,13
543,38	1,12
543,829	1,11
544,278	1,11
544,728	1,1
545,177	1,1
545,626	1,09
546,075	1,08
546,524	1,08
546,973	1,07
547,422	1,07
547,871	1,07
548,32	1,06
548,769	1,06
549,218	1,06
549,667	1,05
550,116	1,05
550,565	1,04
551,014	1,04
551,463	1,04
551,911	1,03
552,36	1,03
552,809	1,02
553,258	1,02
553,706	1,01
554,155	1,01
554,603	1
555,052	1
555,501	0,99
555,949	0,98
556,398	0,98
556,846	0,97
557,294	0,97
557,743	0,96
558,191	0,96
558,64	0,95
559,088	0,94
559,536	0,94
559,985	0,93
560,433	0,93
560,881	0,92
561,329	0,92
561,777	0,91
562,225	0,91
562,674	0,9
563,122	0,9
563,57	0,9
564,018	0,89
564,466	0,89
564,914	0,88
565,362	0,88
565,809	0,87
566,257	0,87
566,705	0,86
567,153	0,86
567,601	0,85
568,048	0,85
568,496	0,84
568,944	0,84
569,392	0,83
569,839	0,83
570,287	0,83
570,734	0,82
571,182	0,82
571,63	0,81
572,077	0,81
572,525	0,8
572,972	0,8
573,419	0,8
573,867	0,79
574,314	0,79
574,761	0,78
575,209	0,78
575,656	0,77
576,103	0,77
576,551	0,77
576,998	0,76
577,445	0,76
577,892	0,76
578,339	0,75
578,786	0,75
579,233	0,75
579,68	0,74
580,127	0,74
580,574	0,74
581,021	0,73
581,468	0,73
581,915	0,73
582,362	0,72
582,809	0,72
583,255	0,72
583,702	0,72
584,149	0,71
584,596	0,71
585,042	0,7
585,489	0,7
585,936	0,7
586,382	0,69
586,829	0,69
587,275	0,69
587,722	0,69
588,168	0,69
588,615	0,68
589,061	0,68
589,508	0,68
589,954	0,68
590,4	0,67
590,847	0,67
591,293	0,67
591,739	0,67
592,185	0,67
592,632	0,66
593,078	0,66
593,524	0,66
593,97	0,66
594,416	0,66
594,862	0,66
595,308	0,66
595,754	0,65
596,2	0,65
596,646	0,65
597,092	0,65
597,538	0,64
597,984	0,64
598,43	0,64
598,876	0,64
599,321	0,64
599,767	0,64
600,213	0,63
600,659	0,63
601,104	0,63
601,55	0,63
601,995	0,63
602,441	0,63
602,887	0,62
603,332	0,62
603,778	0,62
604,223	0,62
604,668	0,62
605,114	0,62
605,559	0,62
606,005	0,62
606,45	0,62
606,895	0,61
607,341	0,61
607,786	0,61
608,231	0,61
608,676	0,6
609,121	0,6
609,566	0,59
610,012	0,58
610,457	0,58
610,902	0,57
611,347	0,57
611,792	0,57
612,237	0,56
612,682	0,56
613,127	0,56
613,571	0,57
614,016	0,57
614,461	0,57
614,906	0,58
615,351	0,58
615,795	0,58
616,24	0,58
616,685	0,58
617,129	0,58
617,574	0,58
618,019	0,58
618,463	0,58
618,908	0,58
619,352	0,58
619,797	0,58
620,241	0,58
620,686	0,58
621,13	0,58
621,574	0,57
622,019	0,57
622,463	0,57
622,907	0,57
623,352	0,57
623,796	0,57
624,24	0,57
624,684	0,57
625,128	0,57
625,572	0,56
626,016	0,56
626,461	0,56
626,905	0,56
627,349	0,56
627,793	0,56
628,236	0,56
628,68	0,56
629,124	0,56
629,568	0,56
630,012	0,56
630,456	0,56
630,9	0,56
631,343	0,56
631,787	0,56
632,231	0,56
632,674	0,56
633,118	0,56
633,562	0,56
634,005	0,56
634,449	0,56
634,892	0,56
635,336	0,56
635,779	0,55
636,223	0,55
636,666	0,55
637,109	0,55
637,553	0,55
637,996	0,55
638,439	0,55
638,883	0,55
639,326	0,55
639,769	0,55
640,212	0,55
640,655	0,55
641,099	0,55
641,542	0,55
641,985	0,55
642,428	0,55
642,871	0,55
643,314	0,55
643,757	0,55
644,2	0,54
644,643	0,54
645,085	0,54
645,528	0,54
645,971	0,54
646,414	0,54
646,857	0,54
647,299	0,54
647,742	0,54
648,185	0,54
648,627	0,54
649,07	0,54
649,513	0,54
649,955	0,54
650,398	0,54
650,84	0,54
651,283	0,53
651,725	0,53
652,168	0,53
652,61	0,53
653,052	0,53
653,495	0,53
653,937	0,44
654,379	0,39
654,821	0,39
655,264	0,4
655,706	0,4
656,148	0,4
656,59	0,4
657,032	0,4
657,474	0,4
657,916	0,4
658,358	0,39
658,8	0,45
659,242	0,53
659,684	0,53
660,126	0,53
660,568	0,53
661,01	0,53
661,452	0,53
661,894	0,53
662,335	0,53
662,777	0,53
663,219	0,53
663,661	0,53
664,102	0,53
664,544	0,53
664,985	0,53
665,427	0,53
665,869	0,53
666,31	0,53
666,752	0,53
667,193	0,53
667,634	0,53
668,076	0,53
668,517	0,53
668,959	0,53
669,4	0,53
669,841	0,53
670,282	0,53
670,724	0,53
671,165	0,53
671,606	0,53
672,047	0,52
672,488	0,52
672,929	0,52
673,37	0,52
673,811	0,52
674,252	0,52
674,693	0,52
675,134	0,52
675,575	0,52
676,016	0,52
676,457	0,52
676,898	0,52
677,339	0,52
677,78	0,52
678,22	0,52
678,661	0,52
679,102	0,52
679,542	0,52
679,983	0,52
680,424	0,52
680,864	0,52
681,305	0,52
681,745	0,52
682,186	0,52
682,626	0,52
683,067	0,52
683,507	0,52
683,948	0,52
684,388	0,52
684,828	0,52
685,269	0,52
685,709	0,52
686,149	0,52
686,589	0,52
687,029	0,52
687,47	0,52
687,91	0,51
688,35	0,51
688,79	0,51
689,23	0,51
689,67	0,51
690,11	0,51
690,55	0,51
690,99	0,51
691,43	0,51
691,87	0,51
692,31	0,51
692,749	0,51
693,189	0,51
693,629	0,51
694,069	0,5
694,508	0,5
694,948	0,5
695,388	0,5
695,827	0,5
696,267	0,51
696,706	0,51
697,146	0,51
697,586	0,51
698,025	0,51
698,464	0,51
698,904	0,51
699,343	0,51
699,783	0,51
700,222	0,51
700,661	0,51
701,101	0,51
701,54	0,51
701,979	0,51
702,418	0,51
702,857	0,51
703,297	0,51
703,736	0,51
704,175	0,51
704,614	0,51
705,053	0,51
705,492	0,51
705,931	0,51
706,37	0,51
706,809	0,51
707,248	0,51
707,687	0,51
708,125	0,5
708,564	0,5
709,003	0,5
709,442	0,5
709,88	0,5
710,319	0,5
710,758	0,5
711,196	0,5
711,635	0,5
712,074	0,5
712,512	0,5
712,951	0,5
713,389	0,5
713,828	0,5
714,266	0,5
714,705	0,5
715,143	0,5
715,581	0,5
716,02	0,5
716,458	0,5
716,896	0,5
717,334	0,5
717,773	0,5
718,211	0,5
718,649	0,5
719,087	0,5
719,525	0,5
719,963	0,5
720,401	0,5
720,839	0,5
721,277	0,5
721,715	0,5
722,153	0,5
722,591	0,5
723,029	0,5
723,467	0,5
723,905	0,5
724,342	0,5
724,78	0,5
725,218	0,5
725,656	0,5
726,093	0,5
726,531	0,5
726,969	0,5
727,406	0,5
727,844	0,5
728,281	0,49
728,719	0,49
729,156	0,49
729,594	0,49
730,031	0,49
730,469	0,49
730,906	0,49
731,343	0,49
731,781	0,49
732,218	0,49
732,655	0,49
733,092	0,49
733,53	0,49
733,967	0,49
734,404	0,49
734,841	0,49
735,278	0,49
735,715	0,49
736,152	0,49
736,589	0,49
737,026	0,49
737,463	0,49
737,9	0,49
738,337	0,49
738,774	0,49
739,211	0,49
739,647	0,49
740,084	0,49
740,521	0,49
740,958	0,49
741,394	0,49
741,831	0,49
742,268	0,49
742,704	0,49
743,141	0,49
743,577	0,49
744,014	0,49
744,45	0,49
744,887	0,49
745,323	0,48
745,76	0,48
746,196	0,48
746,632	0,48
747,069	0,48
747,505	0,48
747,941	0,48
748,378	0,48
748,814	0,48
749,25	0,48
749,686	0,48
750,122	0,48
750,558	0,48
750,994	0,48
751,43	0,48
751,866	0,48
752,302	0,48
752,738	0,48
753,174	0,48
753,61	0,48
754,046	0,48
754,482	0,48
754,918	0,48
755,354	0,48
755,789	0,48
756,225	0,48
756,661	0,48
757,096	0,48
757,532	0,47
757,968	0,47
758,403	0,47
758,839	0,47
759,274	0,46
759,71	0,46
760,145	0,45
760,581	0,45
761,016	0,44
761,452	0,44
761,887	0,44
762,322	0,43
762,758	0,42
763,193	0,42
763,628	0,41
764,063	0,4
764,499	0,4
764,934	0,39
765,369	0,38
765,804	0,37
766,239	0,37
766,674	0,36
767,109	0,35
767,544	0,34
767,979	0,33
768,414	0,32
768,849	0,31
769,284	0,3
769,719	0,29
770,154	0,29
770,588	0,28
771,023	0,26
771,458	0,25
771,893	0,24
772,327	0,23
772,762	0,22
773,197	0,21
773,631	0,2
774,066	0,2
774,5	0,19
774,935	0,18
775,369	0,17
775,804	0,15
776,238	0,14
776,673	0,13
777,107	0,12
777,541	0,11
777,976	0,1
778,41	0,09
778,844	0,08
779,279	0,07
779,713	0,06
780,147	0,05
780,581	0,04
781,015	0,03
781,449	0,02
781,883	0,01
782,317	-0,01
782,751	-0,02
783,185	-0,03
783,619	-0,04
784,053	-0,05
784,487	-0,05
784,921	-0,06
785,355	-0,07
785,789	-0,08
786,223	-0,08
786,656	-0,09
787,09	-0,11
787,524	-0,11
787,957	-0,12
788,391	-0,14
788,825	-0,15
789,258	-0,17
789,692	-0,18
790,125	-0,2
790,559	-0,21
790,992	-0,23
791,426	-0,25
791,859	-0,26
792,293	-0,29
792,726	-0,31
793,159	-0,33
793,593	-0,35
794,026	-0,37
794,459	-0,4
794,892	-0,43
795,326	-0,45
795,759	-0,49
796,192	-0,54
796,625	-0,59
797,058	-0,61
797,491	-0,66
797,924	-0,69
798,357	-0,74
798,79	-0,78
799,223	-0,83
799,656	-0,88
800,089	-0,93
800,522	-0,97
800,955	-1,02
801,387	-1,07
801,82	-1,12
802,253	-1,19
802,686	-1,27
803,118	-1,32
803,551	-1,38
803,984	-1,42
804,416	-1,45
804,849	-1,48
805,281	-1,6
805,714	-1,96
806,146	-2,42
806,579	-2,69
807,011	-2,86
807,444	-2,95
807,876	-3,04
808,308	-3,08
808,741	-3,11
809,173	-3,16
809,605	-3,18
810,037	-3,26
810,47	-3,18
810,902	-2,98
811,334	-2,83
811,766	-2,68
812,198	-2,44
812,63	-2
813,062	-1,78
813,494	-1,68
813,926	-1,59
814,358	-1,54
814,79	-1,46
815,222	-1,4
815,654	-1,35
816,086	-1,29
816,518	-1,23
816,949	-1,18
817,381	-1,13
817,813	-1,11
818,245	-1,07
818,676	-1,03
819,108	-1
819,54	-0,98
819,971	-0,96
820,403	-0,91
820,834	-0,9
821,266	-0,86
821,697	-0,84
822,129	-0,82
822,56	-0,8
822,991	-0,78
823,423	-0,76
823,854	-0,75
824,286	-0,72
824,717	-0,71
825,148	-0,69
825,579	-0,68
826,01	-0,66
826,442	-0,65
826,873	-0,63
827,304	-0,59
827,735	-0,59
828,166	-0,59
828,597	-0,58
829,028	-0,58
829,459	-0,58
829,89	-0,58
830,321	-0,54
830,752	-0,55
831,183	-0,54
831,613	-0,53
832,044	-0,53
832,475	-0,52
832,906	-0,54
833,336	-0,53
833,767	-0,54
834,198	-0,53
834,628	-0,51
835,059	-0,54
835,49	-0,54
835,92	-0,52
836,351	-0,52
836,781	-0,53
837,212	-0,55
837,642	-0,54
838,072	-0,54
838,503	-0,54
838,933	-0,52
839,364	-0,52
839,794	-0,5
840,224	-0,49
840,654	-0,53
841,085	-0,54
841,515	-0,51
841,945	-0,51
842,375	-0,47
842,805	-0,45
843,235	-0,44
843,665	-0,45
844,095	-0,43
844,525	-0,45
844,955	-0,46
845,385	-0,43
845,815	-0,41
846,245	-0,43
846,675	-0,43
847,105	-0,45
847,534	-0,45
847,964	-0,44
848,394	-0,44
848,824	-0,47
849,253	-0,47
849,683	-0,47
850,112	-0,49
850,542	-0,52
850,972	-0,53
851,401	-0,51
851,831	-0,49
852,26	-0,49
852,69	-0,53
853,119	-0,52
853,548	-0,52
853,978	-0,53
854,407	-0,52
854,836	-0,52
855,266	-0,51
855,695	-0,52
856,124	-0,53
856,553	-0,55
856,983	-0,56
857,412	-0,55
857,841	-0,57
858,27	-0,58
858,699	-0,58
859,128	-0,61
859,557	-0,61
859,986	-0,62
860,415	-0,6
860,844	-0,58
861,273	-0,58
861,702	-0,59
862,13	-0,56
862,559	-0,58
862,988	-0,55
863,417	-0,54
863,845	-0,53
864,274	-0,53
864,703	-0,53
865,131	-0,54
865,56	-0,55
865,989	-0,58
866,417	-0,55
866,846	-0,56
867,274	-0,54
867,703	-0,57
868,131	-0,59
868,559	-0,59
868,988	-0,62
869,416	-0,6
869,844	-0,6
870,273	-0,62
870,701	-0,6
871,129	-0,63
871,557	-0,66
871,986	-0,67
872,414	-0,67
872,842	-0,64
873,27	-0,62
873,698	-0,59
874,126	-0,63
874,554	-0,62
874,982	-0,62
875,41	-0,64
875,838	-0,59
876,266	-0,57
876,694	-0,57
877,122	-0,56
877,549	-0,61
877,977	-0,58
878,405	-0,61
878,833	-0,58
879,26	-0,56
879,688	-0,55
880,116	-0,54
880,543	-0,53
880,971	-0,52
881,399	-0,55
881,826	-0,56
882,254	-0,54
882,681	-0,58
883,109	-0,54
883,536	-0,55
883,963	-0,57
884,391	-0,55
884,818	-0,53
885,245	-0,57
885,673	-0,59
886,1	-0,55
886,527	-0,54
886,954	-0,51
887,381	-0,52
887,809	-0,54
888,236	-0,55
888,663	-0,56
889,09	-0,6
889,517	-0,63
889,944	-0,62
890,371	-0,61
890,798	-0,63
891,225	-0,64
891,652	-0,67
892,078	-0,64
892,505	-0,66
892,932	-0,61
893,359	-0,62
893,786	-0,62
894,212	-0,58
894,639	-0,6
895,066	-0,61
895,492	-0,55
895,919	-0,54
896,346	-0,54
896,772	-0,54
897,199	-0,52
897,625	-0,55
898,052	-0,53
898,478	-0,51
898,904	-0,53
899,331	-0,53
899,757	-0,55
900,183	-0,58
900,61	-0,56
901,036	-0,56
901,462	-0,56
901,888	-0,55
902,315	-0,54
902,741	-0,59
903,167	-0,58
903,593	-0,6
904,019	-0,58
904,445	-0,55
904,871	-0,58
905,297	-0,6
905,723	-0,59
906,149	-0,58
906,575	-0,59
907,001	-0,58
907,427	-0,55
907,852	-0,55
908,278	-0,56
908,704	-0,54
909,13	-0,53
909,555	-0,52
909,981	-0,52
910,407	-0,51
910,832	-0,51
911,258	-0,51
911,684	-0,52
912,109	-0,51
912,535	-0,53
912,96	-0,49
913,386	-0,54
913,811	-0,53
914,236	-0,55
914,662	-0,52
915,087	-0,56
915,512	-0,56
915,938	-0,57
916,363	-0,56
916,788	-0,59
917,213	-0,56
917,639	-0,6
918,064	-0,57
918,489	-0,58
918,914	-0,58
919,339	-0,59
919,764	-0,56
920,189	-0,56
920,614	-0,59
921,039	-0,59
921,464	-0,54
921,889	-0,57
922,314	-0,59
922,738	-0,62
923,163	-0,64
923,588	-0,64
924,013	-0,63
924,437	-0,62
924,862	-0,63
925,287	-0,59
925,711	-0,6
926,136	-0,62
926,561	-0,6
926,985	-0,59
927,41	-0,55
927,834	-0,52
928,259	-0,49
928,683	-0,48
929,108	-0,45
929,532	-0,45
929,956	-0,45
930,381	-0,45
930,805	-0,45
931,229	-0,44
931,653	-0,42
932,078	-0,42
932,502	-0,43
932,926	-0,45
933,35	-0,45
933,774	-0,44
934,198	-0,42
934,622	-0,41
935,046	-0,42
935,47	-0,43
935,894	-0,43
936,318	-0,42
936,742	-0,43
937,166	-0,44
937,59	-0,43
938,014	-0,45
938,437	-0,46
938,861	-0,48
939,285	-0,49
939,709	-0,48
940,132	-0,48
940,556	-0,48
940,98	-0,48
941,403	-0,47
941,827	-0,46
942,25	-0,48
942,674	-0,48
943,097	-0,47
943,521	-0,47
943,944	-0,48
944,368	-0,47
944,791	-0,46
945,214	-0,48
945,638	-0,49
946,061	-0,52
946,484	-0,53
946,907	-0,51
947,331	-0,51
947,754	-0,55
948,177	-0,52
948,6	-0,52
949,023	-0,53
949,446	-0,53
949,869	-0,5
950,292	-0,5
950,715	-0,46
951,138	-0,44
951,561	-0,43
951,984	-0,42
952,407	-0,41
952,83	-0,38
953,252	-0,35
953,675	-0,34
954,098	-0,35
954,521	-0,33
954,943	-0,31
955,366	-0,33
955,789	-0,31
956,211	-0,32
956,634	-0,33
957,056	-0,31
957,479	-0,33
957,902	-0,35
958,324	-0,35
958,746	-0,33
959,169	-0,34
959,591	-0,36
960,014	-0,37
960,436	-0,37
960,858	-0,37
961,281	-0,37
961,703	-0,38
962,125	-0,38
962,547	-0,36
962,969	-0,37
963,391	-0,37
963,814	-0,39
964,236	-0,37
964,658	-0,34
965,08	-0,35
965,502	-0,34
965,924	-0,32
966,346	-0,31
966,768	-0,31
967,189	-0,33
967,611	-0,32
968,033	-0,31
968,455	-0,28
968,877	-0,29
969,298	-0,3
969,72	-0,3
970,142	-0,29
970,563	-0,29
970,985	-0,28
971,407	-0,27
971,828	-0,25
972,25	-0,25
972,671	-0,24
973,093	-0,24
973,514	-0,24
973,936	-0,22
974,357	-0,2
974,778	-0,21
975,2	-0,2
975,621	-0,19
976,042	-0,18
976,464	-0,17
976,885	-0,16
977,306	-0,15
977,727	-0,15
978,148	-0,13
978,57	-0,11
978,991	-0,09
979,412	-0,08
979,833	-0,07
980,254	-0,06
980,675	-0,05
981,096	-0,04
981,517	-0,01
981,937	-0,01
982,358	0,01
982,779	0,03
983,2	0,02
983,621	0,03
984,042	0,04
984,462	0,05
984,883	0,06
985,304	0,07
985,724	0,08
986,145	0,09
986,565	0,11
986,986	0,12
987,407	0,12
987,827	0,14
988,248	0,15
988,668	0,17
989,088	0,18
989,509	0,2
989,929	0,21
990,35	0,23
990,77	0,24
991,19	0,25
991,61	0,26
992,031	0,28
992,451	0,29
992,871	0,3
993,291	0,31
993,711	0,32
994,131	0,32
994,551	0,33
994,971	0,34
995,391	0,35
995,811	0,36
996,231	0,36
996,651	0,36
997,071	0,37
997,491	0,38
997,911	0,39
998,331	0,4
998,75	0,4
999,17	0,41
999,59	0,42
1000,009	0,42
1000,429	0,43
1000,849	0,44
1001,268	0,44
1001,688	0,44
1002,107	0,45
1002,527	0,45
1002,946	0,46
1003,366	0,46
1003,785	0,46
1004,205	0,47
1004,624	0,47
1005,044	0,47
1005,463	0,47
1005,882	0,48
1006,301	0,48
1006,721	0,48
1007,14	0,48
1007,559	0,48
1007,978	0,49
1008,397	0,49
1008,816	0,49
1009,235	0,49
1009,655	0,49
1010,074	0,49
1010,492	0,49
1010,911	0,49
1011,33	0,48
1011,749	0,48
1012,168	0,48
1012,587	0,48
1013,006	0,48
1013,425	0,48
1013,843	0,48
1014,262	0,48
1014,681	0,48
1015,099	0,48
1015,518	0,48
1015,937	0,48
1016,355	0,48
1016,774	0,48
1017,192	0,48
1017,611	0,48
1018,029	0,48
1018,448	0,48
1018,866	0,48
1019,285	0,48
1019,703	0,48
1020,121	0,48
1020,54	0,48
1020,958	0,48
1021,376	0,48
1021,794	0,48
1022,213	0,48
1022,631	0,48
1023,049	0,47
1023,467	0,47
1023,885	0,47
1024,303	0,47
1024,721	0,47
1025,139	0,47
1025,557	0,47
1025,975	0,47
1026,393	0,47
1026,811	0,46
1027,229	0,46
1027,647	0,46
1028,065	0,46
1028,482	0,46
1028,9	0,46
1029,318	0,46
1029,735	0,46
1030,153	0,46
1030,571	0,46
1030,988	0,46
1031,406	0,46
1031,823	0,46
1032,241	0,46
1032,659	0,46
1033,076	0,46
1033,493	0,46
1033,911	0,46
1034,328	0,46
1034,746	0,46
1035,163	0,46
1035,58	0,46
1035,997	0,46
1036,415	0,46
1036,832	0,46
1037,249	0,46
1037,666	0,46
1038,083	0,46
1038,501	0,46
1038,918	0,46
1039,335	0,46
1039,752	0,46
1040,169	0,46
1040,586	0,46
1041,003	0,46
1041,419	0,46
1041,836	0,46
1042,253	0,46
1042,67	0,46
1043,087	0,46
1043,504	0,46
1043,92	0,46
1044,337	0,46
1044,754	0,46
1045,17	0,46
1045,587	0,46
1046,004	0,45
1046,42	0,45
1046,837	0,45
1047,253	0,45
1047,67	0,45
1048,086	0,45
1048,503	0,45
1048,919	0,46
1049,335	0,46
1049,752	0,46
1050,168	0,46
1050,584	0,46
1051,001	0,46
1051,417	0,46
1051,833	0,46
1052,249	0,46
1052,665	0,46
1053,081	0,46
1053,497	0,47
1053,914	0,47
1054,33	0,47
1054,746	0,47
1055,162	0,47
1055,578	0,47
1055,993	0,47
1056,409	0,47
1056,825	0,47
1057,241	0,48
1057,657	0,48
1058,073	0,48
1058,488	0,48
1058,904	0,47
1059,32	0,47
1059,736	0,47
1060,151	0,47
1060,567	0,47
1060,982	0,47
1061,398	0,47
1061,813	0,47
1062,229	0,47
1062,644	0,47
1063,06	0,47
1063,475	0,47
1063,891	0,47
1064,306	0,47
1064,721	0,47
1065,137	0,47
1065,552	0,47
1065,967	0,47
1066,382	0,47
1066,798	0,47
1067,213	0,47
1067,628	0,47
1068,043	0,47
1068,458	0,47
1068,873	0,47
1069,288	0,47
1069,703	0,47
1070,118	0,47
1070,533	0,47
1070,948	0,47
1071,363	0,47
1071,778	0,47
1072,193	0,47
1072,607	0,47
1073,022	0,47
1073,437	0,47
1073,852	0,47
1074,266	0,47
1074,681	0,47
1075,096	0,47
1075,51	0,47
1075,925	0,47
1076,339	0,47
1076,754	0,47
1077,168	0,47
1077,583	0,47
1077,997	0,47
1078,412	0,46
1078,826	0,46
1079,24	0,46
1079,655	0,46
1080,069	0,46
1080,483	0,46
1080,897	0,46
1081,312	0,46
1081,726	0,46
1082,14	0,45
1082,554	0,45
1082,968	0,45
1083,382	0,45
1083,796	0,45
1084,21	0,45
1084,624	0,45
1085,038	0,45
1085,452	0,45
1085,866	0,44
1086,28	0,44
1086,694	0,44
1087,108	0,44
1087,521	0,44
1087,935	0,44
1088,349	0,44
1088,763	0,43
1089,176	0,43
1089,59	0,43
1090,004	0,43
1090,417	0,42
1090,831	0,42
1091,244	0,42
1091,658	0,41
1092,071	0,41
1092,485	0,41
1092,898	0,4
1093,312	0,4
1093,725	0,4
1094,138	0,4
1094,552	0,39
1094,965	0,39
1095,378	0,39
1095,791	0,39
1096,205	0,39
1096,618	0,38
1097,031	0,38
1097,444	0,38
1097,857	0,37
1098,27	0,37
1098,683	0,36
1099,096	0,36
1099,509	0,35
1099,922	0,35
1100,335	0,34
1100,748	0,34
1101,161	0,33
1101,574	0,33
1101,986	0,32
1102,399	0,32
1102,812	0,32
1103,225	0,31
1103,637	0,31
1104,05	0,3
1104,463	0,3
1104,875	0,3
1105,288	0,29
1105,7	0,29
1106,113	0,28
1106,525	0,28
1106,938	0,28
1107,35	0,28
1107,763	0,28
1108,175	0,28
1108,588	0,27
1109	0,27
1109,412	0,26
1109,824	0,26
1110,237	0,26
1110,649	0,27
1111,061	0,28
