Data from 18C-808nm-8A-cont_Absorbance__414__01843.txt Node

Date: Mon Jul 17 17:33:50 CEST 2023
User: Laser008
Spectrometer: MAYP115816
Trigger mode: 0
Integration Time (sec): 2,500000E-1
Scans to average: 10
Electric dark correction enabled: true
Nonlinearity correction enabled: true
Boxcar width: 5
XAxis mode: Wavelengths
Number of Pixels in Spectrum: 2068
>>>>>Begin Spectral Data<<<<<
198,914	-0,66
199,384	-0,46
199,855	-0,34
200,325	-0,26
200,796	-0,23
201,266	-0,18
201,737	-0,17
202,207	-0,16
202,677	-0,15
203,147	-0,14
203,618	-0,11
204,088	-0,1
204,558	-0,09
205,028	-0,08
205,498	-0,09
205,968	-0,09
206,439	-0,11
206,909	-0,1
207,379	-0,11
207,849	-0,11
208,319	-0,11
208,789	-0,12
209,258	-0,11
209,728	-0,12
210,198	-0,12
210,668	-0,11
211,138	-0,11
211,608	-0,11
212,077	-0,11
212,547	-0,11
213,017	-0,11
213,486	-0,12
213,956	-0,13
214,426	-0,14
214,895	-0,14
215,365	-0,14
215,834	-0,15
216,304	-0,16
216,773	-0,17
217,243	-0,18
217,712	-0,2
218,181	-0,2
218,651	-0,19
219,12	-0,18
219,589	-0,18
220,058	-0,17
220,528	-0,18
220,997	-0,19
221,466	-0,19
221,935	-0,19
222,404	-0,19
222,873	-0,18
223,342	-0,17
223,812	-0,17
224,281	-0,18
224,749	-0,17
225,218	-0,19
225,687	-0,19
226,156	-0,17
226,625	-0,17
227,094	-0,17
227,563	-0,17
228,031	-0,18
228,5	-0,18
228,969	-0,19
229,438	-0,18
229,906	-0,18
230,375	-0,17
230,844	-0,16
231,312	-0,16
231,781	-0,17
232,249	-0,16
232,718	-0,15
233,186	-0,13
233,655	-0,14
234,123	-0,14
234,591	-0,15
235,06	-0,15
235,528	-0,16
235,996	-0,15
236,465	-0,14
236,933	-0,14
237,401	-0,14
237,869	-0,13
238,337	-0,13
238,805	-0,12
239,274	-0,12
239,742	-0,11
240,21	-0,1
240,678	-0,1
241,146	-0,09
241,614	-0,1
242,081	-0,08
242,549	-0,09
243,017	-0,09
243,485	-0,09
243,953	-0,09
244,421	-0,08
244,888	-0,08
245,356	-0,08
245,824	-0,07
246,291	-0,08
246,759	-0,09
247,227	-0,1
247,694	-0,08
248,162	-0,08
248,629	-0,08
249,097	-0,09
249,564	-0,1
250,032	-0,11
250,499	-0,11
250,967	-0,12
251,434	-0,13
251,901	-0,12
252,369	-0,12
252,836	-0,13
253,303	-0,15
253,77	-0,16
254,237	-0,15
254,705	-0,15
255,172	-0,14
255,639	-0,14
256,106	-0,16
256,573	-0,16
257,04	-0,16
257,507	-0,17
257,974	-0,17
258,441	-0,15
258,908	-0,15
259,375	-0,18
259,841	-0,17
260,308	-0,18
260,775	-0,18
261,242	-0,16
261,709	-0,16
262,175	-0,18
262,642	-0,17
263,109	-0,17
263,575	-0,19
264,042	-0,17
264,508	-0,15
264,975	-0,17
265,441	-0,18
265,908	-0,19
266,374	-0,19
266,841	-0,19
267,307	-0,19
267,773	-0,19
268,24	-0,18
268,706	-0,18
269,172	-0,19
269,639	-0,21
270,105	-0,19
270,571	-0,2
271,037	-0,19
271,503	-0,21
271,969	-0,2
272,435	-0,2
272,902	-0,2
273,368	-0,22
273,834	-0,22
274,3	-0,22
274,765	-0,22
275,231	-0,22
275,697	-0,21
276,163	-0,21
276,629	-0,2
277,095	-0,21
277,56	-0,2
278,026	-0,21
278,492	-0,19
278,958	-0,19
279,423	-0,2
279,889	-0,2
280,354	-0,2
280,82	-0,2
281,286	-0,22
281,751	-0,22
282,217	-0,21
282,682	-0,21
283,147	-0,21
283,613	-0,22
284,078	-0,21
284,544	-0,22
285,009	-0,22
285,474	-0,21
285,939	-0,23
286,405	-0,22
286,87	-0,21
287,335	-0,21
287,8	-0,21
288,265	-0,2
288,73	-0,2
289,195	-0,22
289,66	-0,22
290,125	-0,21
290,59	-0,21
291,055	-0,2
291,52	-0,2
291,985	-0,21
292,45	-0,22
292,915	-0,23
293,38	-0,23
293,844	-0,23
294,309	-0,21
294,774	-0,2
295,239	-0,22
295,703	-0,22
296,168	-0,21
296,632	-0,21
297,097	-0,2
297,562	-0,18
298,026	-0,18
298,491	-0,18
298,955	-0,18
299,419	-0,17
299,884	-0,17
300,348	-0,15
300,813	-0,14
301,277	-0,15
301,741	-0,16
302,205	-0,15
302,67	-0,15
303,134	-0,14
303,598	-0,14
304,062	-0,12
304,526	-0,13
304,99	-0,15
305,454	-0,16
305,919	-0,16
306,383	-0,16
306,847	-0,15
307,31	-0,15
307,774	-0,16
308,238	-0,17
308,702	-0,17
309,166	-0,18
309,63	-0,18
310,094	-0,14
310,557	-0,14
311,021	-0,13
311,485	-0,13
311,948	-0,12
312,412	-0,11
312,876	-0,11
313,339	-0,11
313,803	-0,11
314,266	-0,11
314,73	-0,11
315,193	-0,11
315,657	-0,1
316,12	-0,1
316,584	-0,09
317,047	-0,08
317,51	-0,07
317,973	-0,07
318,437	-0,06
318,9	-0,05
319,363	-0,05
319,826	-0,04
320,29	-0,04
320,753	-0,05
321,216	-0,04
321,679	-0,05
322,142	-0,05
322,605	-0,06
323,068	-0,06
323,531	-0,06
323,994	-0,05
324,457	-0,06
324,92	-0,05
325,382	-0,05
325,845	-0,04
326,308	-0,03
326,771	-0,02
327,233	-0,02
327,696	-0,01
328,159	-0,01
328,622	-0
329,084	-0
329,547	0,01
330,009	0,01
330,472	0,02
330,934	0,03
331,397	0,04
331,859	0,04
332,322	0,04
332,784	0,05
333,246	0,05
333,709	0,06
334,171	0,06
334,633	0,06
335,096	0,06
335,558	0,06
336,02	0,06
336,482	0,06
336,944	0,07
337,406	0,08
337,868	0,09
338,331	0,09
338,793	0,1
339,255	0,12
339,717	0,12
340,178	0,13
340,64	0,13
341,102	0,14
341,564	0,16
342,026	0,16
342,488	0,17
342,949	0,18
343,411	0,21
343,873	0,24
344,335	0,27
344,796	0,32
345,258	0,36
345,719	0,42
346,181	0,47
346,643	0,51
347,104	0,54
347,566	0,58
348,027	0,61
348,488	0,63
348,95	0,65
349,411	0,68
349,873	0,71
350,334	0,73
350,795	0,74
351,256	0,76
351,718	0,77
352,179	0,77
352,64	0,78
353,101	0,78
353,562	0,79
354,023	0,79
354,484	0,79
354,945	0,8
355,406	0,8
355,867	0,8
356,328	0,8
356,789	0,81
357,25	0,82
357,711	0,82
358,172	0,82
358,633	0,82
359,093	0,82
359,554	0,82
360,015	0,82
360,476	0,83
360,936	0,83
361,397	0,83
361,858	0,83
362,318	0,83
362,779	0,83
363,239	0,83
363,7	0,83
364,16	0,83
364,621	0,83
365,081	0,83
365,541	0,83
366,002	0,83
366,462	0,83
366,922	0,83
367,383	0,83
367,843	0,83
368,303	0,83
368,763	0,83
369,223	0,83
369,684	0,83
370,144	0,83
370,604	0,83
371,064	0,83
371,524	0,83
371,984	0,83
372,444	0,83
372,904	0,83
373,363	0,83
373,823	0,82
374,283	0,82
374,743	0,82
375,203	0,82
375,663	0,82
376,122	0,82
376,582	0,82
377,042	0,82
377,501	0,82
377,961	0,82
378,42	0,82
378,88	0,82
379,34	0,82
379,799	0,82
380,259	0,82
380,718	0,82
381,177	0,82
381,637	0,82
382,096	0,82
382,555	0,82
383,015	0,82
383,474	0,82
383,933	0,82
384,393	0,82
384,852	0,82
385,311	0,82
385,77	0,82
386,229	0,82
386,688	0,82
387,147	0,82
387,606	0,82
388,065	0,82
388,524	0,82
388,983	0,81
389,442	0,81
389,901	0,81
390,36	0,81
390,819	0,81
391,277	0,81
391,736	0,81
392,195	0,81
392,654	0,81
393,112	0,81
393,571	0,81
394,03	0,81
394,488	0,81
394,947	0,81
395,405	0,81
395,864	0,81
396,322	0,81
396,781	0,81
397,239	0,81
397,698	0,81
398,156	0,81
398,614	0,81
399,073	0,81
399,531	0,81
399,989	0,81
400,447	0,81
400,905	0,81
401,364	0,81
401,822	0,81
402,28	0,8
402,738	0,8
403,196	0,8
403,654	0,8
404,112	0,8
404,57	0,8
405,028	0,8
405,486	0,8
405,944	0,8
406,402	0,8
406,859	0,8
407,317	0,8
407,775	0,8
408,233	0,8
408,691	0,8
409,148	0,8
409,606	0,8
410,064	0,8
410,521	0,8
410,979	0,8
411,436	0,8
411,894	0,8
412,351	0,8
412,809	0,8
413,266	0,8
413,724	0,8
414,181	0,8
414,638	0,8
415,096	0,8
415,553	0,8
416,01	0,8
416,467	0,8
416,925	0,8
417,382	0,8
417,839	0,8
418,296	0,8
418,753	0,8
419,21	0,8
419,667	0,8
420,124	0,8
420,581	0,8
421,038	0,8
421,495	0,8
421,952	0,8
422,409	0,8
422,866	0,8
423,322	0,8
423,779	0,8
424,236	0,8
424,693	0,8
425,149	0,8
425,606	0,8
426,063	0,8
426,519	0,8
426,976	0,8
427,433	0,8
427,889	0,8
428,346	0,8
428,802	0,79
429,258	0,79
429,715	0,79
430,171	0,79
430,628	0,79
431,084	0,79
431,54	0,8
431,997	0,79
432,453	0,79
432,909	0,79
433,365	0,79
433,821	0,79
434,277	0,79
434,734	0,79
435,19	0,79
435,646	0,79
436,102	0,79
436,558	0,79
437,014	0,79
437,47	0,79
437,925	0,79
438,381	0,79
438,837	0,79
439,293	0,79
439,749	0,79
440,205	0,79
440,66	0,79
441,116	0,79
441,572	0,79
442,027	0,79
442,483	0,79
442,939	0,8
443,394	0,8
443,85	0,8
444,305	0,8
444,761	0,8
445,216	0,8
445,672	0,8
446,127	0,8
446,582	0,8
447,038	0,8
447,493	0,8
447,948	0,8
448,403	0,8
448,859	0,8
449,314	0,8
449,769	0,8
450,224	0,8
450,679	0,8
451,134	0,8
451,589	0,8
452,044	0,8
452,499	0,8
452,954	0,8
453,409	0,8
453,864	0,8
454,319	0,8
454,774	0,8
455,229	0,8
455,684	0,8
456,138	0,8
456,593	0,8
457,048	0,8
457,503	0,8
457,957	0,8
458,412	0,8
458,866	0,8
459,321	0,8
459,776	0,81
460,23	0,81
460,685	0,81
461,139	0,81
461,593	0,81
462,048	0,81
462,502	0,81
462,957	0,81
463,411	0,81
463,865	0,81
464,319	0,81
464,774	0,81
465,228	0,82
465,682	0,82
466,136	0,82
466,59	0,82
467,044	0,82
467,499	0,82
467,953	0,82
468,407	0,82
468,861	0,82
469,315	0,82
469,768	0,82
470,222	0,82
470,676	0,83
471,13	0,83
471,584	0,83
472,038	0,83
472,491	0,83
472,945	0,83
473,399	0,83
473,852	0,83
474,306	0,83
474,76	0,83
475,213	0,84
475,667	0,84
476,12	0,84
476,574	0,84
477,027	0,84
477,481	0,84
477,934	0,84
478,388	0,85
478,841	0,85
479,294	0,85
479,748	0,85
480,201	0,85
480,654	0,86
481,107	0,86
481,561	0,86
482,014	0,86
482,467	0,86
482,92	0,87
483,373	0,87
483,826	0,87
484,279	0,87
484,732	0,87
485,185	0,88
485,638	0,88
486,091	0,88
486,544	0,88
486,997	0,88
487,449	0,89
487,902	0,89
488,355	0,89
488,808	0,9
489,26	0,9
489,713	0,9
490,166	0,9
490,618	0,91
491,071	0,91
491,523	0,91
491,976	0,91
492,429	0,92
492,881	0,92
493,333	0,92
493,786	0,93
494,238	0,93
494,691	0,93
495,143	0,94
495,595	0,94
496,048	0,95
496,5	0,95
496,952	0,95
497,404	0,96
497,856	0,96
498,309	0,96
498,761	0,97
499,213	0,97
499,665	0,98
500,117	0,98
500,569	0,99
501,021	0,99
501,473	0,99
501,925	1
502,377	1
502,828	1,01
503,28	1,01
503,732	1,02
504,184	1,02
504,636	1,02
505,087	1,03
505,539	1,03
505,991	1,03
506,442	1,04
506,894	1,04
507,345	1,05
507,797	1,05
508,249	1,05
508,7	1,06
509,151	1,06
509,603	1,07
510,054	1,07
510,506	1,08
510,957	1,08
511,408	1,08
511,86	1,09
512,311	1,09
512,762	1,09
513,213	1,1
513,665	1,1
514,116	1,11
514,567	1,11
515,018	1,11
515,469	1,12
515,92	1,12
516,371	1,12
516,822	1,13
517,273	1,13
517,724	1,13
518,175	1,13
518,626	1,14
519,076	1,14
519,527	1,14
519,978	1,14
520,429	1,15
520,88	1,15
521,33	1,15
521,781	1,15
522,232	1,15
522,682	1,16
523,133	1,16
523,583	1,16
524,034	1,16
524,484	1,16
524,935	1,16
525,385	1,16
525,836	1,16
526,286	1,16
526,736	1,16
527,187	1,16
527,637	1,16
528,087	1,16
528,538	1,16
528,988	1,16
529,438	1,16
529,888	1,16
530,338	1,16
530,788	1,16
531,238	1,16
531,688	1,15
532,139	1,15
532,589	1,15
533,038	1,15
533,488	1,15
533,938	1,15
534,388	1,14
534,838	1,14
535,288	1,14
535,738	1,13
536,187	1,13
536,637	1,12
537,087	1,12
537,537	1,12
537,986	1,11
538,436	1,11
538,885	1,1
539,335	1,1
539,785	1,09
540,234	1,09
540,684	1,08
541,133	1,08
541,582	1,07
542,032	1,07
542,481	1,06
542,931	1,06
543,38	1,05
543,829	1,05
544,278	1,04
544,728	1,04
545,177	1,03
545,626	1,03
546,075	1,02
546,524	1,02
546,973	1,01
547,422	1,01
547,871	1,01
548,32	1
548,769	1
549,218	1
549,667	0,99
550,116	0,99
550,565	0,98
551,014	0,98
551,463	0,97
551,911	0,97
552,36	0,96
552,809	0,96
553,258	0,95
553,706	0,95
554,155	0,94
554,603	0,94
555,052	0,94
555,501	0,93
555,949	0,93
556,398	0,92
556,846	0,92
557,294	0,91
557,743	0,91
558,191	0,9
558,64	0,89
559,088	0,89
559,536	0,88
559,985	0,88
560,433	0,87
560,881	0,87
561,329	0,86
561,777	0,86
562,225	0,85
562,674	0,85
563,122	0,85
563,57	0,84
564,018	0,84
564,466	0,83
564,914	0,83
565,362	0,82
565,809	0,82
566,257	0,81
566,705	0,81
567,153	0,8
567,601	0,8
568,048	0,8
568,496	0,79
568,944	0,79
569,392	0,78
569,839	0,78
570,287	0,78
570,734	0,77
571,182	0,77
571,63	0,77
572,077	0,76
572,525	0,76
572,972	0,75
573,419	0,75
573,867	0,75
574,314	0,74
574,761	0,74
575,209	0,74
575,656	0,73
576,103	0,73
576,551	0,73
576,998	0,72
577,445	0,72
577,892	0,72
578,339	0,71
578,786	0,71
579,233	0,71
579,68	0,7
580,127	0,7
580,574	0,7
581,021	0,69
581,468	0,69
581,915	0,69
582,362	0,68
582,809	0,68
583,255	0,68
583,702	0,68
584,149	0,68
584,596	0,67
585,042	0,67
585,489	0,67
585,936	0,66
586,382	0,66
586,829	0,66
587,275	0,66
587,722	0,65
588,168	0,65
588,615	0,65
589,061	0,65
589,508	0,64
589,954	0,64
590,4	0,64
590,847	0,64
591,293	0,64
591,739	0,63
592,185	0,63
592,632	0,63
593,078	0,63
593,524	0,63
593,97	0,63
594,416	0,63
594,862	0,62
595,308	0,62
595,754	0,62
596,2	0,62
596,646	0,62
597,092	0,61
597,538	0,61
597,984	0,61
598,43	0,61
598,876	0,61
599,321	0,61
599,767	0,61
600,213	0,6
600,659	0,6
601,104	0,6
601,55	0,6
601,995	0,6
602,441	0,6
602,887	0,59
603,332	0,59
603,778	0,59
604,223	0,59
604,668	0,59
605,114	0,59
605,559	0,59
606,005	0,59
606,45	0,59
606,895	0,59
607,341	0,58
607,786	0,58
608,231	0,58
608,676	0,58
609,121	0,57
609,566	0,56
610,012	0,56
610,457	0,55
610,902	0,55
611,347	0,55
611,792	0,54
612,237	0,54
612,682	0,54
613,127	0,54
613,571	0,54
614,016	0,55
614,461	0,55
614,906	0,55
615,351	0,55
615,795	0,55
616,24	0,55
616,685	0,55
617,129	0,55
617,574	0,55
618,019	0,55
618,463	0,55
618,908	0,55
619,352	0,55
619,797	0,55
620,241	0,55
620,686	0,55
621,13	0,55
621,574	0,55
622,019	0,54
622,463	0,54
622,907	0,54
623,352	0,54
623,796	0,54
624,24	0,54
624,684	0,54
625,128	0,54
625,572	0,54
626,016	0,54
626,461	0,54
626,905	0,54
627,349	0,54
627,793	0,54
628,236	0,54
628,68	0,54
629,124	0,54
629,568	0,54
630,012	0,54
630,456	0,54
630,9	0,53
631,343	0,53
631,787	0,53
632,231	0,53
632,674	0,53
633,118	0,53
633,562	0,53
634,005	0,53
634,449	0,53
634,892	0,53
635,336	0,53
635,779	0,53
636,223	0,53
636,666	0,53
637,109	0,53
637,553	0,53
637,996	0,53
638,439	0,53
638,883	0,53
639,326	0,53
639,769	0,53
640,212	0,53
640,655	0,53
641,099	0,52
641,542	0,52
641,985	0,52
642,428	0,52
642,871	0,52
643,314	0,52
643,757	0,52
644,2	0,52
644,643	0,52
645,085	0,52
645,528	0,52
645,971	0,52
646,414	0,52
646,857	0,52
647,299	0,52
647,742	0,51
648,185	0,51
648,627	0,51
649,07	0,51
649,513	0,51
649,955	0,51
650,398	0,51
650,84	0,51
651,283	0,51
651,725	0,52
652,168	0,52
652,61	0,52
653,052	0,52
653,495	0,51
653,937	0,43
654,379	0,37
654,821	0,38
655,264	0,38
655,706	0,38
656,148	0,38
656,59	0,38
657,032	0,38
657,474	0,38
657,916	0,38
658,358	0,37
658,8	0,43
659,242	0,51
659,684	0,51
660,126	0,51
660,568	0,51
661,01	0,51
661,452	0,51
661,894	0,51
662,335	0,51
662,777	0,51
663,219	0,51
663,661	0,51
664,102	0,51
664,544	0,51
664,985	0,51
665,427	0,51
665,869	0,51
666,31	0,51
666,752	0,51
667,193	0,51
667,634	0,51
668,076	0,51
668,517	0,51
668,959	0,51
669,4	0,51
669,841	0,51
670,282	0,51
670,724	0,51
671,165	0,51
671,606	0,51
672,047	0,51
672,488	0,5
672,929	0,5
673,37	0,5
673,811	0,5
674,252	0,5
674,693	0,5
675,134	0,5
675,575	0,5
676,016	0,5
676,457	0,5
676,898	0,49
677,339	0,49
677,78	0,49
678,22	0,49
678,661	0,49
679,102	0,49
679,542	0,49
679,983	0,49
680,424	0,49
680,864	0,5
681,305	0,5
681,745	0,5
682,186	0,5
682,626	0,5
683,067	0,5
683,507	0,5
683,948	0,5
684,388	0,5
684,828	0,5
685,269	0,5
685,709	0,49
686,149	0,49
686,589	0,49
687,029	0,49
687,47	0,49
687,91	0,49
688,35	0,49
688,79	0,49
689,23	0,49
689,67	0,49
690,11	0,49
690,55	0,49
690,99	0,49
691,43	0,49
691,87	0,49
692,31	0,48
692,749	0,48
693,189	0,48
693,629	0,48
694,069	0,48
694,508	0,48
694,948	0,48
695,388	0,48
695,827	0,48
696,267	0,48
696,706	0,48
697,146	0,48
697,586	0,48
698,025	0,48
698,464	0,48
698,904	0,48
699,343	0,48
699,783	0,48
700,222	0,48
700,661	0,48
701,101	0,48
701,54	0,48
701,979	0,48
702,418	0,48
702,857	0,49
703,297	0,49
703,736	0,48
704,175	0,48
704,614	0,48
705,053	0,48
705,492	0,48
705,931	0,48
706,37	0,48
706,809	0,48
707,248	0,48
707,687	0,48
708,125	0,48
708,564	0,48
709,003	0,48
709,442	0,48
709,88	0,48
710,319	0,48
710,758	0,48
711,196	0,48
711,635	0,48
712,074	0,48
712,512	0,47
712,951	0,47
713,389	0,47
713,828	0,47
714,266	0,47
714,705	0,47
715,143	0,47
715,581	0,47
716,02	0,47
716,458	0,47
716,896	0,47
717,334	0,47
717,773	0,47
718,211	0,47
718,649	0,47
719,087	0,47
719,525	0,47
719,963	0,47
720,401	0,47
720,839	0,47
721,277	0,47
721,715	0,47
722,153	0,47
722,591	0,47
723,029	0,47
723,467	0,47
723,905	0,47
724,342	0,47
724,78	0,47
725,218	0,47
725,656	0,47
726,093	0,47
726,531	0,47
726,969	0,47
727,406	0,47
727,844	0,47
728,281	0,47
728,719	0,47
729,156	0,47
729,594	0,47
730,031	0,47
730,469	0,47
730,906	0,47
731,343	0,47
731,781	0,47
732,218	0,47
732,655	0,46
733,092	0,46
733,53	0,46
733,967	0,46
734,404	0,46
734,841	0,46
735,278	0,46
735,715	0,46
736,152	0,46
736,589	0,46
737,026	0,46
737,463	0,46
737,9	0,46
738,337	0,46
738,774	0,46
739,211	0,46
739,647	0,46
740,084	0,46
740,521	0,46
740,958	0,46
741,394	0,46
741,831	0,46
742,268	0,46
742,704	0,46
743,141	0,46
743,577	0,46
744,014	0,46
744,45	0,46
744,887	0,46
745,323	0,46
745,76	0,45
746,196	0,45
746,632	0,45
747,069	0,45
747,505	0,45
747,941	0,45
748,378	0,45
748,814	0,45
749,25	0,45
749,686	0,45
750,122	0,45
750,558	0,45
750,994	0,46
751,43	0,46
751,866	0,46
752,302	0,46
752,738	0,46
753,174	0,46
753,61	0,46
754,046	0,46
754,482	0,46
754,918	0,46
755,354	0,46
755,789	0,46
756,225	0,46
756,661	0,45
757,096	0,45
757,532	0,45
757,968	0,45
758,403	0,45
758,839	0,44
759,274	0,44
759,71	0,44
760,145	0,43
760,581	0,42
761,016	0,42
761,452	0,41
761,887	0,41
762,322	0,41
762,758	0,4
763,193	0,4
763,628	0,39
764,063	0,38
764,499	0,37
764,934	0,37
765,369	0,36
765,804	0,35
766,239	0,34
766,674	0,34
767,109	0,33
767,544	0,32
767,979	0,31
768,414	0,3
768,849	0,28
769,284	0,28
769,719	0,27
770,154	0,26
770,588	0,25
771,023	0,24
771,458	0,23
771,893	0,21
772,327	0,2
772,762	0,19
773,197	0,18
773,631	0,17
774,066	0,16
774,5	0,15
774,935	0,14
775,369	0,13
775,804	0,11
776,238	0,11
776,673	0,1
777,107	0,09
777,541	0,07
777,976	0,06
778,41	0,06
778,844	0,04
779,279	0,04
779,713	0,03
780,147	0,02
780,581	0,01
781,015	0
781,449	-0,01
781,883	-0,01
782,317	-0,02
782,751	-0,03
783,185	-0,04
783,619	-0,05
784,053	-0,05
784,487	-0,07
784,921	-0,07
785,355	-0,08
785,789	-0,09
786,223	-0,1
786,656	-0,12
787,09	-0,12
787,524	-0,13
787,957	-0,14
788,391	-0,16
788,825	-0,18
789,258	-0,19
789,692	-0,2
790,125	-0,22
790,559	-0,23
790,992	-0,25
791,426	-0,27
791,859	-0,29
792,293	-0,33
792,726	-0,34
793,159	-0,36
793,593	-0,37
794,026	-0,4
794,459	-0,43
794,892	-0,46
795,326	-0,48
795,759	-0,52
796,192	-0,56
796,625	-0,61
797,058	-0,63
797,491	-0,68
797,924	-0,72
798,357	-0,77
798,79	-0,81
799,223	-0,85
799,656	-0,9
800,089	-0,95
800,522	-0,99
800,955	-1,04
801,387	-1,09
801,82	-1,15
802,253	-1,21
802,686	-1,29
803,118	-1,35
803,551	-1,4
803,984	-1,45
804,416	-1,49
804,849	-1,55
805,281	-1,7
805,714	-2,04
806,146	-2,47
806,579	-2,72
807,011	-2,88
807,444	-2,97
807,876	-3,05
808,308	-3,08
808,741	-3,11
809,173	-3,17
809,605	-3,18
810,037	-3,26
810,47	-3,17
810,902	-2,97
811,334	-2,82
811,766	-2,66
812,198	-2,4
812,63	-1,98
813,062	-1,78
813,494	-1,68
813,926	-1,6
814,358	-1,54
814,79	-1,46
815,222	-1,41
815,654	-1,36
816,086	-1,29
816,518	-1,24
816,949	-1,19
817,381	-1,14
817,813	-1,13
818,245	-1,09
818,676	-1,05
819,108	-1,02
819,54	-1
819,971	-0,98
820,403	-0,93
820,834	-0,92
821,266	-0,88
821,697	-0,85
822,129	-0,84
822,56	-0,81
822,991	-0,8
823,423	-0,77
823,854	-0,75
824,286	-0,73
824,717	-0,72
825,148	-0,7
825,579	-0,69
826,01	-0,68
826,442	-0,67
826,873	-0,65
827,304	-0,62
827,735	-0,61
828,166	-0,61
828,597	-0,61
829,028	-0,6
829,459	-0,61
829,89	-0,61
830,321	-0,57
830,752	-0,58
831,183	-0,57
831,613	-0,57
832,044	-0,57
832,475	-0,56
832,906	-0,57
833,336	-0,57
833,767	-0,58
834,198	-0,57
834,628	-0,54
835,059	-0,57
835,49	-0,58
835,92	-0,56
836,351	-0,56
836,781	-0,55
837,212	-0,57
837,642	-0,57
838,072	-0,56
838,503	-0,56
838,933	-0,55
839,364	-0,55
839,794	-0,53
840,224	-0,52
840,654	-0,56
841,085	-0,56
841,515	-0,53
841,945	-0,53
842,375	-0,48
842,805	-0,47
843,235	-0,46
843,665	-0,46
844,095	-0,45
844,525	-0,48
844,955	-0,49
845,385	-0,47
845,815	-0,45
846,245	-0,47
846,675	-0,47
847,105	-0,49
847,534	-0,49
847,964	-0,48
848,394	-0,48
848,824	-0,52
849,253	-0,5
849,683	-0,5
850,112	-0,51
850,542	-0,54
850,972	-0,55
851,401	-0,54
851,831	-0,52
852,26	-0,53
852,69	-0,56
853,119	-0,54
853,548	-0,54
853,978	-0,55
854,407	-0,53
854,836	-0,53
855,266	-0,53
855,695	-0,54
856,124	-0,55
856,553	-0,56
856,983	-0,58
857,412	-0,58
857,841	-0,6
858,27	-0,6
858,699	-0,6
859,128	-0,63
859,557	-0,64
859,986	-0,65
860,415	-0,63
860,844	-0,6
861,273	-0,6
861,702	-0,61
862,13	-0,59
862,559	-0,61
862,988	-0,58
863,417	-0,56
863,845	-0,56
864,274	-0,56
864,703	-0,56
865,131	-0,56
865,56	-0,57
865,989	-0,6
866,417	-0,58
866,846	-0,58
867,274	-0,57
867,703	-0,59
868,131	-0,61
868,559	-0,61
868,988	-0,63
869,416	-0,61
869,844	-0,63
870,273	-0,66
870,701	-0,64
871,129	-0,67
871,557	-0,69
871,986	-0,7
872,414	-0,71
872,842	-0,67
873,27	-0,66
873,698	-0,63
874,126	-0,67
874,554	-0,66
874,982	-0,65
875,41	-0,67
875,838	-0,62
876,266	-0,59
876,694	-0,59
877,122	-0,57
877,549	-0,63
877,977	-0,6
878,405	-0,63
878,833	-0,58
879,26	-0,57
879,688	-0,57
880,116	-0,56
880,543	-0,54
880,971	-0,54
881,399	-0,56
881,826	-0,57
882,254	-0,55
882,681	-0,59
883,109	-0,55
883,536	-0,57
883,963	-0,59
884,391	-0,58
884,818	-0,56
885,245	-0,6
885,673	-0,63
886,1	-0,6
886,527	-0,6
886,954	-0,57
887,381	-0,58
887,809	-0,59
888,236	-0,61
888,663	-0,61
889,09	-0,64
889,517	-0,66
889,944	-0,65
890,371	-0,63
890,798	-0,63
891,225	-0,64
891,652	-0,67
892,078	-0,64
892,505	-0,68
892,932	-0,63
893,359	-0,64
893,786	-0,64
894,212	-0,61
894,639	-0,62
895,066	-0,65
895,492	-0,59
895,919	-0,58
896,346	-0,58
896,772	-0,58
897,199	-0,55
897,625	-0,58
898,052	-0,55
898,478	-0,53
898,904	-0,54
899,331	-0,54
899,757	-0,55
900,183	-0,57
900,61	-0,56
901,036	-0,56
901,462	-0,56
901,888	-0,56
902,315	-0,54
902,741	-0,59
903,167	-0,58
903,593	-0,6
904,019	-0,58
904,445	-0,56
904,871	-0,59
905,297	-0,61
905,723	-0,61
906,149	-0,6
906,575	-0,6
907,001	-0,61
907,427	-0,58
907,852	-0,57
908,278	-0,58
908,704	-0,55
909,13	-0,55
909,555	-0,54
909,981	-0,53
910,407	-0,53
910,832	-0,52
911,258	-0,53
911,684	-0,53
912,109	-0,53
912,535	-0,55
912,96	-0,5
913,386	-0,54
913,811	-0,53
914,236	-0,55
914,662	-0,53
915,087	-0,56
915,512	-0,56
915,938	-0,58
916,363	-0,57
916,788	-0,59
917,213	-0,57
917,639	-0,62
918,064	-0,6
918,489	-0,61
918,914	-0,61
919,339	-0,63
919,764	-0,61
920,189	-0,61
920,614	-0,62
921,039	-0,63
921,464	-0,58
921,889	-0,61
922,314	-0,62
922,738	-0,65
923,163	-0,67
923,588	-0,67
924,013	-0,65
924,437	-0,65
924,862	-0,66
925,287	-0,62
925,711	-0,63
926,136	-0,65
926,561	-0,63
926,985	-0,62
927,41	-0,59
927,834	-0,55
928,259	-0,53
928,683	-0,52
929,108	-0,49
929,532	-0,5
929,956	-0,5
930,381	-0,49
930,805	-0,49
931,229	-0,49
931,653	-0,47
932,078	-0,47
932,502	-0,48
932,926	-0,49
933,35	-0,49
933,774	-0,48
934,198	-0,46
934,622	-0,45
935,046	-0,46
935,47	-0,46
935,894	-0,46
936,318	-0,44
936,742	-0,45
937,166	-0,45
937,59	-0,45
938,014	-0,47
938,437	-0,48
938,861	-0,5
939,285	-0,51
939,709	-0,5
940,132	-0,5
940,556	-0,5
940,98	-0,51
941,403	-0,49
941,827	-0,49
942,25	-0,51
942,674	-0,49
943,097	-0,48
943,521	-0,48
943,944	-0,49
944,368	-0,48
944,791	-0,46
945,214	-0,48
945,638	-0,49
946,061	-0,53
946,484	-0,54
946,907	-0,51
947,331	-0,52
947,754	-0,56
948,177	-0,53
948,6	-0,52
949,023	-0,52
949,446	-0,53
949,869	-0,51
950,292	-0,5
950,715	-0,47
951,138	-0,45
951,561	-0,43
951,984	-0,43
952,407	-0,42
952,83	-0,4
953,252	-0,37
953,675	-0,36
954,098	-0,38
954,521	-0,36
954,943	-0,36
955,366	-0,37
955,789	-0,36
956,211	-0,37
956,634	-0,38
957,056	-0,35
957,479	-0,37
957,902	-0,39
958,324	-0,4
958,746	-0,38
959,169	-0,39
959,591	-0,39
960,014	-0,4
960,436	-0,39
960,858	-0,39
961,281	-0,38
961,703	-0,4
962,125	-0,39
962,547	-0,37
962,969	-0,37
963,391	-0,38
963,814	-0,39
964,236	-0,38
964,658	-0,35
965,08	-0,36
965,502	-0,35
965,924	-0,33
966,346	-0,33
966,768	-0,32
967,189	-0,34
967,611	-0,34
968,033	-0,33
968,455	-0,3
968,877	-0,32
969,298	-0,33
969,72	-0,34
970,142	-0,33
970,563	-0,33
970,985	-0,32
971,407	-0,31
971,828	-0,28
972,25	-0,28
972,671	-0,27
973,093	-0,27
973,514	-0,25
973,936	-0,23
974,357	-0,22
974,778	-0,22
975,2	-0,21
975,621	-0,21
976,042	-0,19
976,464	-0,19
976,885	-0,17
977,306	-0,17
977,727	-0,16
978,148	-0,15
978,57	-0,13
978,991	-0,12
979,412	-0,1
979,833	-0,09
980,254	-0,09
980,675	-0,08
981,096	-0,07
981,517	-0,05
981,937	-0,05
982,358	-0,04
982,779	-0,03
983,2	-0,03
983,621	-0,01
984,042	0
984,462	0,02
984,883	0,03
985,304	0,04
985,724	0,05
986,145	0,07
986,565	0,09
986,986	0,1
987,407	0,11
987,827	0,12
988,248	0,14
988,668	0,15
989,088	0,15
989,509	0,16
989,929	0,17
990,35	0,19
990,77	0,2
991,19	0,21
991,61	0,23
992,031	0,24
992,451	0,25
992,871	0,26
993,291	0,27
993,711	0,28
994,131	0,29
994,551	0,3
994,971	0,31
995,391	0,31
995,811	0,32
996,231	0,32
996,651	0,33
997,071	0,34
997,491	0,35
997,911	0,36
998,331	0,36
998,75	0,37
999,17	0,37
999,59	0,38
1000,009	0,39
1000,429	0,39
1000,849	0,4
1001,268	0,41
1001,688	0,41
1002,107	0,41
1002,527	0,42
1002,946	0,42
1003,366	0,42
1003,785	0,43
1004,205	0,43
1004,624	0,43
1005,044	0,44
1005,463	0,44
1005,882	0,44
1006,301	0,44
1006,721	0,45
1007,14	0,45
1007,559	0,45
1007,978	0,45
1008,397	0,45
1008,816	0,45
1009,235	0,45
1009,655	0,45
1010,074	0,45
1010,492	0,45
1010,911	0,45
1011,33	0,45
1011,749	0,45
1012,168	0,45
1012,587	0,45
1013,006	0,45
1013,425	0,45
1013,843	0,45
1014,262	0,45
1014,681	0,45
1015,099	0,45
1015,518	0,44
1015,937	0,44
1016,355	0,44
1016,774	0,44
1017,192	0,44
1017,611	0,44
1018,029	0,44
1018,448	0,44
1018,866	0,44
1019,285	0,44
1019,703	0,44
1020,121	0,44
1020,54	0,44
1020,958	0,44
1021,376	0,44
1021,794	0,44
1022,213	0,44
1022,631	0,44
1023,049	0,44
1023,467	0,44
1023,885	0,44
1024,303	0,43
1024,721	0,43
1025,139	0,43
1025,557	0,43
1025,975	0,43
1026,393	0,43
1026,811	0,43
1027,229	0,43
1027,647	0,43
1028,065	0,43
1028,482	0,43
1028,9	0,43
1029,318	0,43
1029,735	0,42
1030,153	0,42
1030,571	0,43
1030,988	0,43
1031,406	0,43
1031,823	0,43
1032,241	0,42
1032,659	0,43
1033,076	0,43
1033,493	0,43
1033,911	0,43
1034,328	0,43
1034,746	0,43
1035,163	0,43
1035,58	0,43
1035,997	0,43
1036,415	0,43
1036,832	0,43
1037,249	0,43
1037,666	0,43
1038,083	0,43
1038,501	0,43
1038,918	0,43
1039,335	0,43
1039,752	0,43
1040,169	0,43
1040,586	0,43
1041,003	0,43
1041,419	0,43
1041,836	0,43
1042,253	0,43
1042,67	0,43
1043,087	0,43
1043,504	0,43
1043,92	0,43
1044,337	0,43
1044,754	0,43
1045,17	0,43
1045,587	0,43
1046,004	0,43
1046,42	0,42
1046,837	0,43
1047,253	0,43
1047,67	0,43
1048,086	0,43
1048,503	0,42
1048,919	0,43
1049,335	0,43
1049,752	0,43
1050,168	0,43
1050,584	0,42
1051,001	0,43
1051,417	0,43
1051,833	0,43
1052,249	0,43
1052,665	0,43
1053,081	0,43
1053,497	0,43
1053,914	0,43
1054,33	0,43
1054,746	0,43
1055,162	0,44
1055,578	0,44
1055,993	0,44
1056,409	0,44
1056,825	0,44
1057,241	0,44
1057,657	0,44
1058,073	0,44
1058,488	0,44
1058,904	0,44
1059,32	0,44
1059,736	0,44
1060,151	0,44
1060,567	0,44
1060,982	0,44
1061,398	0,44
1061,813	0,44
1062,229	0,44
1062,644	0,44
1063,06	0,43
1063,475	0,43
1063,891	0,43
1064,306	0,43
1064,721	0,43
1065,137	0,43
1065,552	0,43
1065,967	0,43
1066,382	0,43
1066,798	0,43
1067,213	0,43
1067,628	0,43
1068,043	0,43
1068,458	0,43
1068,873	0,43
1069,288	0,43
1069,703	0,43
1070,118	0,43
1070,533	0,43
1070,948	0,43
1071,363	0,43
1071,778	0,43
1072,193	0,43
1072,607	0,43
1073,022	0,43
1073,437	0,43
1073,852	0,43
1074,266	0,43
1074,681	0,43
1075,096	0,43
1075,51	0,43
1075,925	0,43
1076,339	0,43
1076,754	0,43
1077,168	0,43
1077,583	0,43
1077,997	0,43
1078,412	0,43
1078,826	0,43
1079,24	0,43
1079,655	0,43
1080,069	0,43
1080,483	0,42
1080,897	0,42
1081,312	0,42
1081,726	0,42
1082,14	0,42
1082,554	0,42
1082,968	0,42
1083,382	0,42
1083,796	0,42
1084,21	0,42
1084,624	0,42
1085,038	0,42
1085,452	0,42
1085,866	0,42
1086,28	0,41
1086,694	0,41
1087,108	0,41
1087,521	0,41
1087,935	0,4
1088,349	0,4
1088,763	0,4
1089,176	0,4
1089,59	0,39
1090,004	0,39
1090,417	0,39
1090,831	0,38
1091,244	0,38
1091,658	0,38
1092,071	0,37
1092,485	0,37
1092,898	0,37
1093,312	0,37
1093,725	0,37
1094,138	0,36
1094,552	0,36
1094,965	0,36
1095,378	0,36
1095,791	0,35
1096,205	0,35
1096,618	0,35
1097,031	0,35
1097,444	0,34
1097,857	0,34
1098,27	0,33
1098,683	0,33
1099,096	0,33
1099,509	0,32
1099,922	0,31
1100,335	0,31
1100,748	0,3
1101,161	0,3
1101,574	0,3
1101,986	0,29
1102,399	0,29
1102,812	0,28
1103,225	0,28
1103,637	0,28
1104,05	0,27
1104,463	0,27
1104,875	0,27
1105,288	0,26
1105,7	0,26
1106,113	0,25
1106,525	0,25
1106,938	0,24
1107,35	0,24
1107,763	0,23
1108,175	0,23
1108,588	0,23
1109	0,22
1109,412	0,21
1109,824	0,22
1110,237	0,22
1110,649	0,21
1111,061	0,2
