Data from 18C-808nm-8A-cont_Absorbance__195__01624.txt Node

Date: Mon Jul 17 17:24:43 CEST 2023
User: Laser008
Spectrometer: MAYP115816
Trigger mode: 0
Integration Time (sec): 2,500000E-1
Scans to average: 10
Electric dark correction enabled: true
Nonlinearity correction enabled: true
Boxcar width: 5
XAxis mode: Wavelengths
Number of Pixels in Spectrum: 2068
>>>>>Begin Spectral Data<<<<<
198,914	-0,77
199,384	-0,53
199,855	-0,38
200,325	-0,3
200,796	-0,26
201,266	-0,22
201,737	-0,19
202,207	-0,18
202,677	-0,17
203,147	-0,15
203,618	-0,12
204,088	-0,1
204,558	-0,08
205,028	-0,08
205,498	-0,09
205,968	-0,09
206,439	-0,1
206,909	-0,1
207,379	-0,11
207,849	-0,11
208,319	-0,12
208,789	-0,11
209,258	-0,11
209,728	-0,12
210,198	-0,12
210,668	-0,12
211,138	-0,12
211,608	-0,11
212,077	-0,11
212,547	-0,11
213,017	-0,11
213,486	-0,12
213,956	-0,13
214,426	-0,14
214,895	-0,14
215,365	-0,15
215,834	-0,16
216,304	-0,16
216,773	-0,16
217,243	-0,17
217,712	-0,18
218,181	-0,18
218,651	-0,18
219,12	-0,18
219,589	-0,17
220,058	-0,15
220,528	-0,16
220,997	-0,16
221,466	-0,17
221,935	-0,18
222,404	-0,17
222,873	-0,16
223,342	-0,16
223,812	-0,16
224,281	-0,16
224,749	-0,18
225,218	-0,2
225,687	-0,2
226,156	-0,18
226,625	-0,17
227,094	-0,17
227,563	-0,17
228,031	-0,19
228,5	-0,19
228,969	-0,2
229,438	-0,19
229,906	-0,18
230,375	-0,17
230,844	-0,17
231,312	-0,17
231,781	-0,18
232,249	-0,17
232,718	-0,18
233,186	-0,16
233,655	-0,16
234,123	-0,16
234,591	-0,16
235,06	-0,16
235,528	-0,16
235,996	-0,15
236,465	-0,15
236,933	-0,15
237,401	-0,14
237,869	-0,13
238,337	-0,13
238,805	-0,12
239,274	-0,11
239,742	-0,11
240,21	-0,11
240,678	-0,1
241,146	-0,1
241,614	-0,1
242,081	-0,09
242,549	-0,1
243,017	-0,1
243,485	-0,1
243,953	-0,1
244,421	-0,1
244,888	-0,1
245,356	-0,1
245,824	-0,1
246,291	-0,11
246,759	-0,11
247,227	-0,12
247,694	-0,1
248,162	-0,1
248,629	-0,09
249,097	-0,1
249,564	-0,11
250,032	-0,13
250,499	-0,12
250,967	-0,12
251,434	-0,12
251,901	-0,12
252,369	-0,12
252,836	-0,13
253,303	-0,15
253,77	-0,16
254,237	-0,15
254,705	-0,15
255,172	-0,14
255,639	-0,14
256,106	-0,15
256,573	-0,15
257,04	-0,16
257,507	-0,16
257,974	-0,16
258,441	-0,14
258,908	-0,14
259,375	-0,16
259,841	-0,16
260,308	-0,16
260,775	-0,16
261,242	-0,15
261,709	-0,16
262,175	-0,17
262,642	-0,16
263,109	-0,16
263,575	-0,18
264,042	-0,17
264,508	-0,16
264,975	-0,19
265,441	-0,2
265,908	-0,2
266,374	-0,2
266,841	-0,2
267,307	-0,2
267,773	-0,2
268,24	-0,2
268,706	-0,21
269,172	-0,22
269,639	-0,23
270,105	-0,2
270,571	-0,2
271,037	-0,21
271,503	-0,21
271,969	-0,2
272,435	-0,2
272,902	-0,23
273,368	-0,23
273,834	-0,23
274,3	-0,23
274,765	-0,22
275,231	-0,23
275,697	-0,21
276,163	-0,21
276,629	-0,21
277,095	-0,22
277,56	-0,21
278,026	-0,22
278,492	-0,21
278,958	-0,21
279,423	-0,21
279,889	-0,21
280,354	-0,21
280,82	-0,22
281,286	-0,23
281,751	-0,23
282,217	-0,23
282,682	-0,22
283,147	-0,22
283,613	-0,22
284,078	-0,22
284,544	-0,23
285,009	-0,24
285,474	-0,23
285,939	-0,25
286,405	-0,24
286,87	-0,23
287,335	-0,23
287,8	-0,22
288,265	-0,2
288,73	-0,22
289,195	-0,24
289,66	-0,23
290,125	-0,22
290,59	-0,23
291,055	-0,22
291,52	-0,22
291,985	-0,22
292,45	-0,23
292,915	-0,23
293,38	-0,23
293,844	-0,21
294,309	-0,19
294,774	-0,18
295,239	-0,19
295,703	-0,2
296,168	-0,19
296,632	-0,18
297,097	-0,16
297,562	-0,16
298,026	-0,16
298,491	-0,17
298,955	-0,17
299,419	-0,16
299,884	-0,16
300,348	-0,15
300,813	-0,14
301,277	-0,15
301,741	-0,14
302,205	-0,14
302,67	-0,14
303,134	-0,13
303,598	-0,13
304,062	-0,12
304,526	-0,12
304,99	-0,14
305,454	-0,13
305,919	-0,12
306,383	-0,12
306,847	-0,12
307,31	-0,13
307,774	-0,14
308,238	-0,14
308,702	-0,14
309,166	-0,16
309,63	-0,16
310,094	-0,14
310,557	-0,14
311,021	-0,14
311,485	-0,14
311,948	-0,14
312,412	-0,12
312,876	-0,11
313,339	-0,11
313,803	-0,12
314,266	-0,1
314,73	-0,1
315,193	-0,1
315,657	-0,09
316,12	-0,09
316,584	-0,09
317,047	-0,09
317,51	-0,08
317,973	-0,08
318,437	-0,07
318,9	-0,06
319,363	-0,05
319,826	-0,05
320,29	-0,06
320,753	-0,06
321,216	-0,06
321,679	-0,06
322,142	-0,06
322,605	-0,08
323,068	-0,07
323,531	-0,08
323,994	-0,07
324,457	-0,07
324,92	-0,06
325,382	-0,06
325,845	-0,06
326,308	-0,05
326,771	-0,04
327,233	-0,03
327,696	-0,03
328,159	-0,03
328,622	-0,01
329,084	-0,01
329,547	-0
330,009	0
330,472	0,02
330,934	0,03
331,397	0,04
331,859	0,04
332,322	0,04
332,784	0,04
333,246	0,05
333,709	0,04
334,171	0,05
334,633	0,05
335,096	0,04
335,558	0,04
336,02	0,04
336,482	0,04
336,944	0,06
337,406	0,05
337,868	0,07
338,331	0,08
338,793	0,08
339,255	0,09
339,717	0,1
340,178	0,11
340,64	0,12
341,102	0,13
341,564	0,14
342,026	0,15
342,488	0,16
342,949	0,17
343,411	0,19
343,873	0,21
344,335	0,24
344,796	0,27
345,258	0,31
345,719	0,35
346,181	0,4
346,643	0,43
347,104	0,46
347,566	0,5
348,027	0,52
348,488	0,54
348,95	0,56
349,411	0,59
349,873	0,61
350,334	0,62
350,795	0,64
351,256	0,65
351,718	0,65
352,179	0,66
352,64	0,66
353,101	0,66
353,562	0,67
354,023	0,67
354,484	0,67
354,945	0,67
355,406	0,67
355,867	0,68
356,328	0,68
356,789	0,68
357,25	0,68
357,711	0,68
358,172	0,69
358,633	0,69
359,093	0,69
359,554	0,69
360,015	0,69
360,476	0,69
360,936	0,69
361,397	0,69
361,858	0,69
362,318	0,69
362,779	0,7
363,239	0,7
363,7	0,7
364,16	0,7
364,621	0,7
365,081	0,7
365,541	0,7
366,002	0,7
366,462	0,7
366,922	0,7
367,383	0,7
367,843	0,7
368,303	0,7
368,763	0,7
369,223	0,7
369,684	0,7
370,144	0,7
370,604	0,7
371,064	0,7
371,524	0,7
371,984	0,7
372,444	0,7
372,904	0,7
373,363	0,7
373,823	0,7
374,283	0,69
374,743	0,69
375,203	0,69
375,663	0,69
376,122	0,69
376,582	0,69
377,042	0,69
377,501	0,69
377,961	0,69
378,42	0,69
378,88	0,69
379,34	0,69
379,799	0,69
380,259	0,69
380,718	0,69
381,177	0,69
381,637	0,69
382,096	0,69
382,555	0,69
383,015	0,69
383,474	0,69
383,933	0,69
384,393	0,69
384,852	0,69
385,311	0,69
385,77	0,69
386,229	0,69
386,688	0,69
387,147	0,69
387,606	0,69
388,065	0,69
388,524	0,69
388,983	0,68
389,442	0,68
389,901	0,68
390,36	0,68
390,819	0,68
391,277	0,68
391,736	0,68
392,195	0,68
392,654	0,68
393,112	0,68
393,571	0,68
394,03	0,68
394,488	0,68
394,947	0,68
395,405	0,68
395,864	0,68
396,322	0,68
396,781	0,68
397,239	0,68
397,698	0,68
398,156	0,68
398,614	0,68
399,073	0,68
399,531	0,68
399,989	0,68
400,447	0,68
400,905	0,68
401,364	0,68
401,822	0,68
402,28	0,68
402,738	0,68
403,196	0,68
403,654	0,68
404,112	0,68
404,57	0,68
405,028	0,67
405,486	0,67
405,944	0,67
406,402	0,67
406,859	0,67
407,317	0,67
407,775	0,67
408,233	0,67
408,691	0,67
409,148	0,67
409,606	0,67
410,064	0,67
410,521	0,67
410,979	0,67
411,436	0,67
411,894	0,67
412,351	0,67
412,809	0,67
413,266	0,67
413,724	0,67
414,181	0,67
414,638	0,67
415,096	0,67
415,553	0,67
416,01	0,67
416,467	0,67
416,925	0,67
417,382	0,67
417,839	0,67
418,296	0,67
418,753	0,67
419,21	0,67
419,667	0,67
420,124	0,67
420,581	0,67
421,038	0,67
421,495	0,67
421,952	0,67
422,409	0,67
422,866	0,67
423,322	0,67
423,779	0,67
424,236	0,67
424,693	0,67
425,149	0,67
425,606	0,67
426,063	0,67
426,519	0,67
426,976	0,67
427,433	0,67
427,889	0,67
428,346	0,67
428,802	0,67
429,258	0,67
429,715	0,67
430,171	0,67
430,628	0,67
431,084	0,67
431,54	0,67
431,997	0,67
432,453	0,67
432,909	0,67
433,365	0,66
433,821	0,66
434,277	0,66
434,734	0,66
435,19	0,66
435,646	0,66
436,102	0,66
436,558	0,66
437,014	0,66
437,47	0,66
437,925	0,66
438,381	0,66
438,837	0,67
439,293	0,67
439,749	0,67
440,205	0,67
440,66	0,67
441,116	0,67
441,572	0,67
442,027	0,67
442,483	0,67
442,939	0,67
443,394	0,67
443,85	0,67
444,305	0,67
444,761	0,67
445,216	0,67
445,672	0,67
446,127	0,67
446,582	0,67
447,038	0,67
447,493	0,67
447,948	0,67
448,403	0,67
448,859	0,67
449,314	0,67
449,769	0,67
450,224	0,67
450,679	0,67
451,134	0,67
451,589	0,67
452,044	0,67
452,499	0,67
452,954	0,67
453,409	0,67
453,864	0,67
454,319	0,67
454,774	0,67
455,229	0,67
455,684	0,67
456,138	0,67
456,593	0,67
457,048	0,67
457,503	0,67
457,957	0,67
458,412	0,67
458,866	0,67
459,321	0,67
459,776	0,67
460,23	0,67
460,685	0,67
461,139	0,68
461,593	0,68
462,048	0,68
462,502	0,68
462,957	0,68
463,411	0,68
463,865	0,68
464,319	0,68
464,774	0,68
465,228	0,68
465,682	0,68
466,136	0,68
466,59	0,68
467,044	0,69
467,499	0,69
467,953	0,69
468,407	0,69
468,861	0,69
469,315	0,69
469,768	0,69
470,222	0,69
470,676	0,69
471,13	0,69
471,584	0,69
472,038	0,69
472,491	0,69
472,945	0,69
473,399	0,69
473,852	0,69
474,306	0,7
474,76	0,7
475,213	0,7
475,667	0,7
476,12	0,7
476,574	0,7
477,027	0,7
477,481	0,7
477,934	0,71
478,388	0,71
478,841	0,71
479,294	0,71
479,748	0,71
480,201	0,71
480,654	0,71
481,107	0,72
481,561	0,72
482,014	0,72
482,467	0,72
482,92	0,72
483,373	0,72
483,826	0,72
484,279	0,73
484,732	0,73
485,185	0,73
485,638	0,73
486,091	0,73
486,544	0,73
486,997	0,74
487,449	0,74
487,902	0,74
488,355	0,74
488,808	0,75
489,26	0,75
489,713	0,75
490,166	0,75
490,618	0,75
491,071	0,76
491,523	0,76
491,976	0,76
492,429	0,76
492,881	0,77
493,333	0,77
493,786	0,77
494,238	0,77
494,691	0,78
495,143	0,78
495,595	0,78
496,048	0,79
496,5	0,79
496,952	0,79
497,404	0,8
497,856	0,8
498,309	0,8
498,761	0,8
499,213	0,81
499,665	0,81
500,117	0,81
500,569	0,82
501,021	0,82
501,473	0,83
501,925	0,83
502,377	0,83
502,828	0,84
503,28	0,84
503,732	0,84
504,184	0,85
504,636	0,85
505,087	0,85
505,539	0,86
505,991	0,86
506,442	0,86
506,894	0,87
507,345	0,87
507,797	0,87
508,249	0,88
508,7	0,88
509,151	0,88
509,603	0,89
510,054	0,89
510,506	0,89
510,957	0,9
511,408	0,9
511,86	0,9
512,311	0,91
512,762	0,91
513,213	0,91
513,665	0,91
514,116	0,92
514,567	0,92
515,018	0,92
515,469	0,93
515,92	0,93
516,371	0,93
516,822	0,93
517,273	0,94
517,724	0,94
518,175	0,94
518,626	0,94
519,076	0,95
519,527	0,95
519,978	0,95
520,429	0,95
520,88	0,95
521,33	0,96
521,781	0,96
522,232	0,96
522,682	0,96
523,133	0,96
523,583	0,97
524,034	0,97
524,484	0,97
524,935	0,97
525,385	0,97
525,836	0,97
526,286	0,97
526,736	0,97
527,187	0,97
527,637	0,97
528,087	0,97
528,538	0,97
528,988	0,97
529,438	0,97
529,888	0,97
530,338	0,96
530,788	0,96
531,238	0,96
531,688	0,96
532,139	0,96
532,589	0,96
533,038	0,96
533,488	0,96
533,938	0,95
534,388	0,95
534,838	0,95
535,288	0,95
535,738	0,94
536,187	0,94
536,637	0,94
537,087	0,94
537,537	0,93
537,986	0,93
538,436	0,93
538,885	0,92
539,335	0,92
539,785	0,91
540,234	0,91
540,684	0,91
541,133	0,9
541,582	0,9
542,032	0,89
542,481	0,89
542,931	0,89
543,38	0,88
543,829	0,88
544,278	0,87
544,728	0,87
545,177	0,87
545,626	0,86
546,075	0,86
546,524	0,86
546,973	0,85
547,422	0,85
547,871	0,85
548,32	0,84
548,769	0,84
549,218	0,84
549,667	0,84
550,116	0,83
550,565	0,83
551,014	0,83
551,463	0,82
551,911	0,82
552,36	0,81
552,809	0,81
553,258	0,81
553,706	0,8
554,155	0,8
554,603	0,8
555,052	0,79
555,501	0,79
555,949	0,78
556,398	0,78
556,846	0,78
557,294	0,77
557,743	0,77
558,191	0,77
558,64	0,76
559,088	0,76
559,536	0,75
559,985	0,75
560,433	0,74
560,881	0,74
561,329	0,74
561,777	0,73
562,225	0,73
562,674	0,73
563,122	0,72
563,57	0,72
564,018	0,72
564,466	0,71
564,914	0,71
565,362	0,71
565,809	0,7
566,257	0,7
566,705	0,7
567,153	0,69
567,601	0,69
568,048	0,69
568,496	0,69
568,944	0,68
569,392	0,68
569,839	0,68
570,287	0,67
570,734	0,67
571,182	0,67
571,63	0,66
572,077	0,66
572,525	0,66
572,972	0,66
573,419	0,65
573,867	0,65
574,314	0,65
574,761	0,64
575,209	0,64
575,656	0,64
576,103	0,63
576,551	0,63
576,998	0,63
577,445	0,63
577,892	0,62
578,339	0,62
578,786	0,62
579,233	0,62
579,68	0,61
580,127	0,61
580,574	0,61
581,021	0,61
581,468	0,61
581,915	0,6
582,362	0,6
582,809	0,6
583,255	0,6
583,702	0,6
584,149	0,59
584,596	0,59
585,042	0,59
585,489	0,59
585,936	0,58
586,382	0,58
586,829	0,58
587,275	0,58
587,722	0,58
588,168	0,58
588,615	0,57
589,061	0,57
589,508	0,57
589,954	0,57
590,4	0,57
590,847	0,57
591,293	0,56
591,739	0,56
592,185	0,56
592,632	0,56
593,078	0,56
593,524	0,56
593,97	0,56
594,416	0,56
594,862	0,56
595,308	0,55
595,754	0,55
596,2	0,55
596,646	0,55
597,092	0,55
597,538	0,55
597,984	0,55
598,43	0,55
598,876	0,55
599,321	0,54
599,767	0,54
600,213	0,54
600,659	0,54
601,104	0,54
601,55	0,54
601,995	0,54
602,441	0,54
602,887	0,53
603,332	0,53
603,778	0,53
604,223	0,53
604,668	0,53
605,114	0,53
605,559	0,53
606,005	0,53
606,45	0,53
606,895	0,53
607,341	0,52
607,786	0,52
608,231	0,52
608,676	0,52
609,121	0,51
609,566	0,51
610,012	0,5
610,457	0,5
610,902	0,5
611,347	0,49
611,792	0,49
612,237	0,49
612,682	0,49
613,127	0,49
613,571	0,49
614,016	0,49
614,461	0,5
614,906	0,5
615,351	0,5
615,795	0,5
616,24	0,5
616,685	0,5
617,129	0,5
617,574	0,5
618,019	0,5
618,463	0,5
618,908	0,5
619,352	0,5
619,797	0,5
620,241	0,5
620,686	0,5
621,13	0,5
621,574	0,5
622,019	0,49
622,463	0,49
622,907	0,49
623,352	0,49
623,796	0,49
624,24	0,49
624,684	0,49
625,128	0,49
625,572	0,49
626,016	0,49
626,461	0,49
626,905	0,49
627,349	0,49
627,793	0,49
628,236	0,49
628,68	0,49
629,124	0,49
629,568	0,49
630,012	0,49
630,456	0,49
630,9	0,49
631,343	0,49
631,787	0,49
632,231	0,49
632,674	0,49
633,118	0,49
633,562	0,49
634,005	0,49
634,449	0,49
634,892	0,49
635,336	0,49
635,779	0,48
636,223	0,48
636,666	0,48
637,109	0,48
637,553	0,48
637,996	0,48
638,439	0,48
638,883	0,48
639,326	0,48
639,769	0,48
640,212	0,48
640,655	0,48
641,099	0,48
641,542	0,48
641,985	0,48
642,428	0,48
642,871	0,48
643,314	0,47
643,757	0,47
644,2	0,47
644,643	0,47
645,085	0,47
645,528	0,47
645,971	0,47
646,414	0,47
646,857	0,47
647,299	0,47
647,742	0,47
648,185	0,47
648,627	0,47
649,07	0,47
649,513	0,47
649,955	0,47
650,398	0,47
650,84	0,47
651,283	0,47
651,725	0,47
652,168	0,47
652,61	0,47
653,052	0,47
653,495	0,47
653,937	0,39
654,379	0,33
654,821	0,33
655,264	0,34
655,706	0,34
656,148	0,34
656,59	0,34
657,032	0,34
657,474	0,34
657,916	0,34
658,358	0,33
658,8	0,39
659,242	0,47
659,684	0,47
660,126	0,47
660,568	0,47
661,01	0,47
661,452	0,47
661,894	0,47
662,335	0,46
662,777	0,46
663,219	0,46
663,661	0,46
664,102	0,46
664,544	0,46
664,985	0,46
665,427	0,46
665,869	0,46
666,31	0,46
666,752	0,46
667,193	0,46
667,634	0,46
668,076	0,46
668,517	0,46
668,959	0,46
669,4	0,46
669,841	0,46
670,282	0,46
670,724	0,47
671,165	0,47
671,606	0,47
672,047	0,46
672,488	0,46
672,929	0,46
673,37	0,46
673,811	0,46
674,252	0,46
674,693	0,46
675,134	0,46
675,575	0,46
676,016	0,45
676,457	0,45
676,898	0,45
677,339	0,45
677,78	0,45
678,22	0,45
678,661	0,45
679,102	0,45
679,542	0,45
679,983	0,45
680,424	0,45
680,864	0,45
681,305	0,45
681,745	0,45
682,186	0,45
682,626	0,45
683,067	0,45
683,507	0,45
683,948	0,45
684,388	0,45
684,828	0,45
685,269	0,45
685,709	0,45
686,149	0,45
686,589	0,45
687,029	0,45
687,47	0,45
687,91	0,45
688,35	0,45
688,79	0,45
689,23	0,45
689,67	0,45
690,11	0,45
690,55	0,45
690,99	0,45
691,43	0,45
691,87	0,44
692,31	0,44
692,749	0,44
693,189	0,44
693,629	0,44
694,069	0,44
694,508	0,44
694,948	0,44
695,388	0,44
695,827	0,44
696,267	0,44
696,706	0,44
697,146	0,44
697,586	0,44
698,025	0,44
698,464	0,44
698,904	0,44
699,343	0,44
699,783	0,44
700,222	0,45
700,661	0,45
701,101	0,45
701,54	0,45
701,979	0,45
702,418	0,45
702,857	0,45
703,297	0,45
703,736	0,45
704,175	0,45
704,614	0,45
705,053	0,45
705,492	0,44
705,931	0,44
706,37	0,44
706,809	0,44
707,248	0,44
707,687	0,44
708,125	0,44
708,564	0,44
709,003	0,44
709,442	0,44
709,88	0,44
710,319	0,44
710,758	0,44
711,196	0,44
711,635	0,44
712,074	0,43
712,512	0,43
712,951	0,43
713,389	0,43
713,828	0,43
714,266	0,43
714,705	0,43
715,143	0,43
715,581	0,43
716,02	0,43
716,458	0,43
716,896	0,43
717,334	0,43
717,773	0,43
718,211	0,43
718,649	0,43
719,087	0,43
719,525	0,43
719,963	0,43
720,401	0,43
720,839	0,43
721,277	0,43
721,715	0,43
722,153	0,43
722,591	0,43
723,029	0,43
723,467	0,43
723,905	0,43
724,342	0,43
724,78	0,43
725,218	0,43
725,656	0,43
726,093	0,43
726,531	0,43
726,969	0,43
727,406	0,43
727,844	0,43
728,281	0,43
728,719	0,43
729,156	0,43
729,594	0,43
730,031	0,43
730,469	0,43
730,906	0,43
731,343	0,43
731,781	0,43
732,218	0,43
732,655	0,43
733,092	0,43
733,53	0,42
733,967	0,42
734,404	0,42
734,841	0,42
735,278	0,42
735,715	0,42
736,152	0,42
736,589	0,42
737,026	0,42
737,463	0,42
737,9	0,42
738,337	0,42
738,774	0,42
739,211	0,42
739,647	0,42
740,084	0,42
740,521	0,42
740,958	0,42
741,394	0,42
741,831	0,42
742,268	0,42
742,704	0,42
743,141	0,42
743,577	0,42
744,014	0,41
744,45	0,41
744,887	0,41
745,323	0,41
745,76	0,41
746,196	0,41
746,632	0,41
747,069	0,41
747,505	0,41
747,941	0,41
748,378	0,41
748,814	0,41
749,25	0,41
749,686	0,41
750,122	0,41
750,558	0,41
750,994	0,41
751,43	0,41
751,866	0,42
752,302	0,42
752,738	0,42
753,174	0,42
753,61	0,42
754,046	0,42
754,482	0,42
754,918	0,42
755,354	0,42
755,789	0,42
756,225	0,41
756,661	0,41
757,096	0,41
757,532	0,41
757,968	0,41
758,403	0,41
758,839	0,4
759,274	0,4
759,71	0,4
760,145	0,39
760,581	0,39
761,016	0,38
761,452	0,38
761,887	0,37
762,322	0,37
762,758	0,36
763,193	0,36
763,628	0,35
764,063	0,34
764,499	0,34
764,934	0,33
765,369	0,33
765,804	0,32
766,239	0,31
766,674	0,31
767,109	0,3
767,544	0,29
767,979	0,29
768,414	0,28
768,849	0,27
769,284	0,26
769,719	0,25
770,154	0,24
770,588	0,24
771,023	0,22
771,458	0,21
771,893	0,2
772,327	0,19
772,762	0,18
773,197	0,17
773,631	0,16
774,066	0,15
774,5	0,14
774,935	0,13
775,369	0,12
775,804	0,11
776,238	0,1
776,673	0,09
777,107	0,08
777,541	0,07
777,976	0,06
778,41	0,05
778,844	0,05
779,279	0,04
779,713	0,03
780,147	0,02
780,581	0,01
781,015	0
781,449	-0,01
781,883	-0,02
782,317	-0,03
782,751	-0,04
783,185	-0,05
783,619	-0,06
784,053	-0,07
784,487	-0,08
784,921	-0,08
785,355	-0,09
785,789	-0,1
786,223	-0,11
786,656	-0,12
787,09	-0,12
787,524	-0,13
787,957	-0,14
788,391	-0,16
788,825	-0,18
789,258	-0,19
789,692	-0,21
790,125	-0,22
790,559	-0,24
790,992	-0,26
791,426	-0,29
791,859	-0,3
792,293	-0,33
792,726	-0,35
793,159	-0,37
793,593	-0,39
794,026	-0,41
794,459	-0,44
794,892	-0,46
795,326	-0,49
795,759	-0,53
796,192	-0,57
796,625	-0,62
797,058	-0,64
797,491	-0,68
797,924	-0,72
798,357	-0,77
798,79	-0,81
799,223	-0,86
799,656	-0,91
800,089	-0,96
800,522	-1
800,955	-1,04
801,387	-1,1
801,82	-1,15
802,253	-1,22
802,686	-1,3
803,118	-1,35
803,551	-1,4
803,984	-1,45
804,416	-1,49
804,849	-1,52
805,281	-1,62
805,714	-1,96
806,146	-2,44
806,579	-2,7
807,011	-2,87
807,444	-2,96
807,876	-3,05
808,308	-3,08
808,741	-3,11
809,173	-3,16
809,605	-3,18
810,037	-3,26
810,47	-3,18
810,902	-2,98
811,334	-2,83
811,766	-2,68
812,198	-2,44
812,63	-2,01
813,062	-1,8
813,494	-1,7
813,926	-1,62
814,358	-1,56
814,79	-1,48
815,222	-1,42
815,654	-1,37
816,086	-1,31
816,518	-1,25
816,949	-1,2
817,381	-1,16
817,813	-1,14
818,245	-1,1
818,676	-1,06
819,108	-1,02
819,54	-1,01
819,971	-0,99
820,403	-0,94
820,834	-0,92
821,266	-0,88
821,697	-0,86
822,129	-0,84
822,56	-0,82
822,991	-0,8
823,423	-0,77
823,854	-0,76
824,286	-0,73
824,717	-0,72
825,148	-0,7
825,579	-0,69
826,01	-0,68
826,442	-0,68
826,873	-0,66
827,304	-0,62
827,735	-0,61
828,166	-0,61
828,597	-0,62
829,028	-0,61
829,459	-0,62
829,89	-0,62
830,321	-0,57
830,752	-0,58
831,183	-0,56
831,613	-0,55
832,044	-0,56
832,475	-0,55
832,906	-0,56
833,336	-0,56
833,767	-0,57
834,198	-0,56
834,628	-0,54
835,059	-0,58
835,49	-0,59
835,92	-0,56
836,351	-0,57
836,781	-0,57
837,212	-0,59
837,642	-0,6
838,072	-0,58
838,503	-0,58
838,933	-0,55
839,364	-0,56
839,794	-0,53
840,224	-0,52
840,654	-0,56
841,085	-0,56
841,515	-0,54
841,945	-0,54
842,375	-0,49
842,805	-0,48
843,235	-0,47
843,665	-0,48
844,095	-0,47
844,525	-0,49
844,955	-0,5
845,385	-0,48
845,815	-0,47
846,245	-0,49
846,675	-0,48
847,105	-0,5
847,534	-0,5
847,964	-0,49
848,394	-0,47
848,824	-0,51
849,253	-0,5
849,683	-0,51
850,112	-0,51
850,542	-0,55
850,972	-0,54
851,401	-0,52
851,831	-0,51
852,26	-0,51
852,69	-0,54
853,119	-0,54
853,548	-0,55
853,978	-0,55
854,407	-0,52
854,836	-0,52
855,266	-0,51
855,695	-0,53
856,124	-0,54
856,553	-0,56
856,983	-0,58
857,412	-0,57
857,841	-0,57
858,27	-0,57
858,699	-0,58
859,128	-0,61
859,557	-0,62
859,986	-0,64
860,415	-0,62
860,844	-0,58
861,273	-0,58
861,702	-0,59
862,13	-0,57
862,559	-0,59
862,988	-0,56
863,417	-0,55
863,845	-0,55
864,274	-0,55
864,703	-0,54
865,131	-0,55
865,56	-0,56
865,989	-0,59
866,417	-0,57
866,846	-0,57
867,274	-0,56
867,703	-0,58
868,131	-0,59
868,559	-0,59
868,988	-0,62
869,416	-0,61
869,844	-0,62
870,273	-0,65
870,701	-0,62
871,129	-0,66
871,557	-0,68
871,986	-0,69
872,414	-0,7
872,842	-0,68
873,27	-0,66
873,698	-0,63
874,126	-0,67
874,554	-0,65
874,982	-0,64
875,41	-0,68
875,838	-0,62
876,266	-0,6
876,694	-0,6
877,122	-0,58
877,549	-0,62
877,977	-0,59
878,405	-0,61
878,833	-0,58
879,26	-0,57
879,688	-0,58
880,116	-0,55
880,543	-0,54
880,971	-0,53
881,399	-0,56
881,826	-0,57
882,254	-0,57
882,681	-0,61
883,109	-0,57
883,536	-0,58
883,963	-0,6
884,391	-0,58
884,818	-0,58
885,245	-0,61
885,673	-0,63
886,1	-0,6
886,527	-0,59
886,954	-0,55
887,381	-0,56
887,809	-0,58
888,236	-0,58
888,663	-0,59
889,09	-0,63
889,517	-0,65
889,944	-0,65
890,371	-0,63
890,798	-0,63
891,225	-0,64
891,652	-0,67
892,078	-0,65
892,505	-0,67
892,932	-0,63
893,359	-0,64
893,786	-0,64
894,212	-0,6
894,639	-0,62
895,066	-0,64
895,492	-0,59
895,919	-0,58
896,346	-0,58
896,772	-0,57
897,199	-0,55
897,625	-0,57
898,052	-0,54
898,478	-0,53
898,904	-0,54
899,331	-0,53
899,757	-0,54
900,183	-0,56
900,61	-0,54
901,036	-0,55
901,462	-0,54
901,888	-0,54
902,315	-0,52
902,741	-0,57
903,167	-0,56
903,593	-0,58
904,019	-0,57
904,445	-0,54
904,871	-0,56
905,297	-0,58
905,723	-0,58
906,149	-0,57
906,575	-0,59
907,001	-0,58
907,427	-0,55
907,852	-0,55
908,278	-0,55
908,704	-0,53
909,13	-0,52
909,555	-0,52
909,981	-0,52
910,407	-0,53
910,832	-0,53
911,258	-0,53
911,684	-0,54
912,109	-0,55
912,535	-0,57
912,96	-0,53
913,386	-0,57
913,811	-0,57
914,236	-0,58
914,662	-0,56
915,087	-0,59
915,512	-0,59
915,938	-0,61
916,363	-0,59
916,788	-0,6
917,213	-0,58
917,639	-0,63
918,064	-0,6
918,489	-0,62
918,914	-0,63
919,339	-0,64
919,764	-0,6
920,189	-0,6
920,614	-0,62
921,039	-0,63
921,464	-0,59
921,889	-0,62
922,314	-0,62
922,738	-0,65
923,163	-0,66
923,588	-0,65
924,013	-0,64
924,437	-0,64
924,862	-0,65
925,287	-0,61
925,711	-0,62
926,136	-0,64
926,561	-0,62
926,985	-0,61
927,41	-0,58
927,834	-0,56
928,259	-0,52
928,683	-0,5
929,108	-0,48
929,532	-0,49
929,956	-0,48
930,381	-0,48
930,805	-0,48
931,229	-0,47
931,653	-0,45
932,078	-0,45
932,502	-0,47
932,926	-0,49
933,35	-0,49
933,774	-0,48
934,198	-0,47
934,622	-0,45
935,046	-0,46
935,47	-0,46
935,894	-0,46
936,318	-0,46
936,742	-0,45
937,166	-0,45
937,59	-0,45
938,014	-0,47
938,437	-0,48
938,861	-0,5
939,285	-0,51
939,709	-0,49
940,132	-0,5
940,556	-0,51
940,98	-0,5
941,403	-0,49
941,827	-0,5
942,25	-0,51
942,674	-0,5
943,097	-0,48
943,521	-0,48
943,944	-0,49
944,368	-0,47
944,791	-0,46
945,214	-0,47
945,638	-0,48
946,061	-0,52
946,484	-0,52
946,907	-0,5
947,331	-0,5
947,754	-0,55
948,177	-0,52
948,6	-0,52
949,023	-0,53
949,446	-0,52
949,869	-0,5
950,292	-0,5
950,715	-0,47
951,138	-0,46
951,561	-0,44
951,984	-0,44
952,407	-0,43
952,83	-0,41
953,252	-0,37
953,675	-0,37
954,098	-0,38
954,521	-0,36
954,943	-0,35
955,366	-0,35
955,789	-0,35
956,211	-0,37
956,634	-0,37
957,056	-0,35
957,479	-0,36
957,902	-0,39
958,324	-0,38
958,746	-0,37
959,169	-0,38
959,591	-0,39
960,014	-0,4
960,436	-0,39
960,858	-0,38
961,281	-0,37
961,703	-0,38
962,125	-0,38
962,547	-0,36
962,969	-0,37
963,391	-0,38
963,814	-0,39
964,236	-0,37
964,658	-0,34
965,08	-0,35
965,502	-0,35
965,924	-0,32
966,346	-0,32
966,768	-0,32
967,189	-0,34
967,611	-0,33
968,033	-0,33
968,455	-0,32
968,877	-0,32
969,298	-0,34
969,72	-0,35
970,142	-0,34
970,563	-0,34
970,985	-0,32
971,407	-0,31
971,828	-0,29
972,25	-0,28
972,671	-0,27
973,093	-0,26
973,514	-0,25
973,936	-0,23
974,357	-0,22
974,778	-0,22
975,2	-0,22
975,621	-0,22
976,042	-0,21
976,464	-0,19
976,885	-0,18
977,306	-0,18
977,727	-0,17
978,148	-0,15
978,57	-0,14
978,991	-0,12
979,412	-0,11
979,833	-0,09
980,254	-0,08
980,675	-0,09
981,096	-0,08
981,517	-0,06
981,937	-0,06
982,358	-0,04
982,779	-0,03
983,2	-0,03
983,621	-0,02
984,042	-0,01
984,462	0
984,883	0,01
985,304	0,03
985,724	0,04
986,145	0,05
986,565	0,07
986,986	0,08
987,407	0,09
987,827	0,1
988,248	0,11
988,668	0,12
989,088	0,13
989,509	0,15
989,929	0,15
990,35	0,17
990,77	0,18
991,19	0,19
991,61	0,2
992,031	0,21
992,451	0,22
992,871	0,23
993,291	0,24
993,711	0,25
994,131	0,26
994,551	0,27
994,971	0,27
995,391	0,28
995,811	0,28
996,231	0,29
996,651	0,29
997,071	0,3
997,491	0,31
997,911	0,31
998,331	0,32
998,75	0,33
999,17	0,33
999,59	0,34
1000,009	0,34
1000,429	0,35
1000,849	0,35
1001,268	0,36
1001,688	0,36
1002,107	0,37
1002,527	0,37
1002,946	0,37
1003,366	0,38
1003,785	0,38
1004,205	0,38
1004,624	0,39
1005,044	0,39
1005,463	0,39
1005,882	0,39
1006,301	0,39
1006,721	0,4
1007,14	0,4
1007,559	0,4
1007,978	0,4
1008,397	0,4
1008,816	0,4
1009,235	0,4
1009,655	0,4
1010,074	0,4
1010,492	0,4
1010,911	0,4
1011,33	0,4
1011,749	0,4
1012,168	0,39
1012,587	0,39
1013,006	0,39
1013,425	0,39
1013,843	0,39
1014,262	0,39
1014,681	0,39
1015,099	0,39
1015,518	0,39
1015,937	0,39
1016,355	0,39
1016,774	0,39
1017,192	0,39
1017,611	0,39
1018,029	0,39
1018,448	0,39
1018,866	0,39
1019,285	0,39
1019,703	0,39
1020,121	0,39
1020,54	0,39
1020,958	0,39
1021,376	0,39
1021,794	0,39
1022,213	0,39
1022,631	0,38
1023,049	0,38
1023,467	0,38
1023,885	0,38
1024,303	0,38
1024,721	0,38
1025,139	0,38
1025,557	0,38
1025,975	0,38
1026,393	0,38
1026,811	0,38
1027,229	0,38
1027,647	0,38
1028,065	0,38
1028,482	0,37
1028,9	0,37
1029,318	0,37
1029,735	0,37
1030,153	0,37
1030,571	0,37
1030,988	0,37
1031,406	0,37
1031,823	0,37
1032,241	0,37
1032,659	0,37
1033,076	0,38
1033,493	0,38
1033,911	0,38
1034,328	0,38
1034,746	0,38
1035,163	0,38
1035,58	0,38
1035,997	0,38
1036,415	0,38
1036,832	0,38
1037,249	0,38
1037,666	0,38
1038,083	0,38
1038,501	0,38
1038,918	0,38
1039,335	0,38
1039,752	0,38
1040,169	0,38
1040,586	0,38
1041,003	0,38
1041,419	0,38
1041,836	0,38
1042,253	0,38
1042,67	0,38
1043,087	0,38
1043,504	0,38
1043,92	0,37
1044,337	0,37
1044,754	0,37
1045,17	0,37
1045,587	0,37
1046,004	0,37
1046,42	0,37
1046,837	0,37
1047,253	0,37
1047,67	0,37
1048,086	0,37
1048,503	0,37
1048,919	0,37
1049,335	0,37
1049,752	0,37
1050,168	0,37
1050,584	0,37
1051,001	0,37
1051,417	0,37
1051,833	0,37
1052,249	0,38
1052,665	0,38
1053,081	0,38
1053,497	0,38
1053,914	0,38
1054,33	0,38
1054,746	0,38
1055,162	0,38
1055,578	0,38
1055,993	0,38
1056,409	0,38
1056,825	0,38
1057,241	0,38
1057,657	0,38
1058,073	0,38
1058,488	0,38
1058,904	0,38
1059,32	0,38
1059,736	0,38
1060,151	0,38
1060,567	0,38
1060,982	0,38
1061,398	0,38
1061,813	0,38
1062,229	0,38
1062,644	0,38
1063,06	0,38
1063,475	0,38
1063,891	0,38
1064,306	0,38
1064,721	0,38
1065,137	0,38
1065,552	0,37
1065,967	0,37
1066,382	0,38
1066,798	0,38
1067,213	0,38
1067,628	0,38
1068,043	0,38
1068,458	0,38
1068,873	0,38
1069,288	0,38
1069,703	0,38
1070,118	0,38
1070,533	0,38
1070,948	0,38
1071,363	0,38
1071,778	0,38
1072,193	0,38
1072,607	0,38
1073,022	0,38
1073,437	0,38
1073,852	0,38
1074,266	0,38
1074,681	0,38
1075,096	0,38
1075,51	0,38
1075,925	0,38
1076,339	0,38
1076,754	0,37
1077,168	0,37
1077,583	0,37
1077,997	0,37
1078,412	0,37
1078,826	0,37
1079,24	0,37
1079,655	0,37
1080,069	0,37
1080,483	0,37
1080,897	0,37
1081,312	0,37
1081,726	0,37
1082,14	0,37
1082,554	0,37
1082,968	0,37
1083,382	0,37
1083,796	0,37
1084,21	0,37
1084,624	0,36
1085,038	0,36
1085,452	0,36
1085,866	0,36
1086,28	0,36
1086,694	0,36
1087,108	0,36
1087,521	0,35
1087,935	0,35
1088,349	0,35
1088,763	0,35
1089,176	0,34
1089,59	0,34
1090,004	0,34
1090,417	0,33
1090,831	0,33
1091,244	0,33
1091,658	0,32
1092,071	0,32
1092,485	0,32
1092,898	0,32
1093,312	0,32
1093,725	0,32
1094,138	0,31
1094,552	0,31
1094,965	0,31
1095,378	0,31
1095,791	0,31
1096,205	0,3
1096,618	0,3
1097,031	0,3
1097,444	0,29
1097,857	0,29
1098,27	0,29
1098,683	0,28
1099,096	0,28
1099,509	0,28
1099,922	0,27
1100,335	0,27
1100,748	0,26
1101,161	0,26
1101,574	0,25
1101,986	0,25
1102,399	0,25
1102,812	0,24
1103,225	0,24
1103,637	0,24
1104,05	0,23
1104,463	0,23
1104,875	0,23
1105,288	0,23
1105,7	0,22
1106,113	0,22
1106,525	0,22
1106,938	0,21
1107,35	0,2
1107,763	0,2
1108,175	0,19
1108,588	0,19
1109	0,18
1109,412	0,18
1109,824	0,17
1110,237	0,17
1110,649	0,17
1111,061	0,16
