Data from 18C-808nm-8A-cont_Absorbance__149__01578.txt Node

Date: Mon Jul 17 17:22:48 CEST 2023
User: Laser008
Spectrometer: MAYP115816
Trigger mode: 0
Integration Time (sec): 2,500000E-1
Scans to average: 10
Electric dark correction enabled: true
Nonlinearity correction enabled: true
Boxcar width: 5
XAxis mode: Wavelengths
Number of Pixels in Spectrum: 2068
>>>>>Begin Spectral Data<<<<<
198,914	-0,64
199,384	-0,42
199,855	-0,28
200,325	-0,2
200,796	-0,19
201,266	-0,14
201,737	-0,14
202,207	-0,14
202,677	-0,13
203,147	-0,11
203,618	-0,08
204,088	-0,06
204,558	-0,04
205,028	-0,05
205,498	-0,06
205,968	-0,05
206,439	-0,07
206,909	-0,05
207,379	-0,06
207,849	-0,06
208,319	-0,07
208,789	-0,07
209,258	-0,07
209,728	-0,08
210,198	-0,08
210,668	-0,07
211,138	-0,08
211,608	-0,08
212,077	-0,09
212,547	-0,08
213,017	-0,08
213,486	-0,09
213,956	-0,1
214,426	-0,11
214,895	-0,11
215,365	-0,12
215,834	-0,12
216,304	-0,13
216,773	-0,13
217,243	-0,14
217,712	-0,16
218,181	-0,16
218,651	-0,16
219,12	-0,15
219,589	-0,15
220,058	-0,14
220,528	-0,15
220,997	-0,15
221,466	-0,16
221,935	-0,16
222,404	-0,15
222,873	-0,14
223,342	-0,14
223,812	-0,14
224,281	-0,14
224,749	-0,15
225,218	-0,17
225,687	-0,18
226,156	-0,17
226,625	-0,15
227,094	-0,16
227,563	-0,16
228,031	-0,18
228,5	-0,17
228,969	-0,17
229,438	-0,17
229,906	-0,15
230,375	-0,14
230,844	-0,13
231,312	-0,12
231,781	-0,12
232,249	-0,1
232,718	-0,11
233,186	-0,09
233,655	-0,1
234,123	-0,1
234,591	-0,1
235,06	-0,11
235,528	-0,1
235,996	-0,1
236,465	-0,1
236,933	-0,1
237,401	-0,1
237,869	-0,1
238,337	-0,11
238,805	-0,09
239,274	-0,08
239,742	-0,08
240,21	-0,08
240,678	-0,08
241,146	-0,08
241,614	-0,08
242,081	-0,07
242,549	-0,07
243,017	-0,08
243,485	-0,08
243,953	-0,08
244,421	-0,08
244,888	-0,09
245,356	-0,08
245,824	-0,09
246,291	-0,09
246,759	-0,09
247,227	-0,1
247,694	-0,09
248,162	-0,09
248,629	-0,08
249,097	-0,09
249,564	-0,1
250,032	-0,1
250,499	-0,1
250,967	-0,11
251,434	-0,11
251,901	-0,1
252,369	-0,1
252,836	-0,11
253,303	-0,12
253,77	-0,14
254,237	-0,12
254,705	-0,12
255,172	-0,11
255,639	-0,12
256,106	-0,13
256,573	-0,13
257,04	-0,14
257,507	-0,15
257,974	-0,16
258,441	-0,14
258,908	-0,14
259,375	-0,16
259,841	-0,17
260,308	-0,17
260,775	-0,18
261,242	-0,17
261,709	-0,18
262,175	-0,19
262,642	-0,18
263,109	-0,17
263,575	-0,19
264,042	-0,17
264,508	-0,17
264,975	-0,18
265,441	-0,18
265,908	-0,18
266,374	-0,17
266,841	-0,16
267,307	-0,16
267,773	-0,15
268,24	-0,16
268,706	-0,15
269,172	-0,15
269,639	-0,17
270,105	-0,15
270,571	-0,15
271,037	-0,15
271,503	-0,16
271,969	-0,16
272,435	-0,16
272,902	-0,18
273,368	-0,19
273,834	-0,18
274,3	-0,19
274,765	-0,19
275,231	-0,2
275,697	-0,19
276,163	-0,19
276,629	-0,19
277,095	-0,2
277,56	-0,19
278,026	-0,2
278,492	-0,19
278,958	-0,19
279,423	-0,2
279,889	-0,19
280,354	-0,19
280,82	-0,19
281,286	-0,2
281,751	-0,21
282,217	-0,19
282,682	-0,19
283,147	-0,18
283,613	-0,18
284,078	-0,18
284,544	-0,19
285,009	-0,19
285,474	-0,18
285,939	-0,2
286,405	-0,19
286,87	-0,18
287,335	-0,18
287,8	-0,19
288,265	-0,18
288,73	-0,19
289,195	-0,21
289,66	-0,21
290,125	-0,2
290,59	-0,2
291,055	-0,19
291,52	-0,19
291,985	-0,2
292,45	-0,21
292,915	-0,2
293,38	-0,2
293,844	-0,19
294,309	-0,17
294,774	-0,16
295,239	-0,17
295,703	-0,18
296,168	-0,16
296,632	-0,16
297,097	-0,14
297,562	-0,12
298,026	-0,13
298,491	-0,13
298,955	-0,13
299,419	-0,13
299,884	-0,13
300,348	-0,13
300,813	-0,12
301,277	-0,13
301,741	-0,13
302,205	-0,13
302,67	-0,13
303,134	-0,13
303,598	-0,13
304,062	-0,12
304,526	-0,12
304,99	-0,13
305,454	-0,12
305,919	-0,12
306,383	-0,12
306,847	-0,11
307,31	-0,13
307,774	-0,13
308,238	-0,14
308,702	-0,14
309,166	-0,15
309,63	-0,14
310,094	-0,12
310,557	-0,12
311,021	-0,12
311,485	-0,12
311,948	-0,12
312,412	-0,11
312,876	-0,09
313,339	-0,1
313,803	-0,1
314,266	-0,09
314,73	-0,09
315,193	-0,1
315,657	-0,09
316,12	-0,09
316,584	-0,08
317,047	-0,08
317,51	-0,07
317,973	-0,07
318,437	-0,05
318,9	-0,03
319,363	-0,03
319,826	-0,02
320,29	-0,02
320,753	-0,02
321,216	-0,02
321,679	-0,02
322,142	-0,01
322,605	-0,03
323,068	-0,02
323,531	-0,02
323,994	-0,02
324,457	-0,02
324,92	-0,01
325,382	-0
325,845	-0,01
326,308	-0
326,771	-0
327,233	0,01
327,696	0,02
328,159	0,02
328,622	0,03
329,084	0,03
329,547	0,04
330,009	0,04
330,472	0,04
330,934	0,05
331,397	0,04
331,859	0,05
332,322	0,04
332,784	0,05
333,246	0,05
333,709	0,05
334,171	0,06
334,633	0,06
335,096	0,07
335,558	0,07
336,02	0,07
336,482	0,08
336,944	0,09
337,406	0,09
337,868	0,1
338,331	0,1
338,793	0,11
339,255	0,12
339,717	0,12
340,178	0,13
340,64	0,13
341,102	0,14
341,564	0,15
342,026	0,16
342,488	0,17
342,949	0,18
343,411	0,21
343,873	0,23
344,335	0,26
344,796	0,29
345,258	0,33
345,719	0,37
346,181	0,41
346,643	0,44
347,104	0,47
347,566	0,5
348,027	0,52
348,488	0,53
348,95	0,55
349,411	0,56
349,873	0,58
350,334	0,59
350,795	0,61
351,256	0,62
351,718	0,62
352,179	0,63
352,64	0,63
353,101	0,63
353,562	0,63
354,023	0,63
354,484	0,64
354,945	0,64
355,406	0,64
355,867	0,64
356,328	0,64
356,789	0,64
357,25	0,65
357,711	0,65
358,172	0,65
358,633	0,65
359,093	0,65
359,554	0,65
360,015	0,65
360,476	0,65
360,936	0,65
361,397	0,65
361,858	0,66
362,318	0,66
362,779	0,66
363,239	0,66
363,7	0,66
364,16	0,66
364,621	0,66
365,081	0,66
365,541	0,66
366,002	0,66
366,462	0,66
366,922	0,66
367,383	0,66
367,843	0,66
368,303	0,66
368,763	0,66
369,223	0,66
369,684	0,66
370,144	0,66
370,604	0,66
371,064	0,66
371,524	0,66
371,984	0,66
372,444	0,66
372,904	0,66
373,363	0,66
373,823	0,66
374,283	0,65
374,743	0,65
375,203	0,65
375,663	0,65
376,122	0,65
376,582	0,65
377,042	0,65
377,501	0,65
377,961	0,65
378,42	0,65
378,88	0,65
379,34	0,65
379,799	0,65
380,259	0,65
380,718	0,65
381,177	0,65
381,637	0,65
382,096	0,65
382,555	0,65
383,015	0,65
383,474	0,65
383,933	0,65
384,393	0,65
384,852	0,65
385,311	0,65
385,77	0,65
386,229	0,65
386,688	0,65
387,147	0,65
387,606	0,65
388,065	0,65
388,524	0,65
388,983	0,65
389,442	0,64
389,901	0,64
390,36	0,64
390,819	0,64
391,277	0,64
391,736	0,64
392,195	0,64
392,654	0,64
393,112	0,64
393,571	0,64
394,03	0,64
394,488	0,64
394,947	0,64
395,405	0,64
395,864	0,64
396,322	0,64
396,781	0,64
397,239	0,64
397,698	0,64
398,156	0,64
398,614	0,64
399,073	0,64
399,531	0,64
399,989	0,64
400,447	0,64
400,905	0,64
401,364	0,64
401,822	0,64
402,28	0,64
402,738	0,64
403,196	0,63
403,654	0,63
404,112	0,63
404,57	0,63
405,028	0,63
405,486	0,63
405,944	0,63
406,402	0,63
406,859	0,63
407,317	0,63
407,775	0,63
408,233	0,63
408,691	0,63
409,148	0,63
409,606	0,63
410,064	0,63
410,521	0,63
410,979	0,63
411,436	0,63
411,894	0,63
412,351	0,63
412,809	0,63
413,266	0,63
413,724	0,63
414,181	0,63
414,638	0,63
415,096	0,63
415,553	0,63
416,01	0,63
416,467	0,63
416,925	0,63
417,382	0,63
417,839	0,63
418,296	0,63
418,753	0,63
419,21	0,63
419,667	0,63
420,124	0,63
420,581	0,63
421,038	0,63
421,495	0,63
421,952	0,63
422,409	0,63
422,866	0,63
423,322	0,63
423,779	0,63
424,236	0,63
424,693	0,63
425,149	0,63
425,606	0,63
426,063	0,63
426,519	0,63
426,976	0,63
427,433	0,63
427,889	0,63
428,346	0,63
428,802	0,63
429,258	0,63
429,715	0,63
430,171	0,63
430,628	0,63
431,084	0,63
431,54	0,63
431,997	0,63
432,453	0,63
432,909	0,63
433,365	0,62
433,821	0,62
434,277	0,62
434,734	0,62
435,19	0,62
435,646	0,62
436,102	0,62
436,558	0,62
437,014	0,62
437,47	0,62
437,925	0,62
438,381	0,62
438,837	0,62
439,293	0,63
439,749	0,63
440,205	0,63
440,66	0,62
441,116	0,62
441,572	0,62
442,027	0,63
442,483	0,63
442,939	0,62
443,394	0,63
443,85	0,63
444,305	0,63
444,761	0,63
445,216	0,63
445,672	0,63
446,127	0,63
446,582	0,63
447,038	0,63
447,493	0,63
447,948	0,63
448,403	0,63
448,859	0,63
449,314	0,63
449,769	0,63
450,224	0,63
450,679	0,63
451,134	0,63
451,589	0,63
452,044	0,63
452,499	0,63
452,954	0,63
453,409	0,63
453,864	0,63
454,319	0,63
454,774	0,63
455,229	0,63
455,684	0,63
456,138	0,63
456,593	0,63
457,048	0,63
457,503	0,63
457,957	0,63
458,412	0,63
458,866	0,63
459,321	0,63
459,776	0,63
460,23	0,63
460,685	0,63
461,139	0,63
461,593	0,63
462,048	0,64
462,502	0,64
462,957	0,64
463,411	0,64
463,865	0,64
464,319	0,64
464,774	0,64
465,228	0,64
465,682	0,64
466,136	0,64
466,59	0,64
467,044	0,64
467,499	0,64
467,953	0,64
468,407	0,65
468,861	0,65
469,315	0,65
469,768	0,65
470,222	0,65
470,676	0,65
471,13	0,65
471,584	0,65
472,038	0,65
472,491	0,65
472,945	0,65
473,399	0,65
473,852	0,65
474,306	0,65
474,76	0,66
475,213	0,66
475,667	0,66
476,12	0,66
476,574	0,66
477,027	0,66
477,481	0,66
477,934	0,66
478,388	0,66
478,841	0,67
479,294	0,67
479,748	0,67
480,201	0,67
480,654	0,67
481,107	0,67
481,561	0,67
482,014	0,68
482,467	0,68
482,92	0,68
483,373	0,68
483,826	0,68
484,279	0,68
484,732	0,68
485,185	0,69
485,638	0,69
486,091	0,69
486,544	0,69
486,997	0,69
487,449	0,69
487,902	0,7
488,355	0,7
488,808	0,7
489,26	0,7
489,713	0,7
490,166	0,71
490,618	0,71
491,071	0,71
491,523	0,71
491,976	0,72
492,429	0,72
492,881	0,72
493,333	0,72
493,786	0,73
494,238	0,73
494,691	0,73
495,143	0,73
495,595	0,74
496,048	0,74
496,5	0,74
496,952	0,75
497,404	0,75
497,856	0,75
498,309	0,75
498,761	0,76
499,213	0,76
499,665	0,76
500,117	0,77
500,569	0,77
501,021	0,77
501,473	0,78
501,925	0,78
502,377	0,78
502,828	0,79
503,28	0,79
503,732	0,79
504,184	0,8
504,636	0,8
505,087	0,8
505,539	0,81
505,991	0,81
506,442	0,81
506,894	0,82
507,345	0,82
507,797	0,82
508,249	0,83
508,7	0,83
509,151	0,83
509,603	0,84
510,054	0,84
510,506	0,84
510,957	0,85
511,408	0,85
511,86	0,85
512,311	0,86
512,762	0,86
513,213	0,86
513,665	0,86
514,116	0,87
514,567	0,87
515,018	0,87
515,469	0,88
515,92	0,88
516,371	0,88
516,822	0,88
517,273	0,89
517,724	0,89
518,175	0,89
518,626	0,89
519,076	0,9
519,527	0,9
519,978	0,9
520,429	0,9
520,88	0,9
521,33	0,91
521,781	0,91
522,232	0,91
522,682	0,91
523,133	0,91
523,583	0,91
524,034	0,91
524,484	0,91
524,935	0,91
525,385	0,92
525,836	0,92
526,286	0,92
526,736	0,92
527,187	0,92
527,637	0,92
528,087	0,91
528,538	0,91
528,988	0,91
529,438	0,91
529,888	0,91
530,338	0,91
530,788	0,91
531,238	0,91
531,688	0,91
532,139	0,91
532,589	0,91
533,038	0,91
533,488	0,9
533,938	0,9
534,388	0,9
534,838	0,9
535,288	0,9
535,738	0,89
536,187	0,89
536,637	0,89
537,087	0,89
537,537	0,88
537,986	0,88
538,436	0,88
538,885	0,87
539,335	0,87
539,785	0,86
540,234	0,86
540,684	0,86
541,133	0,85
541,582	0,85
542,032	0,85
542,481	0,84
542,931	0,84
543,38	0,83
543,829	0,83
544,278	0,82
544,728	0,82
545,177	0,82
545,626	0,81
546,075	0,81
546,524	0,81
546,973	0,81
547,422	0,8
547,871	0,8
548,32	0,8
548,769	0,8
549,218	0,79
549,667	0,79
550,116	0,79
550,565	0,78
551,014	0,78
551,463	0,78
551,911	0,77
552,36	0,77
552,809	0,77
553,258	0,76
553,706	0,76
554,155	0,76
554,603	0,75
555,052	0,75
555,501	0,75
555,949	0,74
556,398	0,74
556,846	0,74
557,294	0,73
557,743	0,73
558,191	0,72
558,64	0,72
559,088	0,72
559,536	0,71
559,985	0,71
560,433	0,7
560,881	0,7
561,329	0,7
561,777	0,69
562,225	0,69
562,674	0,69
563,122	0,68
563,57	0,68
564,018	0,68
564,466	0,67
564,914	0,67
565,362	0,67
565,809	0,66
566,257	0,66
566,705	0,66
567,153	0,66
567,601	0,65
568,048	0,65
568,496	0,65
568,944	0,64
569,392	0,64
569,839	0,64
570,287	0,64
570,734	0,63
571,182	0,63
571,63	0,63
572,077	0,62
572,525	0,62
572,972	0,62
573,419	0,62
573,867	0,61
574,314	0,61
574,761	0,61
575,209	0,6
575,656	0,6
576,103	0,6
576,551	0,6
576,998	0,59
577,445	0,59
577,892	0,59
578,339	0,59
578,786	0,59
579,233	0,58
579,68	0,58
580,127	0,58
580,574	0,58
581,021	0,57
581,468	0,57
581,915	0,57
582,362	0,57
582,809	0,56
583,255	0,56
583,702	0,56
584,149	0,56
584,596	0,56
585,042	0,56
585,489	0,55
585,936	0,55
586,382	0,55
586,829	0,55
587,275	0,55
587,722	0,55
588,168	0,54
588,615	0,54
589,061	0,54
589,508	0,54
589,954	0,54
590,4	0,54
590,847	0,53
591,293	0,53
591,739	0,53
592,185	0,53
592,632	0,53
593,078	0,53
593,524	0,53
593,97	0,53
594,416	0,52
594,862	0,52
595,308	0,52
595,754	0,52
596,2	0,52
596,646	0,52
597,092	0,52
597,538	0,52
597,984	0,52
598,43	0,51
598,876	0,51
599,321	0,51
599,767	0,51
600,213	0,51
600,659	0,51
601,104	0,51
601,55	0,51
601,995	0,51
602,441	0,51
602,887	0,5
603,332	0,5
603,778	0,5
604,223	0,5
604,668	0,5
605,114	0,5
605,559	0,5
606,005	0,5
606,45	0,5
606,895	0,5
607,341	0,49
607,786	0,49
608,231	0,49
608,676	0,49
609,121	0,48
609,566	0,48
610,012	0,47
610,457	0,47
610,902	0,47
611,347	0,47
611,792	0,46
612,237	0,46
612,682	0,46
613,127	0,46
613,571	0,46
614,016	0,47
614,461	0,47
614,906	0,47
615,351	0,47
615,795	0,47
616,24	0,47
616,685	0,47
617,129	0,47
617,574	0,47
618,019	0,47
618,463	0,47
618,908	0,47
619,352	0,47
619,797	0,47
620,241	0,47
620,686	0,47
621,13	0,47
621,574	0,47
622,019	0,47
622,463	0,46
622,907	0,46
623,352	0,46
623,796	0,46
624,24	0,46
624,684	0,46
625,128	0,46
625,572	0,46
626,016	0,46
626,461	0,46
626,905	0,46
627,349	0,46
627,793	0,46
628,236	0,46
628,68	0,46
629,124	0,46
629,568	0,46
630,012	0,46
630,456	0,46
630,9	0,46
631,343	0,46
631,787	0,46
632,231	0,46
632,674	0,46
633,118	0,46
633,562	0,46
634,005	0,46
634,449	0,46
634,892	0,46
635,336	0,46
635,779	0,46
636,223	0,46
636,666	0,46
637,109	0,45
637,553	0,45
637,996	0,45
638,439	0,45
638,883	0,45
639,326	0,45
639,769	0,45
640,212	0,45
640,655	0,45
641,099	0,45
641,542	0,45
641,985	0,45
642,428	0,45
642,871	0,45
643,314	0,45
643,757	0,45
644,2	0,45
644,643	0,45
645,085	0,45
645,528	0,44
645,971	0,44
646,414	0,44
646,857	0,44
647,299	0,44
647,742	0,44
648,185	0,44
648,627	0,44
649,07	0,44
649,513	0,44
649,955	0,44
650,398	0,44
650,84	0,44
651,283	0,44
651,725	0,44
652,168	0,44
652,61	0,44
653,052	0,44
653,495	0,44
653,937	0,36
654,379	0,3
654,821	0,31
655,264	0,31
655,706	0,31
656,148	0,31
656,59	0,31
657,032	0,31
657,474	0,31
657,916	0,31
658,358	0,3
658,8	0,36
659,242	0,44
659,684	0,44
660,126	0,44
660,568	0,44
661,01	0,44
661,452	0,44
661,894	0,44
662,335	0,44
662,777	0,44
663,219	0,44
663,661	0,43
664,102	0,43
664,544	0,43
664,985	0,43
665,427	0,43
665,869	0,43
666,31	0,43
666,752	0,43
667,193	0,43
667,634	0,43
668,076	0,43
668,517	0,43
668,959	0,44
669,4	0,44
669,841	0,44
670,282	0,44
670,724	0,44
671,165	0,44
671,606	0,44
672,047	0,44
672,488	0,44
672,929	0,44
673,37	0,44
673,811	0,43
674,252	0,43
674,693	0,43
675,134	0,43
675,575	0,43
676,016	0,43
676,457	0,43
676,898	0,43
677,339	0,43
677,78	0,43
678,22	0,43
678,661	0,42
679,102	0,42
679,542	0,42
679,983	0,43
680,424	0,43
680,864	0,43
681,305	0,43
681,745	0,43
682,186	0,43
682,626	0,43
683,067	0,43
683,507	0,43
683,948	0,43
684,388	0,43
684,828	0,43
685,269	0,43
685,709	0,42
686,149	0,42
686,589	0,42
687,029	0,42
687,47	0,42
687,91	0,42
688,35	0,42
688,79	0,42
689,23	0,42
689,67	0,42
690,11	0,42
690,55	0,42
690,99	0,42
691,43	0,42
691,87	0,42
692,31	0,42
692,749	0,42
693,189	0,41
693,629	0,41
694,069	0,41
694,508	0,41
694,948	0,41
695,388	0,41
695,827	0,41
696,267	0,41
696,706	0,41
697,146	0,41
697,586	0,42
698,025	0,42
698,464	0,42
698,904	0,42
699,343	0,42
699,783	0,42
700,222	0,42
700,661	0,42
701,101	0,42
701,54	0,42
701,979	0,42
702,418	0,42
702,857	0,42
703,297	0,42
703,736	0,42
704,175	0,42
704,614	0,42
705,053	0,42
705,492	0,42
705,931	0,42
706,37	0,42
706,809	0,42
707,248	0,41
707,687	0,41
708,125	0,41
708,564	0,41
709,003	0,41
709,442	0,41
709,88	0,41
710,319	0,41
710,758	0,41
711,196	0,41
711,635	0,41
712,074	0,41
712,512	0,41
712,951	0,41
713,389	0,41
713,828	0,4
714,266	0,4
714,705	0,4
715,143	0,4
715,581	0,4
716,02	0,4
716,458	0,4
716,896	0,4
717,334	0,4
717,773	0,4
718,211	0,4
718,649	0,4
719,087	0,4
719,525	0,4
719,963	0,4
720,401	0,4
720,839	0,4
721,277	0,41
721,715	0,41
722,153	0,41
722,591	0,41
723,029	0,4
723,467	0,4
723,905	0,4
724,342	0,4
724,78	0,4
725,218	0,4
725,656	0,4
726,093	0,4
726,531	0,4
726,969	0,4
727,406	0,4
727,844	0,4
728,281	0,4
728,719	0,4
729,156	0,4
729,594	0,4
730,031	0,4
730,469	0,4
730,906	0,4
731,343	0,4
731,781	0,4
732,218	0,4
732,655	0,4
733,092	0,4
733,53	0,4
733,967	0,4
734,404	0,4
734,841	0,4
735,278	0,39
735,715	0,39
736,152	0,39
736,589	0,39
737,026	0,39
737,463	0,39
737,9	0,39
738,337	0,39
738,774	0,39
739,211	0,39
739,647	0,39
740,084	0,39
740,521	0,39
740,958	0,39
741,394	0,39
741,831	0,39
742,268	0,39
742,704	0,39
743,141	0,39
743,577	0,39
744,014	0,39
744,45	0,39
744,887	0,39
745,323	0,38
745,76	0,38
746,196	0,38
746,632	0,38
747,069	0,38
747,505	0,38
747,941	0,38
748,378	0,38
748,814	0,38
749,25	0,38
749,686	0,38
750,122	0,38
750,558	0,38
750,994	0,39
751,43	0,39
751,866	0,39
752,302	0,39
752,738	0,39
753,174	0,39
753,61	0,39
754,046	0,39
754,482	0,39
754,918	0,39
755,354	0,39
755,789	0,39
756,225	0,39
756,661	0,39
757,096	0,39
757,532	0,39
757,968	0,38
758,403	0,38
758,839	0,38
759,274	0,38
759,71	0,37
760,145	0,37
760,581	0,36
761,016	0,36
761,452	0,36
761,887	0,35
762,322	0,35
762,758	0,34
763,193	0,34
763,628	0,33
764,063	0,33
764,499	0,32
764,934	0,32
765,369	0,31
765,804	0,3
766,239	0,3
766,674	0,29
767,109	0,28
767,544	0,28
767,979	0,27
768,414	0,26
768,849	0,25
769,284	0,25
769,719	0,23
770,154	0,23
770,588	0,22
771,023	0,21
771,458	0,2
771,893	0,19
772,327	0,18
772,762	0,17
773,197	0,16
773,631	0,15
774,066	0,15
774,5	0,15
774,935	0,14
775,369	0,13
775,804	0,13
776,238	0,12
776,673	0,11
777,107	0,1
777,541	0,09
777,976	0,08
778,41	0,07
778,844	0,06
779,279	0,05
779,713	0,04
780,147	0,03
780,581	0,02
781,015	0
781,449	-0,01
781,883	-0,01
782,317	-0,03
782,751	-0,04
783,185	-0,04
783,619	-0,05
784,053	-0,06
784,487	-0,07
784,921	-0,07
785,355	-0,08
785,789	-0,09
786,223	-0,1
786,656	-0,11
787,09	-0,12
787,524	-0,12
787,957	-0,13
788,391	-0,15
788,825	-0,17
789,258	-0,18
789,692	-0,2
790,125	-0,21
790,559	-0,23
790,992	-0,24
791,426	-0,27
791,859	-0,29
792,293	-0,31
792,726	-0,33
793,159	-0,35
793,593	-0,37
794,026	-0,4
794,459	-0,43
794,892	-0,46
795,326	-0,48
795,759	-0,52
796,192	-0,57
796,625	-0,61
797,058	-0,64
797,491	-0,68
797,924	-0,72
798,357	-0,77
798,79	-0,82
799,223	-0,86
799,656	-0,91
800,089	-0,96
800,522	-1
800,955	-1,05
801,387	-1,1
801,82	-1,16
802,253	-1,22
802,686	-1,3
803,118	-1,36
803,551	-1,41
803,984	-1,45
804,416	-1,49
804,849	-1,52
805,281	-1,64
805,714	-2,02
806,146	-2,46
806,579	-2,72
807,011	-2,88
807,444	-2,97
807,876	-3,05
808,308	-3,09
808,741	-3,12
809,173	-3,17
809,605	-3,19
810,037	-3,27
810,47	-3,18
810,902	-2,98
811,334	-2,83
811,766	-2,68
812,198	-2,43
812,63	-2,01
813,062	-1,8
813,494	-1,7
813,926	-1,61
814,358	-1,56
814,79	-1,48
815,222	-1,42
815,654	-1,37
816,086	-1,3
816,518	-1,25
816,949	-1,2
817,381	-1,16
817,813	-1,14
818,245	-1,1
818,676	-1,06
819,108	-1,02
819,54	-1,01
819,971	-0,99
820,403	-0,93
820,834	-0,92
821,266	-0,87
821,697	-0,85
822,129	-0,83
822,56	-0,8
822,991	-0,77
823,423	-0,74
823,854	-0,73
824,286	-0,71
824,717	-0,69
825,148	-0,68
825,579	-0,66
826,01	-0,65
826,442	-0,64
826,873	-0,62
827,304	-0,59
827,735	-0,58
828,166	-0,58
828,597	-0,58
829,028	-0,57
829,459	-0,57
829,89	-0,57
830,321	-0,53
830,752	-0,54
831,183	-0,53
831,613	-0,53
832,044	-0,52
832,475	-0,52
832,906	-0,53
833,336	-0,54
833,767	-0,54
834,198	-0,53
834,628	-0,52
835,059	-0,54
835,49	-0,55
835,92	-0,52
836,351	-0,52
836,781	-0,52
837,212	-0,53
837,642	-0,52
838,072	-0,5
838,503	-0,5
838,933	-0,48
839,364	-0,48
839,794	-0,46
840,224	-0,45
840,654	-0,5
841,085	-0,51
841,515	-0,48
841,945	-0,48
842,375	-0,44
842,805	-0,43
843,235	-0,42
843,665	-0,43
844,095	-0,42
844,525	-0,44
844,955	-0,45
845,385	-0,43
845,815	-0,41
846,245	-0,44
846,675	-0,44
847,105	-0,46
847,534	-0,47
847,964	-0,45
848,394	-0,44
848,824	-0,46
849,253	-0,46
849,683	-0,45
850,112	-0,46
850,542	-0,49
850,972	-0,49
851,401	-0,47
851,831	-0,45
852,26	-0,45
852,69	-0,5
853,119	-0,49
853,548	-0,49
853,978	-0,5
854,407	-0,48
854,836	-0,48
855,266	-0,47
855,695	-0,49
856,124	-0,5
856,553	-0,52
856,983	-0,53
857,412	-0,52
857,841	-0,54
858,27	-0,54
858,699	-0,55
859,128	-0,59
859,557	-0,59
859,986	-0,61
860,415	-0,58
860,844	-0,55
861,273	-0,56
861,702	-0,57
862,13	-0,55
862,559	-0,57
862,988	-0,54
863,417	-0,53
863,845	-0,52
864,274	-0,53
864,703	-0,52
865,131	-0,53
865,56	-0,55
865,989	-0,57
866,417	-0,53
866,846	-0,53
867,274	-0,53
867,703	-0,55
868,131	-0,56
868,559	-0,57
868,988	-0,59
869,416	-0,58
869,844	-0,58
870,273	-0,61
870,701	-0,58
871,129	-0,62
871,557	-0,66
871,986	-0,66
872,414	-0,68
872,842	-0,64
873,27	-0,62
873,698	-0,58
874,126	-0,62
874,554	-0,61
874,982	-0,6
875,41	-0,64
875,838	-0,58
876,266	-0,55
876,694	-0,55
877,122	-0,53
877,549	-0,58
877,977	-0,56
878,405	-0,58
878,833	-0,55
879,26	-0,53
879,688	-0,54
880,116	-0,52
880,543	-0,5
880,971	-0,5
881,399	-0,53
881,826	-0,54
882,254	-0,52
882,681	-0,54
883,109	-0,51
883,536	-0,52
883,963	-0,54
884,391	-0,52
884,818	-0,5
885,245	-0,55
885,673	-0,56
886,1	-0,52
886,527	-0,53
886,954	-0,5
887,381	-0,53
887,809	-0,54
888,236	-0,55
888,663	-0,55
889,09	-0,59
889,517	-0,61
889,944	-0,6
890,371	-0,59
890,798	-0,59
891,225	-0,58
891,652	-0,61
892,078	-0,59
892,505	-0,61
892,932	-0,57
893,359	-0,58
893,786	-0,57
894,212	-0,54
894,639	-0,57
895,066	-0,59
895,492	-0,54
895,919	-0,55
896,346	-0,54
896,772	-0,54
897,199	-0,51
897,625	-0,55
898,052	-0,51
898,478	-0,5
898,904	-0,52
899,331	-0,51
899,757	-0,52
900,183	-0,54
900,61	-0,53
901,036	-0,54
901,462	-0,54
901,888	-0,53
902,315	-0,52
902,741	-0,57
903,167	-0,55
903,593	-0,58
904,019	-0,57
904,445	-0,54
904,871	-0,56
905,297	-0,58
905,723	-0,57
906,149	-0,56
906,575	-0,56
907,001	-0,55
907,427	-0,53
907,852	-0,52
908,278	-0,52
908,704	-0,51
909,13	-0,5
909,555	-0,5
909,981	-0,5
910,407	-0,5
910,832	-0,49
911,258	-0,5
911,684	-0,51
912,109	-0,51
912,535	-0,54
912,96	-0,49
913,386	-0,54
913,811	-0,53
914,236	-0,54
914,662	-0,52
915,087	-0,55
915,512	-0,56
915,938	-0,57
916,363	-0,55
916,788	-0,56
917,213	-0,53
917,639	-0,58
918,064	-0,55
918,489	-0,55
918,914	-0,55
919,339	-0,57
919,764	-0,56
920,189	-0,55
920,614	-0,57
921,039	-0,58
921,464	-0,54
921,889	-0,57
922,314	-0,58
922,738	-0,6
923,163	-0,61
923,588	-0,6
924,013	-0,6
924,437	-0,58
924,862	-0,6
925,287	-0,56
925,711	-0,57
926,136	-0,57
926,561	-0,55
926,985	-0,55
927,41	-0,52
927,834	-0,51
928,259	-0,48
928,683	-0,47
929,108	-0,45
929,532	-0,46
929,956	-0,45
930,381	-0,45
930,805	-0,45
931,229	-0,45
931,653	-0,43
932,078	-0,44
932,502	-0,44
932,926	-0,45
933,35	-0,44
933,774	-0,43
934,198	-0,41
934,622	-0,4
935,046	-0,41
935,47	-0,41
935,894	-0,41
936,318	-0,41
936,742	-0,41
937,166	-0,4
937,59	-0,4
938,014	-0,43
938,437	-0,44
938,861	-0,47
939,285	-0,47
939,709	-0,46
940,132	-0,47
940,556	-0,47
940,98	-0,46
941,403	-0,45
941,827	-0,46
942,25	-0,47
942,674	-0,45
943,097	-0,44
943,521	-0,44
943,944	-0,44
944,368	-0,44
944,791	-0,41
945,214	-0,43
945,638	-0,44
946,061	-0,47
946,484	-0,48
946,907	-0,47
947,331	-0,48
947,754	-0,51
948,177	-0,48
948,6	-0,49
949,023	-0,48
949,446	-0,49
949,869	-0,47
950,292	-0,47
950,715	-0,42
951,138	-0,41
951,561	-0,39
951,984	-0,39
952,407	-0,38
952,83	-0,36
953,252	-0,32
953,675	-0,32
954,098	-0,33
954,521	-0,32
954,943	-0,32
955,366	-0,33
955,789	-0,3
956,211	-0,33
956,634	-0,34
957,056	-0,32
957,479	-0,34
957,902	-0,35
958,324	-0,36
958,746	-0,34
959,169	-0,34
959,591	-0,34
960,014	-0,36
960,436	-0,36
960,858	-0,35
961,281	-0,34
961,703	-0,35
962,125	-0,35
962,547	-0,33
962,969	-0,35
963,391	-0,35
963,814	-0,36
964,236	-0,35
964,658	-0,32
965,08	-0,33
965,502	-0,33
965,924	-0,31
966,346	-0,3
966,768	-0,29
967,189	-0,31
967,611	-0,3
968,033	-0,3
968,455	-0,28
968,877	-0,28
969,298	-0,29
969,72	-0,29
970,142	-0,28
970,563	-0,28
970,985	-0,27
971,407	-0,27
971,828	-0,25
972,25	-0,24
972,671	-0,22
973,093	-0,22
973,514	-0,22
973,936	-0,2
974,357	-0,19
974,778	-0,19
975,2	-0,19
975,621	-0,18
976,042	-0,16
976,464	-0,16
976,885	-0,15
977,306	-0,14
977,727	-0,14
978,148	-0,13
978,57	-0,11
978,991	-0,1
979,412	-0,1
979,833	-0,08
980,254	-0,07
980,675	-0,08
981,096	-0,07
981,517	-0,05
981,937	-0,05
982,358	-0,04
982,779	-0,03
983,2	-0,03
983,621	-0,02
984,042	-0
984,462	0,01
984,883	0,02
985,304	0,04
985,724	0,05
986,145	0,06
986,565	0,08
986,986	0,09
987,407	0,1
987,827	0,11
988,248	0,13
988,668	0,14
989,088	0,15
989,509	0,16
989,929	0,17
990,35	0,18
990,77	0,19
991,19	0,19
991,61	0,21
992,031	0,21
992,451	0,22
992,871	0,23
993,291	0,24
993,711	0,25
994,131	0,25
994,551	0,26
994,971	0,27
995,391	0,27
995,811	0,28
996,231	0,28
996,651	0,28
997,071	0,29
997,491	0,3
997,911	0,3
998,331	0,31
998,75	0,31
999,17	0,31
999,59	0,32
1000,009	0,32
1000,429	0,33
1000,849	0,33
1001,268	0,34
1001,688	0,34
1002,107	0,34
1002,527	0,35
1002,946	0,35
1003,366	0,35
1003,785	0,36
1004,205	0,36
1004,624	0,36
1005,044	0,36
1005,463	0,36
1005,882	0,36
1006,301	0,37
1006,721	0,37
1007,14	0,37
1007,559	0,37
1007,978	0,37
1008,397	0,37
1008,816	0,37
1009,235	0,37
1009,655	0,37
1010,074	0,37
1010,492	0,37
1010,911	0,37
1011,33	0,37
1011,749	0,37
1012,168	0,37
1012,587	0,36
1013,006	0,36
1013,425	0,36
1013,843	0,36
1014,262	0,36
1014,681	0,36
1015,099	0,36
1015,518	0,36
1015,937	0,36
1016,355	0,36
1016,774	0,36
1017,192	0,36
1017,611	0,36
1018,029	0,36
1018,448	0,36
1018,866	0,36
1019,285	0,36
1019,703	0,36
1020,121	0,36
1020,54	0,36
1020,958	0,36
1021,376	0,36
1021,794	0,36
1022,213	0,36
1022,631	0,36
1023,049	0,35
1023,467	0,35
1023,885	0,35
1024,303	0,35
1024,721	0,35
1025,139	0,35
1025,557	0,35
1025,975	0,35
1026,393	0,35
1026,811	0,35
1027,229	0,35
1027,647	0,35
1028,065	0,35
1028,482	0,35
1028,9	0,35
1029,318	0,35
1029,735	0,35
1030,153	0,35
1030,571	0,35
1030,988	0,35
1031,406	0,35
1031,823	0,35
1032,241	0,35
1032,659	0,35
1033,076	0,35
1033,493	0,35
1033,911	0,35
1034,328	0,35
1034,746	0,35
1035,163	0,35
1035,58	0,35
1035,997	0,35
1036,415	0,35
1036,832	0,35
1037,249	0,35
1037,666	0,35
1038,083	0,35
1038,501	0,35
1038,918	0,35
1039,335	0,35
1039,752	0,35
1040,169	0,35
1040,586	0,35
1041,003	0,35
1041,419	0,35
1041,836	0,35
1042,253	0,35
1042,67	0,35
1043,087	0,35
1043,504	0,35
1043,92	0,35
1044,337	0,35
1044,754	0,35
1045,17	0,35
1045,587	0,35
1046,004	0,34
1046,42	0,34
1046,837	0,34
1047,253	0,34
1047,67	0,34
1048,086	0,34
1048,503	0,34
1048,919	0,34
1049,335	0,35
1049,752	0,35
1050,168	0,35
1050,584	0,35
1051,001	0,35
1051,417	0,35
1051,833	0,35
1052,249	0,35
1052,665	0,35
1053,081	0,35
1053,497	0,35
1053,914	0,35
1054,33	0,35
1054,746	0,35
1055,162	0,35
1055,578	0,35
1055,993	0,36
1056,409	0,36
1056,825	0,36
1057,241	0,36
1057,657	0,36
1058,073	0,35
1058,488	0,35
1058,904	0,35
1059,32	0,35
1059,736	0,35
1060,151	0,35
1060,567	0,35
1060,982	0,35
1061,398	0,35
1061,813	0,35
1062,229	0,35
1062,644	0,35
1063,06	0,35
1063,475	0,35
1063,891	0,35
1064,306	0,35
1064,721	0,35
1065,137	0,35
1065,552	0,35
1065,967	0,35
1066,382	0,35
1066,798	0,35
1067,213	0,35
1067,628	0,35
1068,043	0,35
1068,458	0,35
1068,873	0,35
1069,288	0,35
1069,703	0,35
1070,118	0,35
1070,533	0,35
1070,948	0,35
1071,363	0,35
1071,778	0,35
1072,193	0,35
1072,607	0,35
1073,022	0,35
1073,437	0,35
1073,852	0,35
1074,266	0,35
1074,681	0,35
1075,096	0,35
1075,51	0,35
1075,925	0,35
1076,339	0,35
1076,754	0,35
1077,168	0,35
1077,583	0,35
1077,997	0,35
1078,412	0,35
1078,826	0,35
1079,24	0,35
1079,655	0,35
1080,069	0,35
1080,483	0,35
1080,897	0,34
1081,312	0,34
1081,726	0,34
1082,14	0,34
1082,554	0,34
1082,968	0,34
1083,382	0,34
1083,796	0,34
1084,21	0,34
1084,624	0,34
1085,038	0,34
1085,452	0,34
1085,866	0,34
1086,28	0,33
1086,694	0,33
1087,108	0,33
1087,521	0,33
1087,935	0,33
1088,349	0,33
1088,763	0,32
1089,176	0,32
1089,59	0,32
1090,004	0,32
1090,417	0,31
1090,831	0,31
1091,244	0,31
1091,658	0,31
1092,071	0,31
1092,485	0,3
1092,898	0,3
1093,312	0,3
1093,725	0,3
1094,138	0,3
1094,552	0,29
1094,965	0,29
1095,378	0,29
1095,791	0,29
1096,205	0,29
1096,618	0,29
1097,031	0,28
1097,444	0,28
1097,857	0,28
1098,27	0,27
1098,683	0,27
1099,096	0,27
1099,509	0,26
1099,922	0,26
1100,335	0,25
1100,748	0,25
1101,161	0,24
1101,574	0,24
1101,986	0,24
1102,399	0,24
1102,812	0,23
1103,225	0,23
1103,637	0,23
1104,05	0,23
1104,463	0,23
1104,875	0,23
1105,288	0,23
1105,7	0,22
1106,113	0,22
1106,525	0,22
1106,938	0,21
1107,35	0,21
1107,763	0,21
1108,175	0,21
1108,588	0,2
1109	0,2
1109,412	0,19
1109,824	0,19
1110,237	0,2
1110,649	0,2
1111,061	0,19
