Data from 18C-808nm-8A-cont_Absorbance__71__01500.txt Node

Date: Mon Jul 17 17:19:33 CEST 2023
User: Laser008
Spectrometer: MAYP115816
Trigger mode: 0
Integration Time (sec): 2,500000E-1
Scans to average: 10
Electric dark correction enabled: true
Nonlinearity correction enabled: true
Boxcar width: 5
XAxis mode: Wavelengths
Number of Pixels in Spectrum: 2068
>>>>>Begin Spectral Data<<<<<
198,914	-0,74
199,384	-0,51
199,855	-0,37
200,325	-0,29
200,796	-0,25
201,266	-0,2
201,737	-0,19
202,207	-0,18
202,677	-0,17
203,147	-0,16
203,618	-0,13
204,088	-0,11
204,558	-0,1
205,028	-0,1
205,498	-0,11
205,968	-0,11
206,439	-0,13
206,909	-0,11
207,379	-0,12
207,849	-0,12
208,319	-0,13
208,789	-0,13
209,258	-0,13
209,728	-0,14
210,198	-0,14
210,668	-0,13
211,138	-0,13
211,608	-0,12
212,077	-0,13
212,547	-0,12
213,017	-0,13
213,486	-0,13
213,956	-0,13
214,426	-0,14
214,895	-0,14
215,365	-0,15
215,834	-0,14
216,304	-0,16
216,773	-0,16
217,243	-0,17
217,712	-0,19
218,181	-0,18
218,651	-0,18
219,12	-0,17
219,589	-0,17
220,058	-0,16
220,528	-0,16
220,997	-0,17
221,466	-0,18
221,935	-0,19
222,404	-0,18
222,873	-0,17
223,342	-0,17
223,812	-0,17
224,281	-0,17
224,749	-0,18
225,218	-0,2
225,687	-0,19
226,156	-0,18
226,625	-0,16
227,094	-0,16
227,563	-0,16
228,031	-0,17
228,5	-0,17
228,969	-0,18
229,438	-0,17
229,906	-0,16
230,375	-0,15
230,844	-0,15
231,312	-0,15
231,781	-0,16
232,249	-0,15
232,718	-0,15
233,186	-0,13
233,655	-0,13
234,123	-0,13
234,591	-0,13
235,06	-0,13
235,528	-0,14
235,996	-0,14
236,465	-0,13
236,933	-0,13
237,401	-0,13
237,869	-0,13
238,337	-0,13
238,805	-0,12
239,274	-0,11
239,742	-0,11
240,21	-0,11
240,678	-0,1
241,146	-0,1
241,614	-0,1
242,081	-0,09
242,549	-0,1
243,017	-0,1
243,485	-0,1
243,953	-0,1
244,421	-0,09
244,888	-0,1
245,356	-0,1
245,824	-0,1
246,291	-0,1
246,759	-0,11
247,227	-0,11
247,694	-0,1
248,162	-0,09
248,629	-0,09
249,097	-0,1
249,564	-0,1
250,032	-0,11
250,499	-0,11
250,967	-0,12
251,434	-0,12
251,901	-0,12
252,369	-0,11
252,836	-0,13
253,303	-0,15
253,77	-0,16
254,237	-0,15
254,705	-0,15
255,172	-0,14
255,639	-0,14
256,106	-0,15
256,573	-0,15
257,04	-0,15
257,507	-0,16
257,974	-0,16
258,441	-0,14
258,908	-0,14
259,375	-0,16
259,841	-0,17
260,308	-0,17
260,775	-0,17
261,242	-0,16
261,709	-0,17
262,175	-0,19
262,642	-0,18
263,109	-0,17
263,575	-0,18
264,042	-0,17
264,508	-0,16
264,975	-0,18
265,441	-0,19
265,908	-0,2
266,374	-0,19
266,841	-0,19
267,307	-0,18
267,773	-0,18
268,24	-0,18
268,706	-0,19
269,172	-0,21
269,639	-0,22
270,105	-0,2
270,571	-0,2
271,037	-0,2
271,503	-0,21
271,969	-0,2
272,435	-0,2
272,902	-0,22
273,368	-0,23
273,834	-0,22
274,3	-0,22
274,765	-0,21
275,231	-0,22
275,697	-0,2
276,163	-0,2
276,629	-0,2
277,095	-0,21
277,56	-0,21
278,026	-0,2
278,492	-0,19
278,958	-0,2
279,423	-0,19
279,889	-0,19
280,354	-0,2
280,82	-0,21
281,286	-0,22
281,751	-0,21
282,217	-0,2
282,682	-0,2
283,147	-0,19
283,613	-0,2
284,078	-0,2
284,544	-0,21
285,009	-0,21
285,474	-0,2
285,939	-0,21
286,405	-0,21
286,87	-0,21
287,335	-0,21
287,8	-0,2
288,265	-0,2
288,73	-0,22
289,195	-0,23
289,66	-0,23
290,125	-0,22
290,59	-0,22
291,055	-0,21
291,52	-0,21
291,985	-0,21
292,45	-0,22
292,915	-0,22
293,38	-0,21
293,844	-0,18
294,309	-0,17
294,774	-0,16
295,239	-0,17
295,703	-0,17
296,168	-0,17
296,632	-0,16
297,097	-0,15
297,562	-0,14
298,026	-0,14
298,491	-0,15
298,955	-0,15
299,419	-0,15
299,884	-0,16
300,348	-0,15
300,813	-0,14
301,277	-0,14
301,741	-0,14
302,205	-0,14
302,67	-0,13
303,134	-0,13
303,598	-0,12
304,062	-0,12
304,526	-0,12
304,99	-0,13
305,454	-0,13
305,919	-0,13
306,383	-0,13
306,847	-0,13
307,31	-0,13
307,774	-0,14
308,238	-0,14
308,702	-0,13
309,166	-0,15
309,63	-0,14
310,094	-0,12
310,557	-0,12
311,021	-0,12
311,485	-0,12
311,948	-0,12
312,412	-0,12
312,876	-0,11
313,339	-0,12
313,803	-0,12
314,266	-0,12
314,73	-0,13
315,193	-0,12
315,657	-0,11
316,12	-0,11
316,584	-0,09
317,047	-0,08
317,51	-0,07
317,973	-0,07
318,437	-0,06
318,9	-0,05
319,363	-0,05
319,826	-0,04
320,29	-0,05
320,753	-0,04
321,216	-0,04
321,679	-0,05
322,142	-0,04
322,605	-0,06
323,068	-0,06
323,531	-0,07
323,994	-0,06
324,457	-0,06
324,92	-0,05
325,382	-0,04
325,845	-0,04
326,308	-0,03
326,771	-0,03
327,233	-0,03
327,696	-0,02
328,159	-0,01
328,622	0,01
329,084	0
329,547	0
330,009	0,01
330,472	0,01
330,934	0,01
331,397	0,02
331,859	0,02
332,322	0,02
332,784	0,02
333,246	0,02
333,709	0,02
334,171	0,03
334,633	0,03
335,096	0,03
335,558	0,04
336,02	0,04
336,482	0,04
336,944	0,06
337,406	0,06
337,868	0,08
338,331	0,08
338,793	0,09
339,255	0,1
339,717	0,1
340,178	0,11
340,64	0,11
341,102	0,12
341,564	0,13
342,026	0,15
342,488	0,15
342,949	0,17
343,411	0,19
343,873	0,21
344,335	0,23
344,796	0,26
345,258	0,3
345,719	0,33
346,181	0,36
346,643	0,39
347,104	0,41
347,566	0,43
348,027	0,45
348,488	0,47
348,95	0,48
349,411	0,5
349,873	0,51
350,334	0,53
350,795	0,54
351,256	0,55
351,718	0,55
352,179	0,56
352,64	0,56
353,101	0,56
353,562	0,57
354,023	0,57
354,484	0,57
354,945	0,57
355,406	0,57
355,867	0,57
356,328	0,57
356,789	0,57
357,25	0,58
357,711	0,58
358,172	0,58
358,633	0,58
359,093	0,58
359,554	0,58
360,015	0,58
360,476	0,58
360,936	0,58
361,397	0,58
361,858	0,59
362,318	0,59
362,779	0,59
363,239	0,59
363,7	0,59
364,16	0,59
364,621	0,59
365,081	0,59
365,541	0,59
366,002	0,59
366,462	0,59
366,922	0,59
367,383	0,59
367,843	0,59
368,303	0,59
368,763	0,59
369,223	0,59
369,684	0,59
370,144	0,59
370,604	0,59
371,064	0,59
371,524	0,59
371,984	0,59
372,444	0,59
372,904	0,59
373,363	0,59
373,823	0,58
374,283	0,58
374,743	0,58
375,203	0,58
375,663	0,58
376,122	0,58
376,582	0,58
377,042	0,58
377,501	0,58
377,961	0,58
378,42	0,58
378,88	0,58
379,34	0,58
379,799	0,58
380,259	0,58
380,718	0,58
381,177	0,58
381,637	0,58
382,096	0,58
382,555	0,58
383,015	0,58
383,474	0,58
383,933	0,58
384,393	0,58
384,852	0,58
385,311	0,58
385,77	0,58
386,229	0,58
386,688	0,58
387,147	0,57
387,606	0,57
388,065	0,57
388,524	0,57
388,983	0,57
389,442	0,57
389,901	0,57
390,36	0,57
390,819	0,57
391,277	0,57
391,736	0,57
392,195	0,57
392,654	0,57
393,112	0,57
393,571	0,57
394,03	0,57
394,488	0,57
394,947	0,57
395,405	0,57
395,864	0,57
396,322	0,57
396,781	0,57
397,239	0,57
397,698	0,57
398,156	0,57
398,614	0,57
399,073	0,57
399,531	0,57
399,989	0,57
400,447	0,57
400,905	0,57
401,364	0,57
401,822	0,56
402,28	0,56
402,738	0,56
403,196	0,56
403,654	0,56
404,112	0,56
404,57	0,56
405,028	0,56
405,486	0,56
405,944	0,56
406,402	0,56
406,859	0,56
407,317	0,56
407,775	0,56
408,233	0,56
408,691	0,56
409,148	0,56
409,606	0,56
410,064	0,56
410,521	0,56
410,979	0,56
411,436	0,56
411,894	0,56
412,351	0,56
412,809	0,56
413,266	0,56
413,724	0,56
414,181	0,56
414,638	0,56
415,096	0,56
415,553	0,56
416,01	0,56
416,467	0,56
416,925	0,56
417,382	0,56
417,839	0,56
418,296	0,56
418,753	0,56
419,21	0,56
419,667	0,56
420,124	0,56
420,581	0,56
421,038	0,55
421,495	0,55
421,952	0,55
422,409	0,55
422,866	0,55
423,322	0,55
423,779	0,55
424,236	0,55
424,693	0,55
425,149	0,56
425,606	0,56
426,063	0,56
426,519	0,56
426,976	0,56
427,433	0,56
427,889	0,56
428,346	0,56
428,802	0,56
429,258	0,55
429,715	0,55
430,171	0,55
430,628	0,55
431,084	0,55
431,54	0,55
431,997	0,55
432,453	0,55
432,909	0,55
433,365	0,55
433,821	0,55
434,277	0,55
434,734	0,55
435,19	0,55
435,646	0,55
436,102	0,55
436,558	0,55
437,014	0,55
437,47	0,55
437,925	0,55
438,381	0,55
438,837	0,55
439,293	0,55
439,749	0,55
440,205	0,55
440,66	0,55
441,116	0,55
441,572	0,55
442,027	0,55
442,483	0,55
442,939	0,55
443,394	0,55
443,85	0,55
444,305	0,55
444,761	0,55
445,216	0,55
445,672	0,55
446,127	0,55
446,582	0,55
447,038	0,55
447,493	0,55
447,948	0,55
448,403	0,55
448,859	0,55
449,314	0,55
449,769	0,55
450,224	0,55
450,679	0,56
451,134	0,56
451,589	0,56
452,044	0,56
452,499	0,56
452,954	0,56
453,409	0,56
453,864	0,56
454,319	0,56
454,774	0,56
455,229	0,56
455,684	0,56
456,138	0,56
456,593	0,56
457,048	0,56
457,503	0,56
457,957	0,56
458,412	0,56
458,866	0,56
459,321	0,56
459,776	0,56
460,23	0,56
460,685	0,56
461,139	0,56
461,593	0,56
462,048	0,56
462,502	0,56
462,957	0,56
463,411	0,56
463,865	0,56
464,319	0,56
464,774	0,56
465,228	0,57
465,682	0,57
466,136	0,57
466,59	0,57
467,044	0,57
467,499	0,57
467,953	0,57
468,407	0,57
468,861	0,57
469,315	0,57
469,768	0,57
470,222	0,57
470,676	0,57
471,13	0,57
471,584	0,57
472,038	0,57
472,491	0,57
472,945	0,57
473,399	0,58
473,852	0,58
474,306	0,58
474,76	0,58
475,213	0,58
475,667	0,58
476,12	0,58
476,574	0,58
477,027	0,58
477,481	0,58
477,934	0,58
478,388	0,59
478,841	0,59
479,294	0,59
479,748	0,59
480,201	0,59
480,654	0,59
481,107	0,59
481,561	0,6
482,014	0,6
482,467	0,6
482,92	0,6
483,373	0,6
483,826	0,6
484,279	0,6
484,732	0,6
485,185	0,61
485,638	0,61
486,091	0,61
486,544	0,61
486,997	0,61
487,449	0,61
487,902	0,62
488,355	0,62
488,808	0,62
489,26	0,62
489,713	0,62
490,166	0,63
490,618	0,63
491,071	0,63
491,523	0,63
491,976	0,63
492,429	0,64
492,881	0,64
493,333	0,64
493,786	0,64
494,238	0,65
494,691	0,65
495,143	0,65
495,595	0,65
496,048	0,66
496,5	0,66
496,952	0,66
497,404	0,66
497,856	0,67
498,309	0,67
498,761	0,67
499,213	0,68
499,665	0,68
500,117	0,68
500,569	0,69
501,021	0,69
501,473	0,69
501,925	0,7
502,377	0,7
502,828	0,7
503,28	0,7
503,732	0,71
504,184	0,71
504,636	0,71
505,087	0,72
505,539	0,72
505,991	0,72
506,442	0,73
506,894	0,73
507,345	0,73
507,797	0,73
508,249	0,74
508,7	0,74
509,151	0,74
509,603	0,75
510,054	0,75
510,506	0,75
510,957	0,76
511,408	0,76
511,86	0,76
512,311	0,77
512,762	0,77
513,213	0,77
513,665	0,77
514,116	0,78
514,567	0,78
515,018	0,78
515,469	0,79
515,92	0,79
516,371	0,79
516,822	0,79
517,273	0,8
517,724	0,8
518,175	0,8
518,626	0,8
519,076	0,81
519,527	0,81
519,978	0,81
520,429	0,81
520,88	0,81
521,33	0,81
521,781	0,82
522,232	0,82
522,682	0,82
523,133	0,82
523,583	0,82
524,034	0,82
524,484	0,82
524,935	0,82
525,385	0,82
525,836	0,82
526,286	0,82
526,736	0,82
527,187	0,82
527,637	0,82
528,087	0,82
528,538	0,82
528,988	0,82
529,438	0,82
529,888	0,82
530,338	0,82
530,788	0,82
531,238	0,82
531,688	0,82
532,139	0,82
532,589	0,82
533,038	0,82
533,488	0,81
533,938	0,81
534,388	0,81
534,838	0,81
535,288	0,81
535,738	0,8
536,187	0,8
536,637	0,8
537,087	0,8
537,537	0,79
537,986	0,79
538,436	0,79
538,885	0,78
539,335	0,78
539,785	0,78
540,234	0,77
540,684	0,77
541,133	0,77
541,582	0,76
542,032	0,76
542,481	0,76
542,931	0,75
543,38	0,75
543,829	0,74
544,278	0,74
544,728	0,74
545,177	0,73
545,626	0,73
546,075	0,73
546,524	0,73
546,973	0,72
547,422	0,72
547,871	0,72
548,32	0,71
548,769	0,71
549,218	0,71
549,667	0,71
550,116	0,71
550,565	0,7
551,014	0,7
551,463	0,7
551,911	0,69
552,36	0,69
552,809	0,69
553,258	0,68
553,706	0,68
554,155	0,68
554,603	0,67
555,052	0,67
555,501	0,67
555,949	0,66
556,398	0,66
556,846	0,66
557,294	0,65
557,743	0,65
558,191	0,64
558,64	0,64
559,088	0,64
559,536	0,63
559,985	0,63
560,433	0,63
560,881	0,62
561,329	0,62
561,777	0,62
562,225	0,61
562,674	0,61
563,122	0,61
563,57	0,61
564,018	0,6
564,466	0,6
564,914	0,6
565,362	0,59
565,809	0,59
566,257	0,59
566,705	0,58
567,153	0,58
567,601	0,58
568,048	0,58
568,496	0,57
568,944	0,57
569,392	0,57
569,839	0,57
570,287	0,56
570,734	0,56
571,182	0,56
571,63	0,56
572,077	0,55
572,525	0,55
572,972	0,55
573,419	0,54
573,867	0,54
574,314	0,54
574,761	0,54
575,209	0,53
575,656	0,53
576,103	0,53
576,551	0,53
576,998	0,52
577,445	0,52
577,892	0,52
578,339	0,52
578,786	0,52
579,233	0,51
579,68	0,51
580,127	0,51
580,574	0,51
581,021	0,5
581,468	0,5
581,915	0,5
582,362	0,5
582,809	0,5
583,255	0,5
583,702	0,49
584,149	0,49
584,596	0,49
585,042	0,49
585,489	0,49
585,936	0,49
586,382	0,48
586,829	0,48
587,275	0,48
587,722	0,48
588,168	0,48
588,615	0,48
589,061	0,47
589,508	0,47
589,954	0,47
590,4	0,47
590,847	0,47
591,293	0,47
591,739	0,47
592,185	0,47
592,632	0,46
593,078	0,46
593,524	0,46
593,97	0,46
594,416	0,46
594,862	0,46
595,308	0,46
595,754	0,46
596,2	0,46
596,646	0,45
597,092	0,45
597,538	0,45
597,984	0,45
598,43	0,45
598,876	0,45
599,321	0,45
599,767	0,45
600,213	0,45
600,659	0,45
601,104	0,44
601,55	0,44
601,995	0,44
602,441	0,44
602,887	0,44
603,332	0,44
603,778	0,44
604,223	0,44
604,668	0,44
605,114	0,44
605,559	0,44
606,005	0,43
606,45	0,43
606,895	0,43
607,341	0,43
607,786	0,43
608,231	0,43
608,676	0,43
609,121	0,42
609,566	0,42
610,012	0,41
610,457	0,41
610,902	0,41
611,347	0,41
611,792	0,4
612,237	0,4
612,682	0,4
613,127	0,4
613,571	0,4
614,016	0,4
614,461	0,41
614,906	0,41
615,351	0,41
615,795	0,41
616,24	0,41
616,685	0,41
617,129	0,41
617,574	0,41
618,019	0,41
618,463	0,41
618,908	0,41
619,352	0,41
619,797	0,41
620,241	0,41
620,686	0,41
621,13	0,41
621,574	0,41
622,019	0,41
622,463	0,4
622,907	0,4
623,352	0,4
623,796	0,4
624,24	0,4
624,684	0,4
625,128	0,4
625,572	0,4
626,016	0,4
626,461	0,4
626,905	0,4
627,349	0,4
627,793	0,4
628,236	0,4
628,68	0,4
629,124	0,4
629,568	0,4
630,012	0,4
630,456	0,4
630,9	0,4
631,343	0,4
631,787	0,4
632,231	0,4
632,674	0,4
633,118	0,4
633,562	0,4
634,005	0,4
634,449	0,4
634,892	0,4
635,336	0,4
635,779	0,4
636,223	0,39
636,666	0,39
637,109	0,39
637,553	0,39
637,996	0,39
638,439	0,39
638,883	0,39
639,326	0,39
639,769	0,39
640,212	0,39
640,655	0,39
641,099	0,39
641,542	0,39
641,985	0,39
642,428	0,39
642,871	0,39
643,314	0,39
643,757	0,39
644,2	0,39
644,643	0,39
645,085	0,38
645,528	0,38
645,971	0,38
646,414	0,38
646,857	0,38
647,299	0,38
647,742	0,38
648,185	0,38
648,627	0,38
649,07	0,38
649,513	0,38
649,955	0,38
650,398	0,38
650,84	0,38
651,283	0,38
651,725	0,38
652,168	0,38
652,61	0,38
653,052	0,38
653,495	0,38
653,937	0,3
654,379	0,24
654,821	0,25
655,264	0,25
655,706	0,25
656,148	0,25
656,59	0,25
657,032	0,25
657,474	0,25
657,916	0,25
658,358	0,24
658,8	0,3
659,242	0,38
659,684	0,38
660,126	0,38
660,568	0,38
661,01	0,38
661,452	0,38
661,894	0,38
662,335	0,38
662,777	0,37
663,219	0,37
663,661	0,37
664,102	0,37
664,544	0,37
664,985	0,37
665,427	0,37
665,869	0,37
666,31	0,37
666,752	0,37
667,193	0,37
667,634	0,37
668,076	0,37
668,517	0,37
668,959	0,37
669,4	0,38
669,841	0,38
670,282	0,38
670,724	0,38
671,165	0,38
671,606	0,38
672,047	0,38
672,488	0,38
672,929	0,37
673,37	0,37
673,811	0,37
674,252	0,37
674,693	0,37
675,134	0,37
675,575	0,37
676,016	0,37
676,457	0,37
676,898	0,37
677,339	0,37
677,78	0,37
678,22	0,37
678,661	0,37
679,102	0,37
679,542	0,37
679,983	0,37
680,424	0,37
680,864	0,37
681,305	0,37
681,745	0,37
682,186	0,37
682,626	0,37
683,067	0,37
683,507	0,37
683,948	0,37
684,388	0,37
684,828	0,36
685,269	0,36
685,709	0,36
686,149	0,36
686,589	0,36
687,029	0,36
687,47	0,36
687,91	0,36
688,35	0,36
688,79	0,36
689,23	0,36
689,67	0,36
690,11	0,36
690,55	0,36
690,99	0,36
691,43	0,36
691,87	0,36
692,31	0,36
692,749	0,36
693,189	0,36
693,629	0,35
694,069	0,35
694,508	0,35
694,948	0,35
695,388	0,35
695,827	0,35
696,267	0,35
696,706	0,36
697,146	0,36
697,586	0,36
698,025	0,36
698,464	0,36
698,904	0,36
699,343	0,36
699,783	0,36
700,222	0,36
700,661	0,36
701,101	0,36
701,54	0,36
701,979	0,36
702,418	0,36
702,857	0,36
703,297	0,36
703,736	0,36
704,175	0,36
704,614	0,36
705,053	0,36
705,492	0,36
705,931	0,36
706,37	0,36
706,809	0,36
707,248	0,35
707,687	0,35
708,125	0,35
708,564	0,35
709,003	0,35
709,442	0,35
709,88	0,35
710,319	0,35
710,758	0,35
711,196	0,35
711,635	0,35
712,074	0,35
712,512	0,35
712,951	0,35
713,389	0,35
713,828	0,35
714,266	0,35
714,705	0,34
715,143	0,34
715,581	0,34
716,02	0,34
716,458	0,34
716,896	0,34
717,334	0,34
717,773	0,34
718,211	0,34
718,649	0,34
719,087	0,34
719,525	0,34
719,963	0,34
720,401	0,34
720,839	0,34
721,277	0,34
721,715	0,34
722,153	0,34
722,591	0,34
723,029	0,34
723,467	0,34
723,905	0,34
724,342	0,34
724,78	0,34
725,218	0,34
725,656	0,34
726,093	0,34
726,531	0,34
726,969	0,34
727,406	0,34
727,844	0,34
728,281	0,34
728,719	0,34
729,156	0,34
729,594	0,34
730,031	0,34
730,469	0,34
730,906	0,34
731,343	0,34
731,781	0,34
732,218	0,34
732,655	0,34
733,092	0,34
733,53	0,34
733,967	0,34
734,404	0,34
734,841	0,34
735,278	0,34
735,715	0,34
736,152	0,34
736,589	0,34
737,026	0,34
737,463	0,33
737,9	0,33
738,337	0,33
738,774	0,33
739,211	0,33
739,647	0,33
740,084	0,33
740,521	0,33
740,958	0,33
741,394	0,33
741,831	0,33
742,268	0,33
742,704	0,33
743,141	0,33
743,577	0,33
744,014	0,33
744,45	0,33
744,887	0,32
745,323	0,32
745,76	0,32
746,196	0,32
746,632	0,32
747,069	0,32
747,505	0,32
747,941	0,32
748,378	0,32
748,814	0,32
749,25	0,32
749,686	0,32
750,122	0,33
750,558	0,33
750,994	0,33
751,43	0,33
751,866	0,33
752,302	0,33
752,738	0,33
753,174	0,34
753,61	0,34
754,046	0,34
754,482	0,34
754,918	0,34
755,354	0,34
755,789	0,34
756,225	0,33
756,661	0,33
757,096	0,33
757,532	0,33
757,968	0,33
758,403	0,33
758,839	0,32
759,274	0,32
759,71	0,32
760,145	0,32
760,581	0,31
761,016	0,31
761,452	0,3
761,887	0,3
762,322	0,3
762,758	0,29
763,193	0,29
763,628	0,28
764,063	0,28
764,499	0,27
764,934	0,27
765,369	0,26
765,804	0,26
766,239	0,25
766,674	0,25
767,109	0,24
767,544	0,24
767,979	0,23
768,414	0,22
768,849	0,21
769,284	0,21
769,719	0,2
770,154	0,19
770,588	0,19
771,023	0,18
771,458	0,17
771,893	0,16
772,327	0,15
772,762	0,14
773,197	0,13
773,631	0,12
774,066	0,11
774,5	0,11
774,935	0,1
775,369	0,09
775,804	0,08
776,238	0,07
776,673	0,07
777,107	0,05
777,541	0,05
777,976	0,04
778,41	0,03
778,844	0,02
779,279	0,01
779,713	0,01
780,147	0
780,581	-0
781,015	-0,02
781,449	-0,02
781,883	-0,03
782,317	-0,04
782,751	-0,05
783,185	-0,06
783,619	-0,07
784,053	-0,08
784,487	-0,09
784,921	-0,09
785,355	-0,1
785,789	-0,1
786,223	-0,12
786,656	-0,13
787,09	-0,14
787,524	-0,14
787,957	-0,15
788,391	-0,17
788,825	-0,18
789,258	-0,19
789,692	-0,21
790,125	-0,22
790,559	-0,24
790,992	-0,26
791,426	-0,28
791,859	-0,29
792,293	-0,33
792,726	-0,34
793,159	-0,36
793,593	-0,38
794,026	-0,4
794,459	-0,43
794,892	-0,46
795,326	-0,48
795,759	-0,52
796,192	-0,56
796,625	-0,61
797,058	-0,63
797,491	-0,67
797,924	-0,71
798,357	-0,76
798,79	-0,81
799,223	-0,85
799,656	-0,9
800,089	-0,95
800,522	-0,99
800,955	-1,04
801,387	-1,09
801,82	-1,15
802,253	-1,21
802,686	-1,29
803,118	-1,34
803,551	-1,4
803,984	-1,44
804,416	-1,48
804,849	-1,51
805,281	-1,63
805,714	-1,97
806,146	-2,42
806,579	-2,69
807,011	-2,86
807,444	-2,96
807,876	-3,05
808,308	-3,08
808,741	-3,11
809,173	-3,16
809,605	-3,18
810,037	-3,26
810,47	-3,18
810,902	-2,99
811,334	-2,84
811,766	-2,69
812,198	-2,45
812,63	-2,02
813,062	-1,8
813,494	-1,7
813,926	-1,61
814,358	-1,56
814,79	-1,48
815,222	-1,42
815,654	-1,37
816,086	-1,3
816,518	-1,25
816,949	-1,19
817,381	-1,15
817,813	-1,13
818,245	-1,09
818,676	-1,05
819,108	-1,02
819,54	-1
819,971	-0,98
820,403	-0,93
820,834	-0,91
821,266	-0,86
821,697	-0,84
822,129	-0,83
822,56	-0,8
822,991	-0,78
823,423	-0,75
823,854	-0,74
824,286	-0,72
824,717	-0,7
825,148	-0,69
825,579	-0,69
826,01	-0,67
826,442	-0,67
826,873	-0,65
827,304	-0,61
827,735	-0,61
828,166	-0,61
828,597	-0,6
829,028	-0,59
829,459	-0,6
829,89	-0,59
830,321	-0,55
830,752	-0,55
831,183	-0,55
831,613	-0,54
832,044	-0,54
832,475	-0,52
832,906	-0,53
833,336	-0,54
833,767	-0,54
834,198	-0,54
834,628	-0,52
835,059	-0,55
835,49	-0,56
835,92	-0,53
836,351	-0,53
836,781	-0,53
837,212	-0,55
837,642	-0,56
838,072	-0,54
838,503	-0,55
838,933	-0,53
839,364	-0,53
839,794	-0,51
840,224	-0,51
840,654	-0,55
841,085	-0,55
841,515	-0,53
841,945	-0,53
842,375	-0,48
842,805	-0,46
843,235	-0,45
843,665	-0,46
844,095	-0,45
844,525	-0,47
844,955	-0,47
845,385	-0,44
845,815	-0,42
846,245	-0,44
846,675	-0,44
847,105	-0,46
847,534	-0,47
847,964	-0,46
848,394	-0,45
848,824	-0,47
849,253	-0,46
849,683	-0,46
850,112	-0,48
850,542	-0,52
850,972	-0,52
851,401	-0,5
851,831	-0,48
852,26	-0,49
852,69	-0,53
853,119	-0,53
853,548	-0,54
853,978	-0,55
854,407	-0,52
854,836	-0,53
855,266	-0,52
855,695	-0,53
856,124	-0,55
856,553	-0,57
856,983	-0,58
857,412	-0,57
857,841	-0,58
858,27	-0,58
858,699	-0,58
859,128	-0,62
859,557	-0,62
859,986	-0,63
860,415	-0,6
860,844	-0,57
861,273	-0,56
861,702	-0,57
862,13	-0,55
862,559	-0,56
862,988	-0,54
863,417	-0,52
863,845	-0,51
864,274	-0,52
864,703	-0,51
865,131	-0,52
865,56	-0,53
865,989	-0,55
866,417	-0,51
866,846	-0,52
867,274	-0,52
867,703	-0,54
868,131	-0,55
868,559	-0,55
868,988	-0,57
869,416	-0,57
869,844	-0,58
870,273	-0,61
870,701	-0,59
871,129	-0,63
871,557	-0,65
871,986	-0,67
872,414	-0,67
872,842	-0,64
873,27	-0,62
873,698	-0,59
874,126	-0,62
874,554	-0,6
874,982	-0,61
875,41	-0,63
875,838	-0,59
876,266	-0,56
876,694	-0,55
877,122	-0,55
877,549	-0,6
877,977	-0,58
878,405	-0,62
878,833	-0,58
879,26	-0,57
879,688	-0,56
880,116	-0,54
880,543	-0,53
880,971	-0,52
881,399	-0,55
881,826	-0,56
882,254	-0,54
882,681	-0,57
883,109	-0,52
883,536	-0,54
883,963	-0,55
884,391	-0,54
884,818	-0,53
885,245	-0,56
885,673	-0,59
886,1	-0,56
886,527	-0,55
886,954	-0,51
887,381	-0,53
887,809	-0,54
888,236	-0,57
888,663	-0,57
889,09	-0,61
889,517	-0,63
889,944	-0,63
890,371	-0,61
890,798	-0,61
891,225	-0,61
891,652	-0,65
892,078	-0,62
892,505	-0,65
892,932	-0,59
893,359	-0,6
893,786	-0,6
894,212	-0,57
894,639	-0,58
895,066	-0,6
895,492	-0,54
895,919	-0,54
896,346	-0,54
896,772	-0,54
897,199	-0,51
897,625	-0,54
898,052	-0,5
898,478	-0,49
898,904	-0,51
899,331	-0,5
899,757	-0,52
900,183	-0,55
900,61	-0,53
901,036	-0,53
901,462	-0,53
901,888	-0,52
902,315	-0,51
902,741	-0,56
903,167	-0,54
903,593	-0,56
904,019	-0,54
904,445	-0,51
904,871	-0,54
905,297	-0,56
905,723	-0,55
906,149	-0,54
906,575	-0,56
907,001	-0,57
907,427	-0,53
907,852	-0,54
908,278	-0,55
908,704	-0,53
909,13	-0,53
909,555	-0,52
909,981	-0,52
910,407	-0,52
910,832	-0,52
911,258	-0,52
911,684	-0,52
912,109	-0,52
912,535	-0,53
912,96	-0,49
913,386	-0,54
913,811	-0,53
914,236	-0,54
914,662	-0,52
915,087	-0,55
915,512	-0,55
915,938	-0,57
916,363	-0,57
916,788	-0,59
917,213	-0,56
917,639	-0,6
918,064	-0,58
918,489	-0,58
918,914	-0,58
919,339	-0,59
919,764	-0,56
920,189	-0,56
920,614	-0,59
921,039	-0,59
921,464	-0,54
921,889	-0,57
922,314	-0,59
922,738	-0,62
923,163	-0,64
923,588	-0,64
924,013	-0,63
924,437	-0,64
924,862	-0,65
925,287	-0,6
925,711	-0,61
926,136	-0,63
926,561	-0,6
926,985	-0,59
927,41	-0,57
927,834	-0,55
928,259	-0,51
928,683	-0,49
929,108	-0,47
929,532	-0,48
929,956	-0,48
930,381	-0,47
930,805	-0,46
931,229	-0,46
931,653	-0,44
932,078	-0,43
932,502	-0,44
932,926	-0,45
933,35	-0,45
933,774	-0,44
934,198	-0,42
934,622	-0,41
935,046	-0,42
935,47	-0,42
935,894	-0,42
936,318	-0,42
936,742	-0,42
937,166	-0,42
937,59	-0,41
938,014	-0,43
938,437	-0,43
938,861	-0,45
939,285	-0,46
939,709	-0,45
940,132	-0,45
940,556	-0,46
940,98	-0,46
941,403	-0,44
941,827	-0,45
942,25	-0,46
942,674	-0,45
943,097	-0,45
943,521	-0,45
943,944	-0,45
944,368	-0,44
944,791	-0,43
945,214	-0,45
945,638	-0,45
946,061	-0,49
946,484	-0,5
946,907	-0,48
947,331	-0,48
947,754	-0,52
948,177	-0,5
948,6	-0,5
949,023	-0,51
949,446	-0,5
949,869	-0,48
950,292	-0,48
950,715	-0,45
951,138	-0,44
951,561	-0,42
951,984	-0,42
952,407	-0,4
952,83	-0,39
953,252	-0,36
953,675	-0,36
954,098	-0,37
954,521	-0,36
954,943	-0,35
955,366	-0,36
955,789	-0,34
956,211	-0,37
956,634	-0,37
957,056	-0,36
957,479	-0,37
957,902	-0,39
958,324	-0,39
958,746	-0,38
959,169	-0,38
959,591	-0,39
960,014	-0,41
960,436	-0,4
960,858	-0,39
961,281	-0,39
961,703	-0,4
962,125	-0,39
962,547	-0,37
962,969	-0,37
963,391	-0,38
963,814	-0,39
964,236	-0,37
964,658	-0,34
965,08	-0,35
965,502	-0,35
965,924	-0,33
966,346	-0,33
966,768	-0,32
967,189	-0,34
967,611	-0,33
968,033	-0,33
968,455	-0,31
968,877	-0,32
969,298	-0,33
969,72	-0,34
970,142	-0,33
970,563	-0,33
970,985	-0,32
971,407	-0,31
971,828	-0,29
972,25	-0,29
972,671	-0,27
973,093	-0,26
973,514	-0,25
973,936	-0,23
974,357	-0,22
974,778	-0,22
975,2	-0,22
975,621	-0,22
976,042	-0,21
976,464	-0,2
976,885	-0,19
977,306	-0,18
977,727	-0,18
978,148	-0,17
978,57	-0,16
978,991	-0,14
979,412	-0,13
979,833	-0,11
980,254	-0,1
980,675	-0,1
981,096	-0,09
981,517	-0,08
981,937	-0,08
982,358	-0,07
982,779	-0,05
983,2	-0,05
983,621	-0,05
984,042	-0,03
984,462	-0,03
984,883	-0,01
985,304	-0
985,724	0,01
986,145	0,01
986,565	0,03
986,986	0,04
987,407	0,05
987,827	0,06
988,248	0,07
988,668	0,09
989,088	0,1
989,509	0,11
989,929	0,12
990,35	0,13
990,77	0,14
991,19	0,15
991,61	0,16
992,031	0,17
992,451	0,18
992,871	0,18
993,291	0,19
993,711	0,19
994,131	0,2
994,551	0,2
994,971	0,21
995,391	0,21
995,811	0,22
996,231	0,22
996,651	0,22
997,071	0,23
997,491	0,24
997,911	0,25
998,331	0,25
998,75	0,25
999,17	0,26
999,59	0,26
1000,009	0,27
1000,429	0,27
1000,849	0,27
1001,268	0,28
1001,688	0,28
1002,107	0,28
1002,527	0,29
1002,946	0,29
1003,366	0,29
1003,785	0,29
1004,205	0,3
1004,624	0,3
1005,044	0,3
1005,463	0,3
1005,882	0,3
1006,301	0,3
1006,721	0,31
1007,14	0,31
1007,559	0,31
1007,978	0,31
1008,397	0,31
1008,816	0,31
1009,235	0,31
1009,655	0,31
1010,074	0,31
1010,492	0,31
1010,911	0,3
1011,33	0,3
1011,749	0,3
1012,168	0,3
1012,587	0,3
1013,006	0,3
1013,425	0,3
1013,843	0,3
1014,262	0,3
1014,681	0,3
1015,099	0,3
1015,518	0,3
1015,937	0,29
1016,355	0,29
1016,774	0,29
1017,192	0,3
1017,611	0,3
1018,029	0,3
1018,448	0,3
1018,866	0,3
1019,285	0,3
1019,703	0,3
1020,121	0,3
1020,54	0,3
1020,958	0,3
1021,376	0,3
1021,794	0,3
1022,213	0,3
1022,631	0,3
1023,049	0,3
1023,467	0,29
1023,885	0,29
1024,303	0,29
1024,721	0,29
1025,139	0,29
1025,557	0,29
1025,975	0,29
1026,393	0,29
1026,811	0,29
1027,229	0,29
1027,647	0,29
1028,065	0,29
1028,482	0,29
1028,9	0,29
1029,318	0,29
1029,735	0,29
1030,153	0,29
1030,571	0,29
1030,988	0,29
1031,406	0,29
1031,823	0,29
1032,241	0,29
1032,659	0,29
1033,076	0,29
1033,493	0,29
1033,911	0,29
1034,328	0,29
1034,746	0,29
1035,163	0,29
1035,58	0,29
1035,997	0,29
1036,415	0,29
1036,832	0,29
1037,249	0,29
1037,666	0,29
1038,083	0,29
1038,501	0,29
1038,918	0,29
1039,335	0,29
1039,752	0,29
1040,169	0,29
1040,586	0,29
1041,003	0,29
1041,419	0,29
1041,836	0,28
1042,253	0,28
1042,67	0,28
1043,087	0,28
1043,504	0,28
1043,92	0,28
1044,337	0,28
1044,754	0,28
1045,17	0,28
1045,587	0,28
1046,004	0,28
1046,42	0,28
1046,837	0,28
1047,253	0,28
1047,67	0,28
1048,086	0,28
1048,503	0,28
1048,919	0,28
1049,335	0,28
1049,752	0,28
1050,168	0,28
1050,584	0,28
1051,001	0,28
1051,417	0,28
1051,833	0,28
1052,249	0,28
1052,665	0,28
1053,081	0,28
1053,497	0,28
1053,914	0,28
1054,33	0,29
1054,746	0,29
1055,162	0,29
1055,578	0,29
1055,993	0,29
1056,409	0,29
1056,825	0,29
1057,241	0,29
1057,657	0,29
1058,073	0,29
1058,488	0,29
1058,904	0,29
1059,32	0,29
1059,736	0,29
1060,151	0,29
1060,567	0,29
1060,982	0,29
1061,398	0,29
1061,813	0,29
1062,229	0,29
1062,644	0,29
1063,06	0,29
1063,475	0,29
1063,891	0,29
1064,306	0,29
1064,721	0,29
1065,137	0,29
1065,552	0,29
1065,967	0,29
1066,382	0,29
1066,798	0,29
1067,213	0,29
1067,628	0,29
1068,043	0,29
1068,458	0,29
1068,873	0,29
1069,288	0,29
1069,703	0,29
1070,118	0,29
1070,533	0,29
1070,948	0,29
1071,363	0,29
1071,778	0,29
1072,193	0,29
1072,607	0,29
1073,022	0,29
1073,437	0,29
1073,852	0,29
1074,266	0,29
1074,681	0,29
1075,096	0,29
1075,51	0,29
1075,925	0,29
1076,339	0,29
1076,754	0,29
1077,168	0,29
1077,583	0,29
1077,997	0,29
1078,412	0,29
1078,826	0,29
1079,24	0,29
1079,655	0,28
1080,069	0,28
1080,483	0,28
1080,897	0,28
1081,312	0,28
1081,726	0,28
1082,14	0,28
1082,554	0,28
1082,968	0,28
1083,382	0,28
1083,796	0,28
1084,21	0,28
1084,624	0,28
1085,038	0,27
1085,452	0,27
1085,866	0,27
1086,28	0,27
1086,694	0,27
1087,108	0,27
1087,521	0,27
1087,935	0,27
1088,349	0,27
1088,763	0,26
1089,176	0,26
1089,59	0,26
1090,004	0,26
1090,417	0,26
1090,831	0,25
1091,244	0,25
1091,658	0,25
1092,071	0,25
1092,485	0,24
1092,898	0,24
1093,312	0,24
1093,725	0,24
1094,138	0,24
1094,552	0,23
1094,965	0,23
1095,378	0,23
1095,791	0,23
1096,205	0,23
1096,618	0,23
1097,031	0,23
1097,444	0,22
1097,857	0,22
1098,27	0,22
1098,683	0,22
1099,096	0,22
1099,509	0,21
1099,922	0,21
1100,335	0,2
1100,748	0,2
1101,161	0,2
1101,574	0,2
1101,986	0,2
1102,399	0,19
1102,812	0,19
1103,225	0,19
1103,637	0,18
1104,05	0,18
1104,463	0,18
1104,875	0,18
1105,288	0,17
1105,7	0,17
1106,113	0,17
1106,525	0,16
1106,938	0,16
1107,35	0,15
1107,763	0,15
1108,175	0,15
1108,588	0,15
1109	0,14
1109,412	0,14
1109,824	0,14
1110,237	0,14
1110,649	0,14
1111,061	0,13
