Data from 18C-808nm-8A-cont_Absorbance__247__01676.txt Node

Date: Mon Jul 17 17:26:53 CEST 2023
User: Laser008
Spectrometer: MAYP115816
Trigger mode: 0
Integration Time (sec): 2,500000E-1
Scans to average: 10
Electric dark correction enabled: true
Nonlinearity correction enabled: true
Boxcar width: 5
XAxis mode: Wavelengths
Number of Pixels in Spectrum: 2068
>>>>>Begin Spectral Data<<<<<
198,914	-0,64
199,384	-0,44
199,855	-0,32
200,325	-0,23
200,796	-0,2
201,266	-0,16
201,737	-0,16
202,207	-0,15
202,677	-0,14
203,147	-0,13
203,618	-0,09
204,088	-0,07
204,558	-0,07
205,028	-0,06
205,498	-0,07
205,968	-0,08
206,439	-0,1
206,909	-0,09
207,379	-0,09
207,849	-0,1
208,319	-0,1
208,789	-0,11
209,258	-0,12
209,728	-0,13
210,198	-0,13
210,668	-0,12
211,138	-0,11
211,608	-0,11
212,077	-0,11
212,547	-0,1
213,017	-0,11
213,486	-0,11
213,956	-0,11
214,426	-0,12
214,895	-0,11
215,365	-0,12
215,834	-0,12
216,304	-0,13
216,773	-0,13
217,243	-0,15
217,712	-0,16
218,181	-0,17
218,651	-0,16
219,12	-0,16
219,589	-0,16
220,058	-0,15
220,528	-0,16
220,997	-0,17
221,466	-0,18
221,935	-0,18
222,404	-0,18
222,873	-0,18
223,342	-0,17
223,812	-0,17
224,281	-0,17
224,749	-0,17
225,218	-0,18
225,687	-0,18
226,156	-0,17
226,625	-0,15
227,094	-0,15
227,563	-0,14
228,031	-0,16
228,5	-0,16
228,969	-0,16
229,438	-0,16
229,906	-0,14
230,375	-0,13
230,844	-0,13
231,312	-0,14
231,781	-0,15
232,249	-0,14
232,718	-0,15
233,186	-0,13
233,655	-0,13
234,123	-0,13
234,591	-0,14
235,06	-0,15
235,528	-0,15
235,996	-0,14
236,465	-0,15
236,933	-0,14
237,401	-0,14
237,869	-0,13
238,337	-0,13
238,805	-0,12
239,274	-0,12
239,742	-0,12
240,21	-0,12
240,678	-0,11
241,146	-0,1
241,614	-0,1
242,081	-0,1
242,549	-0,1
243,017	-0,11
243,485	-0,11
243,953	-0,11
244,421	-0,1
244,888	-0,1
245,356	-0,1
245,824	-0,1
246,291	-0,1
246,759	-0,1
247,227	-0,11
247,694	-0,1
248,162	-0,09
248,629	-0,08
249,097	-0,09
249,564	-0,1
250,032	-0,11
250,499	-0,11
250,967	-0,11
251,434	-0,13
251,901	-0,13
252,369	-0,13
252,836	-0,13
253,303	-0,15
253,77	-0,17
254,237	-0,16
254,705	-0,16
255,172	-0,16
255,639	-0,16
256,106	-0,17
256,573	-0,17
257,04	-0,17
257,507	-0,17
257,974	-0,18
258,441	-0,16
258,908	-0,17
259,375	-0,18
259,841	-0,18
260,308	-0,19
260,775	-0,18
261,242	-0,17
261,709	-0,18
262,175	-0,19
262,642	-0,18
263,109	-0,17
263,575	-0,18
264,042	-0,16
264,508	-0,16
264,975	-0,17
265,441	-0,18
265,908	-0,19
266,374	-0,18
266,841	-0,18
267,307	-0,18
267,773	-0,18
268,24	-0,18
268,706	-0,19
269,172	-0,2
269,639	-0,21
270,105	-0,18
270,571	-0,18
271,037	-0,18
271,503	-0,19
271,969	-0,18
272,435	-0,18
272,902	-0,2
273,368	-0,22
273,834	-0,21
274,3	-0,21
274,765	-0,2
275,231	-0,21
275,697	-0,21
276,163	-0,2
276,629	-0,2
277,095	-0,21
277,56	-0,21
278,026	-0,21
278,492	-0,19
278,958	-0,19
279,423	-0,19
279,889	-0,18
280,354	-0,19
280,82	-0,19
281,286	-0,2
281,751	-0,2
282,217	-0,2
282,682	-0,2
283,147	-0,2
283,613	-0,2
284,078	-0,2
284,544	-0,21
285,009	-0,22
285,474	-0,21
285,939	-0,23
286,405	-0,22
286,87	-0,22
287,335	-0,21
287,8	-0,2
288,265	-0,19
288,73	-0,2
289,195	-0,22
289,66	-0,21
290,125	-0,19
290,59	-0,2
291,055	-0,19
291,52	-0,19
291,985	-0,19
292,45	-0,21
292,915	-0,21
293,38	-0,21
293,844	-0,18
294,309	-0,17
294,774	-0,17
295,239	-0,19
295,703	-0,18
296,168	-0,18
296,632	-0,17
297,097	-0,15
297,562	-0,13
298,026	-0,14
298,491	-0,14
298,955	-0,13
299,419	-0,13
299,884	-0,13
300,348	-0,12
300,813	-0,12
301,277	-0,12
301,741	-0,12
302,205	-0,13
302,67	-0,12
303,134	-0,12
303,598	-0,12
304,062	-0,11
304,526	-0,11
304,99	-0,13
305,454	-0,12
305,919	-0,13
306,383	-0,13
306,847	-0,13
307,31	-0,13
307,774	-0,14
308,238	-0,14
308,702	-0,14
309,166	-0,16
309,63	-0,15
310,094	-0,12
310,557	-0,12
311,021	-0,1
311,485	-0,11
311,948	-0,11
312,412	-0,1
312,876	-0,09
313,339	-0,1
313,803	-0,11
314,266	-0,1
314,73	-0,1
315,193	-0,11
315,657	-0,1
316,12	-0,1
316,584	-0,09
317,047	-0,09
317,51	-0,07
317,973	-0,08
318,437	-0,06
318,9	-0,04
319,363	-0,04
319,826	-0,03
320,29	-0,03
320,753	-0,03
321,216	-0,03
321,679	-0,03
322,142	-0,03
322,605	-0,04
323,068	-0,04
323,531	-0,04
323,994	-0,04
324,457	-0,04
324,92	-0,03
325,382	-0,04
325,845	-0,03
326,308	-0,02
326,771	-0,02
327,233	-0,01
327,696	0
328,159	0,01
328,622	0,01
329,084	0,01
329,547	0,03
330,009	0,02
330,472	0,03
330,934	0,03
331,397	0,04
331,859	0,04
332,322	0,03
332,784	0,03
333,246	0,04
333,709	0,04
334,171	0,04
334,633	0,04
335,096	0,05
335,558	0,05
336,02	0,05
336,482	0,05
336,944	0,07
337,406	0,07
337,868	0,07
338,331	0,08
338,793	0,09
339,255	0,1
339,717	0,11
340,178	0,11
340,64	0,12
341,102	0,13
341,564	0,14
342,026	0,15
342,488	0,16
342,949	0,18
343,411	0,21
343,873	0,23
344,335	0,26
344,796	0,29
345,258	0,34
345,719	0,38
346,181	0,42
346,643	0,46
347,104	0,49
347,566	0,52
348,027	0,54
348,488	0,56
348,95	0,58
349,411	0,6
349,873	0,62
350,334	0,63
350,795	0,65
351,256	0,65
351,718	0,66
352,179	0,67
352,64	0,67
353,101	0,67
353,562	0,68
354,023	0,68
354,484	0,68
354,945	0,68
355,406	0,69
355,867	0,69
356,328	0,69
356,789	0,69
357,25	0,69
357,711	0,7
358,172	0,7
358,633	0,7
359,093	0,7
359,554	0,7
360,015	0,7
360,476	0,7
360,936	0,7
361,397	0,7
361,858	0,71
362,318	0,71
362,779	0,71
363,239	0,71
363,7	0,71
364,16	0,71
364,621	0,71
365,081	0,71
365,541	0,71
366,002	0,71
366,462	0,71
366,922	0,71
367,383	0,71
367,843	0,71
368,303	0,71
368,763	0,71
369,223	0,71
369,684	0,71
370,144	0,71
370,604	0,71
371,064	0,71
371,524	0,71
371,984	0,71
372,444	0,71
372,904	0,71
373,363	0,71
373,823	0,71
374,283	0,71
374,743	0,7
375,203	0,7
375,663	0,7
376,122	0,7
376,582	0,7
377,042	0,7
377,501	0,7
377,961	0,7
378,42	0,7
378,88	0,7
379,34	0,7
379,799	0,7
380,259	0,7
380,718	0,7
381,177	0,7
381,637	0,7
382,096	0,7
382,555	0,7
383,015	0,7
383,474	0,7
383,933	0,7
384,393	0,7
384,852	0,7
385,311	0,7
385,77	0,7
386,229	0,7
386,688	0,7
387,147	0,7
387,606	0,7
388,065	0,7
388,524	0,7
388,983	0,69
389,442	0,69
389,901	0,69
390,36	0,69
390,819	0,69
391,277	0,69
391,736	0,69
392,195	0,69
392,654	0,69
393,112	0,69
393,571	0,69
394,03	0,69
394,488	0,69
394,947	0,69
395,405	0,69
395,864	0,69
396,322	0,69
396,781	0,69
397,239	0,69
397,698	0,69
398,156	0,69
398,614	0,69
399,073	0,69
399,531	0,69
399,989	0,69
400,447	0,69
400,905	0,69
401,364	0,69
401,822	0,69
402,28	0,68
402,738	0,68
403,196	0,68
403,654	0,68
404,112	0,68
404,57	0,68
405,028	0,68
405,486	0,68
405,944	0,68
406,402	0,68
406,859	0,68
407,317	0,68
407,775	0,68
408,233	0,68
408,691	0,68
409,148	0,68
409,606	0,68
410,064	0,68
410,521	0,68
410,979	0,68
411,436	0,68
411,894	0,68
412,351	0,68
412,809	0,68
413,266	0,68
413,724	0,68
414,181	0,68
414,638	0,68
415,096	0,68
415,553	0,68
416,01	0,68
416,467	0,68
416,925	0,68
417,382	0,68
417,839	0,68
418,296	0,68
418,753	0,68
419,21	0,68
419,667	0,68
420,124	0,68
420,581	0,68
421,038	0,68
421,495	0,68
421,952	0,68
422,409	0,68
422,866	0,68
423,322	0,68
423,779	0,68
424,236	0,68
424,693	0,68
425,149	0,68
425,606	0,68
426,063	0,68
426,519	0,68
426,976	0,68
427,433	0,68
427,889	0,68
428,346	0,68
428,802	0,67
429,258	0,67
429,715	0,67
430,171	0,67
430,628	0,67
431,084	0,67
431,54	0,67
431,997	0,67
432,453	0,67
432,909	0,67
433,365	0,67
433,821	0,67
434,277	0,67
434,734	0,67
435,19	0,67
435,646	0,67
436,102	0,67
436,558	0,67
437,014	0,67
437,47	0,67
437,925	0,67
438,381	0,67
438,837	0,67
439,293	0,67
439,749	0,67
440,205	0,67
440,66	0,67
441,116	0,67
441,572	0,67
442,027	0,67
442,483	0,67
442,939	0,67
443,394	0,67
443,85	0,67
444,305	0,67
444,761	0,67
445,216	0,67
445,672	0,67
446,127	0,67
446,582	0,67
447,038	0,68
447,493	0,68
447,948	0,68
448,403	0,68
448,859	0,68
449,314	0,68
449,769	0,68
450,224	0,68
450,679	0,68
451,134	0,68
451,589	0,68
452,044	0,68
452,499	0,68
452,954	0,68
453,409	0,68
453,864	0,68
454,319	0,68
454,774	0,68
455,229	0,68
455,684	0,68
456,138	0,68
456,593	0,68
457,048	0,68
457,503	0,68
457,957	0,68
458,412	0,68
458,866	0,68
459,321	0,68
459,776	0,68
460,23	0,68
460,685	0,68
461,139	0,68
461,593	0,68
462,048	0,68
462,502	0,69
462,957	0,69
463,411	0,69
463,865	0,69
464,319	0,69
464,774	0,69
465,228	0,69
465,682	0,69
466,136	0,69
466,59	0,69
467,044	0,69
467,499	0,69
467,953	0,7
468,407	0,7
468,861	0,7
469,315	0,7
469,768	0,7
470,222	0,7
470,676	0,7
471,13	0,7
471,584	0,7
472,038	0,7
472,491	0,7
472,945	0,7
473,399	0,7
473,852	0,71
474,306	0,71
474,76	0,71
475,213	0,71
475,667	0,71
476,12	0,71
476,574	0,71
477,027	0,71
477,481	0,71
477,934	0,72
478,388	0,72
478,841	0,72
479,294	0,72
479,748	0,72
480,201	0,72
480,654	0,73
481,107	0,73
481,561	0,73
482,014	0,73
482,467	0,73
482,92	0,73
483,373	0,73
483,826	0,74
484,279	0,74
484,732	0,74
485,185	0,74
485,638	0,74
486,091	0,74
486,544	0,75
486,997	0,75
487,449	0,75
487,902	0,75
488,355	0,75
488,808	0,76
489,26	0,76
489,713	0,76
490,166	0,76
490,618	0,77
491,071	0,77
491,523	0,77
491,976	0,77
492,429	0,78
492,881	0,78
493,333	0,78
493,786	0,79
494,238	0,79
494,691	0,79
495,143	0,79
495,595	0,8
496,048	0,8
496,5	0,8
496,952	0,81
497,404	0,81
497,856	0,81
498,309	0,82
498,761	0,82
499,213	0,82
499,665	0,83
500,117	0,83
500,569	0,83
501,021	0,84
501,473	0,84
501,925	0,84
502,377	0,85
502,828	0,85
503,28	0,86
503,732	0,86
504,184	0,86
504,636	0,87
505,087	0,87
505,539	0,87
505,991	0,88
506,442	0,88
506,894	0,89
507,345	0,89
507,797	0,89
508,249	0,9
508,7	0,9
509,151	0,9
509,603	0,91
510,054	0,91
510,506	0,91
510,957	0,92
511,408	0,92
511,86	0,92
512,311	0,93
512,762	0,93
513,213	0,93
513,665	0,94
514,116	0,94
514,567	0,94
515,018	0,95
515,469	0,95
515,92	0,95
516,371	0,95
516,822	0,96
517,273	0,96
517,724	0,96
518,175	0,97
518,626	0,97
519,076	0,97
519,527	0,97
519,978	0,98
520,429	0,98
520,88	0,98
521,33	0,98
521,781	0,98
522,232	0,98
522,682	0,99
523,133	0,99
523,583	0,99
524,034	0,99
524,484	0,99
524,935	0,99
525,385	0,99
525,836	0,99
526,286	0,99
526,736	0,99
527,187	0,99
527,637	0,99
528,087	0,99
528,538	0,99
528,988	0,99
529,438	0,99
529,888	0,99
530,338	0,99
530,788	0,99
531,238	0,99
531,688	0,98
532,139	0,98
532,589	0,98
533,038	0,98
533,488	0,98
533,938	0,98
534,388	0,97
534,838	0,97
535,288	0,97
535,738	0,97
536,187	0,96
536,637	0,96
537,087	0,96
537,537	0,95
537,986	0,95
538,436	0,95
538,885	0,94
539,335	0,94
539,785	0,93
540,234	0,93
540,684	0,93
541,133	0,92
541,582	0,92
542,032	0,91
542,481	0,91
542,931	0,9
543,38	0,9
543,829	0,89
544,278	0,89
544,728	0,89
545,177	0,88
545,626	0,88
546,075	0,88
546,524	0,87
546,973	0,87
547,422	0,87
547,871	0,86
548,32	0,86
548,769	0,86
549,218	0,85
549,667	0,85
550,116	0,85
550,565	0,84
551,014	0,84
551,463	0,83
551,911	0,83
552,36	0,83
552,809	0,82
553,258	0,82
553,706	0,81
554,155	0,81
554,603	0,81
555,052	0,8
555,501	0,8
555,949	0,79
556,398	0,79
556,846	0,79
557,294	0,78
557,743	0,78
558,191	0,77
558,64	0,77
559,088	0,76
559,536	0,76
559,985	0,75
560,433	0,75
560,881	0,75
561,329	0,74
561,777	0,74
562,225	0,74
562,674	0,73
563,122	0,73
563,57	0,73
564,018	0,72
564,466	0,72
564,914	0,71
565,362	0,71
565,809	0,71
566,257	0,7
566,705	0,7
567,153	0,7
567,601	0,69
568,048	0,69
568,496	0,69
568,944	0,68
569,392	0,68
569,839	0,68
570,287	0,67
570,734	0,67
571,182	0,67
571,63	0,66
572,077	0,66
572,525	0,66
572,972	0,65
573,419	0,65
573,867	0,65
574,314	0,64
574,761	0,64
575,209	0,64
575,656	0,63
576,103	0,63
576,551	0,63
576,998	0,63
577,445	0,62
577,892	0,62
578,339	0,62
578,786	0,62
579,233	0,61
579,68	0,61
580,127	0,61
580,574	0,6
581,021	0,6
581,468	0,6
581,915	0,6
582,362	0,6
582,809	0,59
583,255	0,59
583,702	0,59
584,149	0,59
584,596	0,59
585,042	0,58
585,489	0,58
585,936	0,58
586,382	0,58
586,829	0,58
587,275	0,57
587,722	0,57
588,168	0,57
588,615	0,57
589,061	0,56
589,508	0,56
589,954	0,56
590,4	0,56
590,847	0,56
591,293	0,56
591,739	0,55
592,185	0,55
592,632	0,55
593,078	0,55
593,524	0,55
593,97	0,55
594,416	0,55
594,862	0,55
595,308	0,54
595,754	0,54
596,2	0,54
596,646	0,54
597,092	0,54
597,538	0,54
597,984	0,54
598,43	0,53
598,876	0,53
599,321	0,53
599,767	0,53
600,213	0,53
600,659	0,53
601,104	0,53
601,55	0,53
601,995	0,53
602,441	0,52
602,887	0,52
603,332	0,52
603,778	0,52
604,223	0,52
604,668	0,52
605,114	0,52
605,559	0,52
606,005	0,52
606,45	0,51
606,895	0,51
607,341	0,51
607,786	0,51
608,231	0,51
608,676	0,51
609,121	0,5
609,566	0,49
610,012	0,49
610,457	0,49
610,902	0,49
611,347	0,48
611,792	0,48
612,237	0,48
612,682	0,48
613,127	0,48
613,571	0,48
614,016	0,48
614,461	0,48
614,906	0,48
615,351	0,49
615,795	0,49
616,24	0,49
616,685	0,49
617,129	0,49
617,574	0,49
618,019	0,49
618,463	0,49
618,908	0,49
619,352	0,49
619,797	0,49
620,241	0,48
620,686	0,48
621,13	0,48
621,574	0,48
622,019	0,48
622,463	0,48
622,907	0,48
623,352	0,48
623,796	0,48
624,24	0,48
624,684	0,48
625,128	0,48
625,572	0,48
626,016	0,48
626,461	0,48
626,905	0,48
627,349	0,48
627,793	0,47
628,236	0,47
628,68	0,47
629,124	0,47
629,568	0,47
630,012	0,47
630,456	0,47
630,9	0,47
631,343	0,47
631,787	0,47
632,231	0,47
632,674	0,47
633,118	0,47
633,562	0,47
634,005	0,47
634,449	0,47
634,892	0,47
635,336	0,47
635,779	0,47
636,223	0,47
636,666	0,47
637,109	0,47
637,553	0,47
637,996	0,47
638,439	0,47
638,883	0,47
639,326	0,47
639,769	0,47
640,212	0,46
640,655	0,46
641,099	0,46
641,542	0,46
641,985	0,46
642,428	0,46
642,871	0,46
643,314	0,46
643,757	0,46
644,2	0,46
644,643	0,46
645,085	0,46
645,528	0,46
645,971	0,46
646,414	0,46
646,857	0,46
647,299	0,45
647,742	0,45
648,185	0,45
648,627	0,45
649,07	0,45
649,513	0,45
649,955	0,45
650,398	0,45
650,84	0,45
651,283	0,45
651,725	0,45
652,168	0,46
652,61	0,46
653,052	0,46
653,495	0,46
653,937	0,37
654,379	0,31
654,821	0,32
655,264	0,32
655,706	0,32
656,148	0,32
656,59	0,32
657,032	0,32
657,474	0,32
657,916	0,32
658,358	0,31
658,8	0,37
659,242	0,45
659,684	0,45
660,126	0,45
660,568	0,45
661,01	0,45
661,452	0,45
661,894	0,45
662,335	0,45
662,777	0,45
663,219	0,45
663,661	0,45
664,102	0,45
664,544	0,44
664,985	0,44
665,427	0,44
665,869	0,44
666,31	0,44
666,752	0,44
667,193	0,44
667,634	0,44
668,076	0,44
668,517	0,44
668,959	0,45
669,4	0,45
669,841	0,45
670,282	0,45
670,724	0,45
671,165	0,45
671,606	0,45
672,047	0,45
672,488	0,45
672,929	0,45
673,37	0,44
673,811	0,44
674,252	0,44
674,693	0,44
675,134	0,44
675,575	0,44
676,016	0,44
676,457	0,44
676,898	0,44
677,339	0,44
677,78	0,43
678,22	0,43
678,661	0,43
679,102	0,43
679,542	0,43
679,983	0,43
680,424	0,43
680,864	0,43
681,305	0,44
681,745	0,44
682,186	0,44
682,626	0,44
683,067	0,44
683,507	0,44
683,948	0,44
684,388	0,44
684,828	0,44
685,269	0,44
685,709	0,44
686,149	0,43
686,589	0,43
687,029	0,43
687,47	0,43
687,91	0,43
688,35	0,43
688,79	0,43
689,23	0,43
689,67	0,43
690,11	0,43
690,55	0,43
690,99	0,43
691,43	0,43
691,87	0,43
692,31	0,43
692,749	0,42
693,189	0,42
693,629	0,42
694,069	0,42
694,508	0,42
694,948	0,42
695,388	0,42
695,827	0,42
696,267	0,42
696,706	0,42
697,146	0,42
697,586	0,42
698,025	0,42
698,464	0,43
698,904	0,43
699,343	0,43
699,783	0,43
700,222	0,43
700,661	0,43
701,101	0,43
701,54	0,43
701,979	0,43
702,418	0,43
702,857	0,43
703,297	0,43
703,736	0,43
704,175	0,43
704,614	0,43
705,053	0,43
705,492	0,43
705,931	0,43
706,37	0,42
706,809	0,42
707,248	0,42
707,687	0,42
708,125	0,42
708,564	0,42
709,003	0,42
709,442	0,42
709,88	0,42
710,319	0,42
710,758	0,42
711,196	0,42
711,635	0,42
712,074	0,42
712,512	0,42
712,951	0,41
713,389	0,41
713,828	0,41
714,266	0,41
714,705	0,41
715,143	0,41
715,581	0,41
716,02	0,41
716,458	0,41
716,896	0,41
717,334	0,41
717,773	0,41
718,211	0,41
718,649	0,41
719,087	0,41
719,525	0,41
719,963	0,41
720,401	0,41
720,839	0,41
721,277	0,41
721,715	0,41
722,153	0,41
722,591	0,41
723,029	0,41
723,467	0,41
723,905	0,41
724,342	0,41
724,78	0,41
725,218	0,41
725,656	0,41
726,093	0,41
726,531	0,41
726,969	0,41
727,406	0,41
727,844	0,41
728,281	0,41
728,719	0,41
729,156	0,41
729,594	0,41
730,031	0,41
730,469	0,41
730,906	0,41
731,343	0,41
731,781	0,41
732,218	0,41
732,655	0,41
733,092	0,41
733,53	0,41
733,967	0,41
734,404	0,4
734,841	0,4
735,278	0,4
735,715	0,4
736,152	0,4
736,589	0,4
737,026	0,4
737,463	0,4
737,9	0,4
738,337	0,4
738,774	0,4
739,211	0,4
739,647	0,4
740,084	0,4
740,521	0,4
740,958	0,4
741,394	0,4
741,831	0,4
742,268	0,4
742,704	0,4
743,141	0,4
743,577	0,4
744,014	0,4
744,45	0,4
744,887	0,4
745,323	0,39
745,76	0,39
746,196	0,39
746,632	0,39
747,069	0,39
747,505	0,39
747,941	0,39
748,378	0,39
748,814	0,39
749,25	0,39
749,686	0,39
750,122	0,39
750,558	0,39
750,994	0,4
751,43	0,4
751,866	0,4
752,302	0,4
752,738	0,4
753,174	0,4
753,61	0,4
754,046	0,4
754,482	0,4
754,918	0,4
755,354	0,4
755,789	0,4
756,225	0,4
756,661	0,4
757,096	0,4
757,532	0,4
757,968	0,39
758,403	0,39
758,839	0,39
759,274	0,39
759,71	0,38
760,145	0,38
760,581	0,37
761,016	0,37
761,452	0,36
761,887	0,36
762,322	0,36
762,758	0,35
763,193	0,35
763,628	0,34
764,063	0,33
764,499	0,33
764,934	0,32
765,369	0,32
765,804	0,31
766,239	0,31
766,674	0,3
767,109	0,29
767,544	0,28
767,979	0,27
768,414	0,27
768,849	0,26
769,284	0,25
769,719	0,24
770,154	0,24
770,588	0,23
771,023	0,22
771,458	0,2
771,893	0,19
772,327	0,18
772,762	0,17
773,197	0,17
773,631	0,15
774,066	0,15
774,5	0,14
774,935	0,13
775,369	0,12
775,804	0,11
776,238	0,11
776,673	0,1
777,107	0,09
777,541	0,08
777,976	0,07
778,41	0,06
778,844	0,05
779,279	0,04
779,713	0,03
780,147	0,02
780,581	0,01
781,015	0
781,449	-0,01
781,883	-0,01
782,317	-0,03
782,751	-0,03
783,185	-0,04
783,619	-0,05
784,053	-0,06
784,487	-0,06
784,921	-0,07
785,355	-0,07
785,789	-0,08
786,223	-0,09
786,656	-0,11
787,09	-0,11
787,524	-0,12
787,957	-0,13
788,391	-0,15
788,825	-0,17
789,258	-0,18
789,692	-0,2
790,125	-0,22
790,559	-0,23
790,992	-0,25
791,426	-0,27
791,859	-0,28
792,293	-0,32
792,726	-0,34
793,159	-0,35
793,593	-0,37
794,026	-0,4
794,459	-0,43
794,892	-0,45
795,326	-0,48
795,759	-0,52
796,192	-0,56
796,625	-0,61
797,058	-0,63
797,491	-0,67
797,924	-0,71
798,357	-0,76
798,79	-0,8
799,223	-0,85
799,656	-0,9
800,089	-0,95
800,522	-0,99
800,955	-1,03
801,387	-1,09
801,82	-1,14
802,253	-1,21
802,686	-1,29
803,118	-1,34
803,551	-1,39
803,984	-1,44
804,416	-1,48
804,849	-1,51
805,281	-1,62
805,714	-1,97
806,146	-2,43
806,579	-2,7
807,011	-2,86
807,444	-2,96
807,876	-3,05
808,308	-3,09
808,741	-3,12
809,173	-3,17
809,605	-3,19
810,037	-3,27
810,47	-3,19
810,902	-2,99
811,334	-2,84
811,766	-2,69
812,198	-2,46
812,63	-2,03
813,062	-1,8
813,494	-1,7
813,926	-1,61
814,358	-1,56
814,79	-1,48
815,222	-1,42
815,654	-1,37
816,086	-1,3
816,518	-1,25
816,949	-1,19
817,381	-1,15
817,813	-1,13
818,245	-1,09
818,676	-1,05
819,108	-1,02
819,54	-1
819,971	-0,98
820,403	-0,93
820,834	-0,91
821,266	-0,87
821,697	-0,84
822,129	-0,83
822,56	-0,8
822,991	-0,78
823,423	-0,75
823,854	-0,75
824,286	-0,72
824,717	-0,71
825,148	-0,69
825,579	-0,69
826,01	-0,68
826,442	-0,67
826,873	-0,65
827,304	-0,61
827,735	-0,61
828,166	-0,6
828,597	-0,6
829,028	-0,59
829,459	-0,6
829,89	-0,6
830,321	-0,56
830,752	-0,56
831,183	-0,55
831,613	-0,54
832,044	-0,54
832,475	-0,52
832,906	-0,54
833,336	-0,54
833,767	-0,54
834,198	-0,53
834,628	-0,51
835,059	-0,53
835,49	-0,54
835,92	-0,52
836,351	-0,51
836,781	-0,52
837,212	-0,54
837,642	-0,54
838,072	-0,53
838,503	-0,55
838,933	-0,52
839,364	-0,54
839,794	-0,52
840,224	-0,51
840,654	-0,55
841,085	-0,56
841,515	-0,54
841,945	-0,53
842,375	-0,49
842,805	-0,47
843,235	-0,45
843,665	-0,46
844,095	-0,44
844,525	-0,46
844,955	-0,46
845,385	-0,44
845,815	-0,43
846,245	-0,44
846,675	-0,45
847,105	-0,48
847,534	-0,48
847,964	-0,48
848,394	-0,47
848,824	-0,5
849,253	-0,48
849,683	-0,49
850,112	-0,5
850,542	-0,53
850,972	-0,53
851,401	-0,51
851,831	-0,49
852,26	-0,5
852,69	-0,52
853,119	-0,51
853,548	-0,52
853,978	-0,52
854,407	-0,51
854,836	-0,51
855,266	-0,5
855,695	-0,51
856,124	-0,53
856,553	-0,53
856,983	-0,55
857,412	-0,55
857,841	-0,56
858,27	-0,56
858,699	-0,57
859,128	-0,59
859,557	-0,6
859,986	-0,62
860,415	-0,59
860,844	-0,57
861,273	-0,58
861,702	-0,59
862,13	-0,57
862,559	-0,59
862,988	-0,56
863,417	-0,54
863,845	-0,54
864,274	-0,55
864,703	-0,54
865,131	-0,55
865,56	-0,55
865,989	-0,58
866,417	-0,56
866,846	-0,56
867,274	-0,55
867,703	-0,57
868,131	-0,59
868,559	-0,59
868,988	-0,6
869,416	-0,6
869,844	-0,61
870,273	-0,63
870,701	-0,62
871,129	-0,64
871,557	-0,67
871,986	-0,68
872,414	-0,69
872,842	-0,66
873,27	-0,63
873,698	-0,61
874,126	-0,64
874,554	-0,62
874,982	-0,62
875,41	-0,64
875,838	-0,59
876,266	-0,56
876,694	-0,57
877,122	-0,56
877,549	-0,62
877,977	-0,59
878,405	-0,61
878,833	-0,58
879,26	-0,57
879,688	-0,58
880,116	-0,56
880,543	-0,54
880,971	-0,54
881,399	-0,56
881,826	-0,56
882,254	-0,54
882,681	-0,58
883,109	-0,54
883,536	-0,55
883,963	-0,56
884,391	-0,54
884,818	-0,52
885,245	-0,56
885,673	-0,58
886,1	-0,56
886,527	-0,56
886,954	-0,52
887,381	-0,54
887,809	-0,56
888,236	-0,57
888,663	-0,58
889,09	-0,62
889,517	-0,65
889,944	-0,65
890,371	-0,64
890,798	-0,65
891,225	-0,64
891,652	-0,67
892,078	-0,65
892,505	-0,67
892,932	-0,62
893,359	-0,63
893,786	-0,63
894,212	-0,59
894,639	-0,6
895,066	-0,61
895,492	-0,56
895,919	-0,56
896,346	-0,55
896,772	-0,55
897,199	-0,51
897,625	-0,55
898,052	-0,51
898,478	-0,5
898,904	-0,51
899,331	-0,51
899,757	-0,53
900,183	-0,55
900,61	-0,54
901,036	-0,54
901,462	-0,55
901,888	-0,54
902,315	-0,53
902,741	-0,59
903,167	-0,57
903,593	-0,61
904,019	-0,59
904,445	-0,56
904,871	-0,58
905,297	-0,6
905,723	-0,6
906,149	-0,59
906,575	-0,6
907,001	-0,59
907,427	-0,55
907,852	-0,54
908,278	-0,54
908,704	-0,52
909,13	-0,53
909,555	-0,51
909,981	-0,5
910,407	-0,5
910,832	-0,5
911,258	-0,49
911,684	-0,49
912,109	-0,5
912,535	-0,53
912,96	-0,49
913,386	-0,53
913,811	-0,52
914,236	-0,54
914,662	-0,52
915,087	-0,56
915,512	-0,57
915,938	-0,59
916,363	-0,58
916,788	-0,6
917,213	-0,58
917,639	-0,63
918,064	-0,6
918,489	-0,6
918,914	-0,6
919,339	-0,61
919,764	-0,58
920,189	-0,58
920,614	-0,6
921,039	-0,61
921,464	-0,56
921,889	-0,59
922,314	-0,6
922,738	-0,63
923,163	-0,64
923,588	-0,64
924,013	-0,63
924,437	-0,62
924,862	-0,63
925,287	-0,59
925,711	-0,6
926,136	-0,61
926,561	-0,59
926,985	-0,58
927,41	-0,55
927,834	-0,53
928,259	-0,49
928,683	-0,48
929,108	-0,45
929,532	-0,47
929,956	-0,45
930,381	-0,45
930,805	-0,45
931,229	-0,45
931,653	-0,43
932,078	-0,43
932,502	-0,45
932,926	-0,46
933,35	-0,46
933,774	-0,45
934,198	-0,42
934,622	-0,42
935,046	-0,42
935,47	-0,42
935,894	-0,42
936,318	-0,42
936,742	-0,42
937,166	-0,43
937,59	-0,43
938,014	-0,45
938,437	-0,46
938,861	-0,49
939,285	-0,5
939,709	-0,5
940,132	-0,5
940,556	-0,5
940,98	-0,49
941,403	-0,47
941,827	-0,47
942,25	-0,49
942,674	-0,47
943,097	-0,47
943,521	-0,46
943,944	-0,47
944,368	-0,47
944,791	-0,45
945,214	-0,47
945,638	-0,48
946,061	-0,51
946,484	-0,52
946,907	-0,51
947,331	-0,51
947,754	-0,54
948,177	-0,51
948,6	-0,51
949,023	-0,51
949,446	-0,51
949,869	-0,48
950,292	-0,49
950,715	-0,46
951,138	-0,44
951,561	-0,41
951,984	-0,42
952,407	-0,41
952,83	-0,39
953,252	-0,35
953,675	-0,35
954,098	-0,36
954,521	-0,35
954,943	-0,33
955,366	-0,34
955,789	-0,32
956,211	-0,34
956,634	-0,35
957,056	-0,32
957,479	-0,34
957,902	-0,37
958,324	-0,37
958,746	-0,35
959,169	-0,36
959,591	-0,37
960,014	-0,38
960,436	-0,38
960,858	-0,37
961,281	-0,37
961,703	-0,39
962,125	-0,38
962,547	-0,36
962,969	-0,36
963,391	-0,36
963,814	-0,37
964,236	-0,36
964,658	-0,34
965,08	-0,34
965,502	-0,33
965,924	-0,31
966,346	-0,31
966,768	-0,31
967,189	-0,33
967,611	-0,32
968,033	-0,32
968,455	-0,3
968,877	-0,31
969,298	-0,32
969,72	-0,33
970,142	-0,31
970,563	-0,32
970,985	-0,3
971,407	-0,3
971,828	-0,28
972,25	-0,28
972,671	-0,26
973,093	-0,26
973,514	-0,25
973,936	-0,23
974,357	-0,21
974,778	-0,22
975,2	-0,2
975,621	-0,2
976,042	-0,18
976,464	-0,17
976,885	-0,16
977,306	-0,15
977,727	-0,14
978,148	-0,13
978,57	-0,11
978,991	-0,11
979,412	-0,09
979,833	-0,08
980,254	-0,07
980,675	-0,08
981,096	-0,06
981,517	-0,04
981,937	-0,04
982,358	-0,02
982,779	-0,01
983,2	-0,02
983,621	-0,02
984,042	0
984,462	0,01
984,883	0,02
985,304	0,03
985,724	0,04
986,145	0,05
986,565	0,06
986,986	0,07
987,407	0,08
987,827	0,09
988,248	0,11
988,668	0,12
989,088	0,13
989,509	0,15
989,929	0,16
990,35	0,17
990,77	0,18
991,19	0,19
991,61	0,2
992,031	0,21
992,451	0,22
992,871	0,23
993,291	0,24
993,711	0,24
994,131	0,25
994,551	0,25
994,971	0,26
995,391	0,27
995,811	0,28
996,231	0,28
996,651	0,29
997,071	0,3
997,491	0,3
997,911	0,31
998,331	0,32
998,75	0,32
999,17	0,33
999,59	0,33
1000,009	0,34
1000,429	0,34
1000,849	0,34
1001,268	0,35
1001,688	0,35
1002,107	0,36
1002,527	0,36
1002,946	0,36
1003,366	0,36
1003,785	0,37
1004,205	0,37
1004,624	0,37
1005,044	0,37
1005,463	0,38
1005,882	0,38
1006,301	0,38
1006,721	0,38
1007,14	0,38
1007,559	0,38
1007,978	0,38
1008,397	0,39
1008,816	0,39
1009,235	0,39
1009,655	0,39
1010,074	0,39
1010,492	0,38
1010,911	0,38
1011,33	0,38
1011,749	0,38
1012,168	0,38
1012,587	0,38
1013,006	0,38
1013,425	0,38
1013,843	0,38
1014,262	0,38
1014,681	0,38
1015,099	0,38
1015,518	0,37
1015,937	0,37
1016,355	0,37
1016,774	0,37
1017,192	0,37
1017,611	0,37
1018,029	0,37
1018,448	0,37
1018,866	0,37
1019,285	0,37
1019,703	0,37
1020,121	0,37
1020,54	0,37
1020,958	0,37
1021,376	0,37
1021,794	0,37
1022,213	0,37
1022,631	0,37
1023,049	0,37
1023,467	0,37
1023,885	0,37
1024,303	0,37
1024,721	0,37
1025,139	0,37
1025,557	0,37
1025,975	0,37
1026,393	0,36
1026,811	0,36
1027,229	0,36
1027,647	0,36
1028,065	0,36
1028,482	0,36
1028,9	0,36
1029,318	0,36
1029,735	0,36
1030,153	0,36
1030,571	0,36
1030,988	0,36
1031,406	0,36
1031,823	0,36
1032,241	0,36
1032,659	0,36
1033,076	0,36
1033,493	0,36
1033,911	0,36
1034,328	0,36
1034,746	0,36
1035,163	0,36
1035,58	0,36
1035,997	0,36
1036,415	0,36
1036,832	0,37
1037,249	0,37
1037,666	0,37
1038,083	0,36
1038,501	0,37
1038,918	0,36
1039,335	0,36
1039,752	0,36
1040,169	0,36
1040,586	0,36
1041,003	0,36
1041,419	0,36
1041,836	0,36
1042,253	0,36
1042,67	0,36
1043,087	0,36
1043,504	0,36
1043,92	0,36
1044,337	0,36
1044,754	0,36
1045,17	0,36
1045,587	0,36
1046,004	0,36
1046,42	0,36
1046,837	0,36
1047,253	0,36
1047,67	0,36
1048,086	0,36
1048,503	0,36
1048,919	0,36
1049,335	0,36
1049,752	0,36
1050,168	0,36
1050,584	0,36
1051,001	0,36
1051,417	0,36
1051,833	0,36
1052,249	0,36
1052,665	0,36
1053,081	0,37
1053,497	0,37
1053,914	0,37
1054,33	0,37
1054,746	0,37
1055,162	0,37
1055,578	0,37
1055,993	0,37
1056,409	0,37
1056,825	0,37
1057,241	0,37
1057,657	0,37
1058,073	0,37
1058,488	0,37
1058,904	0,37
1059,32	0,37
1059,736	0,37
1060,151	0,37
1060,567	0,37
1060,982	0,37
1061,398	0,37
1061,813	0,37
1062,229	0,37
1062,644	0,37
1063,06	0,37
1063,475	0,37
1063,891	0,37
1064,306	0,36
1064,721	0,36
1065,137	0,36
1065,552	0,36
1065,967	0,36
1066,382	0,36
1066,798	0,36
1067,213	0,36
1067,628	0,36
1068,043	0,36
1068,458	0,36
1068,873	0,36
1069,288	0,36
1069,703	0,36
1070,118	0,36
1070,533	0,37
1070,948	0,36
1071,363	0,36
1071,778	0,36
1072,193	0,36
1072,607	0,36
1073,022	0,36
1073,437	0,36
1073,852	0,36
1074,266	0,36
1074,681	0,36
1075,096	0,36
1075,51	0,36
1075,925	0,36
1076,339	0,36
1076,754	0,36
1077,168	0,36
1077,583	0,36
1077,997	0,36
1078,412	0,36
1078,826	0,36
1079,24	0,36
1079,655	0,36
1080,069	0,36
1080,483	0,36
1080,897	0,36
1081,312	0,36
1081,726	0,36
1082,14	0,36
1082,554	0,36
1082,968	0,36
1083,382	0,36
1083,796	0,36
1084,21	0,36
1084,624	0,35
1085,038	0,35
1085,452	0,35
1085,866	0,35
1086,28	0,35
1086,694	0,35
1087,108	0,35
1087,521	0,34
1087,935	0,34
1088,349	0,34
1088,763	0,33
1089,176	0,33
1089,59	0,33
1090,004	0,33
1090,417	0,32
1090,831	0,32
1091,244	0,32
1091,658	0,31
1092,071	0,31
1092,485	0,31
1092,898	0,31
1093,312	0,31
1093,725	0,31
1094,138	0,3
1094,552	0,3
1094,965	0,3
1095,378	0,3
1095,791	0,3
1096,205	0,29
1096,618	0,29
1097,031	0,29
1097,444	0,29
1097,857	0,28
1098,27	0,28
1098,683	0,28
1099,096	0,27
1099,509	0,27
1099,922	0,27
1100,335	0,27
1100,748	0,26
1101,161	0,26
1101,574	0,26
1101,986	0,25
1102,399	0,25
1102,812	0,25
1103,225	0,24
1103,637	0,24
1104,05	0,24
1104,463	0,23
1104,875	0,23
1105,288	0,23
1105,7	0,22
1106,113	0,22
1106,525	0,21
1106,938	0,21
1107,35	0,21
1107,763	0,2
1108,175	0,2
1108,588	0,2
1109	0,19
1109,412	0,19
1109,824	0,19
1110,237	0,19
1110,649	0,19
1111,061	0,18
