Data from 18C-808nm-8A-cont_Absorbance__611__02040.txt Node

Date: Mon Jul 17 17:42:03 CEST 2023
User: Laser008
Spectrometer: MAYP115816
Trigger mode: 0
Integration Time (sec): 2,500000E-1
Scans to average: 10
Electric dark correction enabled: true
Nonlinearity correction enabled: true
Boxcar width: 5
XAxis mode: Wavelengths
Number of Pixels in Spectrum: 2068
>>>>>Begin Spectral Data<<<<<
198,914	-0,63
199,384	-0,42
199,855	-0,29
200,325	-0,23
200,796	-0,2
201,266	-0,15
201,737	-0,14
202,207	-0,14
202,677	-0,13
203,147	-0,12
203,618	-0,09
204,088	-0,07
204,558	-0,06
205,028	-0,06
205,498	-0,07
205,968	-0,07
206,439	-0,08
206,909	-0,07
207,379	-0,08
207,849	-0,07
208,319	-0,08
208,789	-0,09
209,258	-0,08
209,728	-0,1
210,198	-0,1
210,668	-0,09
211,138	-0,09
211,608	-0,1
212,077	-0,1
212,547	-0,1
213,017	-0,11
213,486	-0,12
213,956	-0,12
214,426	-0,14
214,895	-0,13
215,365	-0,14
215,834	-0,15
216,304	-0,16
216,773	-0,15
217,243	-0,17
217,712	-0,17
218,181	-0,17
218,651	-0,17
219,12	-0,16
219,589	-0,15
220,058	-0,15
220,528	-0,16
220,997	-0,16
221,466	-0,16
221,935	-0,17
222,404	-0,17
222,873	-0,16
223,342	-0,15
223,812	-0,16
224,281	-0,16
224,749	-0,16
225,218	-0,18
225,687	-0,17
226,156	-0,16
226,625	-0,15
227,094	-0,15
227,563	-0,15
228,031	-0,16
228,5	-0,16
228,969	-0,16
229,438	-0,15
229,906	-0,14
230,375	-0,13
230,844	-0,13
231,312	-0,13
231,781	-0,14
232,249	-0,14
232,718	-0,14
233,186	-0,12
233,655	-0,13
234,123	-0,13
234,591	-0,13
235,06	-0,14
235,528	-0,14
235,996	-0,14
236,465	-0,13
236,933	-0,12
237,401	-0,12
237,869	-0,11
238,337	-0,12
238,805	-0,11
239,274	-0,1
239,742	-0,1
240,21	-0,11
240,678	-0,1
241,146	-0,1
241,614	-0,1
242,081	-0,09
242,549	-0,09
243,017	-0,1
243,485	-0,1
243,953	-0,1
244,421	-0,1
244,888	-0,09
245,356	-0,09
245,824	-0,09
246,291	-0,09
246,759	-0,09
247,227	-0,11
247,694	-0,09
248,162	-0,08
248,629	-0,07
249,097	-0,08
249,564	-0,09
250,032	-0,1
250,499	-0,1
250,967	-0,11
251,434	-0,11
251,901	-0,11
252,369	-0,1
252,836	-0,12
253,303	-0,14
253,77	-0,15
254,237	-0,14
254,705	-0,14
255,172	-0,12
255,639	-0,13
256,106	-0,14
256,573	-0,14
257,04	-0,14
257,507	-0,15
257,974	-0,16
258,441	-0,13
258,908	-0,14
259,375	-0,16
259,841	-0,16
260,308	-0,17
260,775	-0,17
261,242	-0,16
261,709	-0,16
262,175	-0,17
262,642	-0,15
263,109	-0,15
263,575	-0,16
264,042	-0,16
264,508	-0,15
264,975	-0,17
265,441	-0,17
265,908	-0,17
266,374	-0,17
266,841	-0,17
267,307	-0,17
267,773	-0,17
268,24	-0,17
268,706	-0,17
269,172	-0,18
269,639	-0,19
270,105	-0,17
270,571	-0,17
271,037	-0,17
271,503	-0,18
271,969	-0,18
272,435	-0,18
272,902	-0,19
273,368	-0,21
273,834	-0,2
274,3	-0,21
274,765	-0,21
275,231	-0,2
275,697	-0,2
276,163	-0,2
276,629	-0,2
277,095	-0,21
277,56	-0,21
278,026	-0,21
278,492	-0,2
278,958	-0,2
279,423	-0,19
279,889	-0,19
280,354	-0,2
280,82	-0,2
281,286	-0,21
281,751	-0,21
282,217	-0,19
282,682	-0,19
283,147	-0,19
283,613	-0,2
284,078	-0,2
284,544	-0,21
285,009	-0,21
285,474	-0,21
285,939	-0,22
286,405	-0,21
286,87	-0,21
287,335	-0,21
287,8	-0,21
288,265	-0,19
288,73	-0,21
289,195	-0,22
289,66	-0,22
290,125	-0,21
290,59	-0,21
291,055	-0,21
291,52	-0,21
291,985	-0,21
292,45	-0,23
292,915	-0,22
293,38	-0,23
293,844	-0,2
294,309	-0,19
294,774	-0,19
295,239	-0,21
295,703	-0,21
296,168	-0,19
296,632	-0,19
297,097	-0,18
297,562	-0,17
298,026	-0,17
298,491	-0,17
298,955	-0,17
299,419	-0,16
299,884	-0,16
300,348	-0,14
300,813	-0,13
301,277	-0,13
301,741	-0,13
302,205	-0,13
302,67	-0,12
303,134	-0,12
303,598	-0,11
304,062	-0,1
304,526	-0,09
304,99	-0,1
305,454	-0,1
305,919	-0,11
306,383	-0,11
306,847	-0,11
307,31	-0,12
307,774	-0,12
308,238	-0,11
308,702	-0,11
309,166	-0,12
309,63	-0,12
310,094	-0,1
310,557	-0,09
311,021	-0,09
311,485	-0,09
311,948	-0,08
312,412	-0,08
312,876	-0,07
313,339	-0,09
313,803	-0,09
314,266	-0,09
314,73	-0,09
315,193	-0,09
315,657	-0,08
316,12	-0,08
316,584	-0,07
317,047	-0,07
317,51	-0,05
317,973	-0,05
318,437	-0,03
318,9	-0,02
319,363	-0,02
319,826	-0,02
320,29	-0,04
320,753	-0,04
321,216	-0,03
321,679	-0,04
322,142	-0,03
322,605	-0,04
323,068	-0,04
323,531	-0,03
323,994	-0,03
324,457	-0,03
324,92	-0,01
325,382	0
325,845	0
326,308	0,01
326,771	0,02
327,233	0,02
327,696	0,03
328,159	0,03
328,622	0,04
329,084	0,03
329,547	0,04
330,009	0,04
330,472	0,06
330,934	0,06
331,397	0,06
331,859	0,06
332,322	0,07
332,784	0,07
333,246	0,07
333,709	0,08
334,171	0,09
334,633	0,1
335,096	0,1
335,558	0,1
336,02	0,1
336,482	0,1
336,944	0,1
337,406	0,11
337,868	0,12
338,331	0,11
338,793	0,12
339,255	0,13
339,717	0,12
340,178	0,13
340,64	0,14
341,102	0,15
341,564	0,16
342,026	0,18
342,488	0,18
342,949	0,2
343,411	0,23
343,873	0,26
344,335	0,28
344,796	0,32
345,258	0,37
345,719	0,42
346,181	0,47
346,643	0,52
347,104	0,56
347,566	0,6
348,027	0,63
348,488	0,66
348,95	0,68
349,411	0,71
349,873	0,74
350,334	0,76
350,795	0,78
351,256	0,79
351,718	0,8
352,179	0,81
352,64	0,81
353,101	0,82
353,562	0,82
354,023	0,82
354,484	0,83
354,945	0,83
355,406	0,83
355,867	0,84
356,328	0,84
356,789	0,85
357,25	0,86
357,711	0,86
358,172	0,86
358,633	0,86
359,093	0,86
359,554	0,86
360,015	0,86
360,476	0,87
360,936	0,87
361,397	0,87
361,858	0,86
362,318	0,86
362,779	0,87
363,239	0,87
363,7	0,87
364,16	0,87
364,621	0,87
365,081	0,87
365,541	0,87
366,002	0,87
366,462	0,87
366,922	0,87
367,383	0,87
367,843	0,87
368,303	0,87
368,763	0,87
369,223	0,87
369,684	0,87
370,144	0,87
370,604	0,87
371,064	0,87
371,524	0,87
371,984	0,87
372,444	0,87
372,904	0,87
373,363	0,87
373,823	0,86
374,283	0,86
374,743	0,86
375,203	0,86
375,663	0,86
376,122	0,86
376,582	0,86
377,042	0,86
377,501	0,86
377,961	0,86
378,42	0,86
378,88	0,86
379,34	0,86
379,799	0,86
380,259	0,86
380,718	0,86
381,177	0,86
381,637	0,86
382,096	0,86
382,555	0,86
383,015	0,86
383,474	0,86
383,933	0,86
384,393	0,86
384,852	0,86
385,311	0,86
385,77	0,86
386,229	0,86
386,688	0,86
387,147	0,86
387,606	0,86
388,065	0,85
388,524	0,85
388,983	0,85
389,442	0,85
389,901	0,85
390,36	0,85
390,819	0,85
391,277	0,85
391,736	0,85
392,195	0,85
392,654	0,85
393,112	0,85
393,571	0,85
394,03	0,85
394,488	0,85
394,947	0,85
395,405	0,85
395,864	0,85
396,322	0,85
396,781	0,85
397,239	0,85
397,698	0,85
398,156	0,85
398,614	0,85
399,073	0,85
399,531	0,85
399,989	0,85
400,447	0,85
400,905	0,85
401,364	0,84
401,822	0,84
402,28	0,84
402,738	0,84
403,196	0,84
403,654	0,84
404,112	0,84
404,57	0,84
405,028	0,84
405,486	0,84
405,944	0,84
406,402	0,84
406,859	0,84
407,317	0,84
407,775	0,84
408,233	0,84
408,691	0,84
409,148	0,84
409,606	0,84
410,064	0,84
410,521	0,84
410,979	0,84
411,436	0,84
411,894	0,84
412,351	0,84
412,809	0,84
413,266	0,84
413,724	0,84
414,181	0,84
414,638	0,84
415,096	0,84
415,553	0,84
416,01	0,84
416,467	0,84
416,925	0,83
417,382	0,83
417,839	0,83
418,296	0,83
418,753	0,83
419,21	0,83
419,667	0,83
420,124	0,83
420,581	0,83
421,038	0,83
421,495	0,83
421,952	0,83
422,409	0,83
422,866	0,83
423,322	0,83
423,779	0,83
424,236	0,84
424,693	0,84
425,149	0,84
425,606	0,84
426,063	0,84
426,519	0,84
426,976	0,83
427,433	0,83
427,889	0,83
428,346	0,83
428,802	0,83
429,258	0,83
429,715	0,83
430,171	0,83
430,628	0,83
431,084	0,83
431,54	0,83
431,997	0,83
432,453	0,83
432,909	0,83
433,365	0,83
433,821	0,83
434,277	0,83
434,734	0,83
435,19	0,83
435,646	0,83
436,102	0,83
436,558	0,83
437,014	0,83
437,47	0,83
437,925	0,83
438,381	0,83
438,837	0,83
439,293	0,83
439,749	0,83
440,205	0,83
440,66	0,83
441,116	0,83
441,572	0,83
442,027	0,83
442,483	0,83
442,939	0,83
443,394	0,83
443,85	0,83
444,305	0,83
444,761	0,83
445,216	0,83
445,672	0,83
446,127	0,84
446,582	0,84
447,038	0,84
447,493	0,84
447,948	0,84
448,403	0,84
448,859	0,84
449,314	0,84
449,769	0,84
450,224	0,84
450,679	0,84
451,134	0,84
451,589	0,84
452,044	0,84
452,499	0,84
452,954	0,84
453,409	0,84
453,864	0,84
454,319	0,84
454,774	0,84
455,229	0,84
455,684	0,84
456,138	0,84
456,593	0,84
457,048	0,84
457,503	0,84
457,957	0,84
458,412	0,84
458,866	0,84
459,321	0,84
459,776	0,84
460,23	0,84
460,685	0,85
461,139	0,85
461,593	0,85
462,048	0,85
462,502	0,85
462,957	0,85
463,411	0,85
463,865	0,85
464,319	0,85
464,774	0,86
465,228	0,86
465,682	0,86
466,136	0,86
466,59	0,86
467,044	0,86
467,499	0,86
467,953	0,86
468,407	0,86
468,861	0,86
469,315	0,86
469,768	0,86
470,222	0,87
470,676	0,87
471,13	0,87
471,584	0,87
472,038	0,87
472,491	0,87
472,945	0,87
473,399	0,87
473,852	0,87
474,306	0,88
474,76	0,88
475,213	0,88
475,667	0,88
476,12	0,88
476,574	0,88
477,027	0,88
477,481	0,89
477,934	0,89
478,388	0,89
478,841	0,89
479,294	0,89
479,748	0,9
480,201	0,9
480,654	0,9
481,107	0,9
481,561	0,9
482,014	0,91
482,467	0,91
482,92	0,91
483,373	0,91
483,826	0,91
484,279	0,91
484,732	0,92
485,185	0,92
485,638	0,92
486,091	0,92
486,544	0,93
486,997	0,93
487,449	0,93
487,902	0,93
488,355	0,94
488,808	0,94
489,26	0,94
489,713	0,95
490,166	0,95
490,618	0,95
491,071	0,96
491,523	0,96
491,976	0,96
492,429	0,97
492,881	0,97
493,333	0,97
493,786	0,98
494,238	0,98
494,691	0,98
495,143	0,99
495,595	0,99
496,048	0,99
496,5	1
496,952	1
497,404	1
497,856	1,01
498,309	1,01
498,761	1,02
499,213	1,02
499,665	1,03
500,117	1,03
500,569	1,04
501,021	1,04
501,473	1,04
501,925	1,05
502,377	1,05
502,828	1,06
503,28	1,06
503,732	1,07
504,184	1,07
504,636	1,07
505,087	1,08
505,539	1,08
505,991	1,09
506,442	1,09
506,894	1,1
507,345	1,1
507,797	1,11
508,249	1,11
508,7	1,12
509,151	1,12
509,603	1,13
510,054	1,13
510,506	1,13
510,957	1,14
511,408	1,14
511,86	1,15
512,311	1,15
512,762	1,15
513,213	1,16
513,665	1,16
514,116	1,16
514,567	1,17
515,018	1,17
515,469	1,17
515,92	1,18
516,371	1,18
516,822	1,18
517,273	1,19
517,724	1,19
518,175	1,19
518,626	1,2
519,076	1,2
519,527	1,2
519,978	1,2
520,429	1,21
520,88	1,21
521,33	1,21
521,781	1,21
522,232	1,21
522,682	1,22
523,133	1,22
523,583	1,22
524,034	1,22
524,484	1,22
524,935	1,22
525,385	1,22
525,836	1,22
526,286	1,22
526,736	1,22
527,187	1,22
527,637	1,22
528,087	1,22
528,538	1,22
528,988	1,22
529,438	1,22
529,888	1,22
530,338	1,21
530,788	1,21
531,238	1,21
531,688	1,21
532,139	1,21
532,589	1,21
533,038	1,21
533,488	1,2
533,938	1,2
534,388	1,2
534,838	1,19
535,288	1,19
535,738	1,19
536,187	1,18
536,637	1,18
537,087	1,17
537,537	1,17
537,986	1,17
538,436	1,16
538,885	1,16
539,335	1,15
539,785	1,14
540,234	1,14
540,684	1,13
541,133	1,13
541,582	1,12
542,032	1,12
542,481	1,11
542,931	1,11
543,38	1,1
543,829	1,1
544,278	1,09
544,728	1,08
545,177	1,08
545,626	1,07
546,075	1,07
546,524	1,06
546,973	1,06
547,422	1,05
547,871	1,05
548,32	1,05
548,769	1,04
549,218	1,04
549,667	1,04
550,116	1,03
550,565	1,03
551,014	1,02
551,463	1,02
551,911	1,01
552,36	1,01
552,809	1
553,258	0,99
553,706	0,99
554,155	0,99
554,603	0,98
555,052	0,98
555,501	0,97
555,949	0,96
556,398	0,96
556,846	0,95
557,294	0,95
557,743	0,94
558,191	0,94
558,64	0,93
559,088	0,92
559,536	0,92
559,985	0,91
560,433	0,91
560,881	0,9
561,329	0,9
561,777	0,89
562,225	0,89
562,674	0,88
563,122	0,88
563,57	0,88
564,018	0,87
564,466	0,87
564,914	0,86
565,362	0,86
565,809	0,85
566,257	0,85
566,705	0,84
567,153	0,84
567,601	0,83
568,048	0,83
568,496	0,82
568,944	0,82
569,392	0,81
569,839	0,81
570,287	0,81
570,734	0,8
571,182	0,8
571,63	0,79
572,077	0,79
572,525	0,78
572,972	0,78
573,419	0,78
573,867	0,77
574,314	0,77
574,761	0,76
575,209	0,76
575,656	0,75
576,103	0,75
576,551	0,75
576,998	0,74
577,445	0,74
577,892	0,74
578,339	0,73
578,786	0,73
579,233	0,73
579,68	0,72
580,127	0,72
580,574	0,72
581,021	0,71
581,468	0,71
581,915	0,71
582,362	0,7
582,809	0,7
583,255	0,7
583,702	0,7
584,149	0,69
584,596	0,69
585,042	0,69
585,489	0,68
585,936	0,68
586,382	0,68
586,829	0,68
587,275	0,67
587,722	0,67
588,168	0,67
588,615	0,67
589,061	0,66
589,508	0,66
589,954	0,66
590,4	0,66
590,847	0,65
591,293	0,65
591,739	0,65
592,185	0,65
592,632	0,65
593,078	0,64
593,524	0,64
593,97	0,64
594,416	0,64
594,862	0,64
595,308	0,64
595,754	0,64
596,2	0,63
596,646	0,63
597,092	0,63
597,538	0,63
597,984	0,62
598,43	0,62
598,876	0,62
599,321	0,62
599,767	0,62
600,213	0,62
600,659	0,61
601,104	0,61
601,55	0,61
601,995	0,61
602,441	0,61
602,887	0,61
603,332	0,6
603,778	0,6
604,223	0,6
604,668	0,6
605,114	0,6
605,559	0,6
606,005	0,6
606,45	0,6
606,895	0,6
607,341	0,59
607,786	0,59
608,231	0,59
608,676	0,59
609,121	0,58
609,566	0,57
610,012	0,56
610,457	0,56
610,902	0,56
611,347	0,55
611,792	0,55
612,237	0,55
612,682	0,55
613,127	0,55
613,571	0,55
614,016	0,55
614,461	0,56
614,906	0,56
615,351	0,56
615,795	0,56
616,24	0,56
616,685	0,56
617,129	0,56
617,574	0,56
618,019	0,56
618,463	0,56
618,908	0,56
619,352	0,56
619,797	0,56
620,241	0,56
620,686	0,56
621,13	0,56
621,574	0,56
622,019	0,55
622,463	0,55
622,907	0,55
623,352	0,55
623,796	0,55
624,24	0,55
624,684	0,55
625,128	0,55
625,572	0,55
626,016	0,55
626,461	0,55
626,905	0,55
627,349	0,55
627,793	0,55
628,236	0,55
628,68	0,54
629,124	0,54
629,568	0,54
630,012	0,54
630,456	0,54
630,9	0,54
631,343	0,54
631,787	0,54
632,231	0,54
632,674	0,54
633,118	0,54
633,562	0,54
634,005	0,54
634,449	0,54
634,892	0,54
635,336	0,54
635,779	0,54
636,223	0,54
636,666	0,53
637,109	0,53
637,553	0,53
637,996	0,53
638,439	0,53
638,883	0,53
639,326	0,53
639,769	0,53
640,212	0,53
640,655	0,53
641,099	0,53
641,542	0,53
641,985	0,53
642,428	0,53
642,871	0,53
643,314	0,53
643,757	0,53
644,2	0,53
644,643	0,52
645,085	0,52
645,528	0,52
645,971	0,52
646,414	0,52
646,857	0,52
647,299	0,52
647,742	0,52
648,185	0,52
648,627	0,52
649,07	0,52
649,513	0,52
649,955	0,52
650,398	0,52
650,84	0,52
651,283	0,52
651,725	0,52
652,168	0,52
652,61	0,52
653,052	0,52
653,495	0,51
653,937	0,43
654,379	0,37
654,821	0,38
655,264	0,38
655,706	0,38
656,148	0,38
656,59	0,38
657,032	0,38
657,474	0,38
657,916	0,38
658,358	0,37
658,8	0,43
659,242	0,51
659,684	0,51
660,126	0,51
660,568	0,51
661,01	0,51
661,452	0,51
661,894	0,51
662,335	0,51
662,777	0,51
663,219	0,51
663,661	0,51
664,102	0,51
664,544	0,51
664,985	0,51
665,427	0,51
665,869	0,51
666,31	0,51
666,752	0,51
667,193	0,51
667,634	0,51
668,076	0,51
668,517	0,51
668,959	0,51
669,4	0,51
669,841	0,51
670,282	0,51
670,724	0,51
671,165	0,51
671,606	0,51
672,047	0,51
672,488	0,51
672,929	0,51
673,37	0,5
673,811	0,5
674,252	0,5
674,693	0,5
675,134	0,5
675,575	0,5
676,016	0,5
676,457	0,5
676,898	0,5
677,339	0,5
677,78	0,5
678,22	0,5
678,661	0,5
679,102	0,5
679,542	0,5
679,983	0,5
680,424	0,5
680,864	0,5
681,305	0,5
681,745	0,5
682,186	0,5
682,626	0,51
683,067	0,51
683,507	0,5
683,948	0,5
684,388	0,5
684,828	0,5
685,269	0,5
685,709	0,5
686,149	0,5
686,589	0,5
687,029	0,5
687,47	0,5
687,91	0,5
688,35	0,49
688,79	0,49
689,23	0,49
689,67	0,49
690,11	0,49
690,55	0,49
690,99	0,49
691,43	0,49
691,87	0,49
692,31	0,49
692,749	0,49
693,189	0,49
693,629	0,49
694,069	0,49
694,508	0,48
694,948	0,48
695,388	0,48
695,827	0,48
696,267	0,49
696,706	0,49
697,146	0,49
697,586	0,49
698,025	0,49
698,464	0,49
698,904	0,49
699,343	0,49
699,783	0,49
700,222	0,49
700,661	0,49
701,101	0,49
701,54	0,49
701,979	0,49
702,418	0,49
702,857	0,49
703,297	0,49
703,736	0,49
704,175	0,49
704,614	0,49
705,053	0,49
705,492	0,49
705,931	0,49
706,37	0,49
706,809	0,49
707,248	0,49
707,687	0,49
708,125	0,49
708,564	0,48
709,003	0,48
709,442	0,48
709,88	0,48
710,319	0,48
710,758	0,48
711,196	0,48
711,635	0,48
712,074	0,48
712,512	0,48
712,951	0,48
713,389	0,48
713,828	0,48
714,266	0,48
714,705	0,48
715,143	0,48
715,581	0,48
716,02	0,48
716,458	0,48
716,896	0,48
717,334	0,48
717,773	0,48
718,211	0,48
718,649	0,48
719,087	0,48
719,525	0,48
719,963	0,48
720,401	0,48
720,839	0,48
721,277	0,48
721,715	0,48
722,153	0,48
722,591	0,48
723,029	0,48
723,467	0,48
723,905	0,48
724,342	0,48
724,78	0,48
725,218	0,48
725,656	0,48
726,093	0,48
726,531	0,48
726,969	0,48
727,406	0,48
727,844	0,48
728,281	0,48
728,719	0,48
729,156	0,47
729,594	0,47
730,031	0,47
730,469	0,47
730,906	0,47
731,343	0,47
731,781	0,47
732,218	0,47
732,655	0,47
733,092	0,47
733,53	0,47
733,967	0,47
734,404	0,47
734,841	0,47
735,278	0,47
735,715	0,47
736,152	0,47
736,589	0,47
737,026	0,47
737,463	0,47
737,9	0,47
738,337	0,47
738,774	0,47
739,211	0,47
739,647	0,47
740,084	0,47
740,521	0,47
740,958	0,47
741,394	0,47
741,831	0,47
742,268	0,47
742,704	0,47
743,141	0,47
743,577	0,47
744,014	0,47
744,45	0,47
744,887	0,47
745,323	0,47
745,76	0,46
746,196	0,46
746,632	0,46
747,069	0,46
747,505	0,46
747,941	0,46
748,378	0,46
748,814	0,46
749,25	0,46
749,686	0,46
750,122	0,46
750,558	0,46
750,994	0,47
751,43	0,47
751,866	0,47
752,302	0,47
752,738	0,47
753,174	0,47
753,61	0,47
754,046	0,46
754,482	0,46
754,918	0,46
755,354	0,46
755,789	0,46
756,225	0,46
756,661	0,46
757,096	0,46
757,532	0,46
757,968	0,45
758,403	0,45
758,839	0,45
759,274	0,45
759,71	0,44
760,145	0,44
760,581	0,43
761,016	0,43
761,452	0,42
761,887	0,42
762,322	0,41
762,758	0,41
763,193	0,4
763,628	0,39
764,063	0,39
764,499	0,38
764,934	0,37
765,369	0,37
765,804	0,36
766,239	0,35
766,674	0,35
767,109	0,34
767,544	0,33
767,979	0,32
768,414	0,31
768,849	0,3
769,284	0,3
769,719	0,28
770,154	0,28
770,588	0,27
771,023	0,26
771,458	0,24
771,893	0,23
772,327	0,22
772,762	0,21
773,197	0,2
773,631	0,19
774,066	0,18
774,5	0,17
774,935	0,16
775,369	0,15
775,804	0,13
776,238	0,13
776,673	0,12
777,107	0,11
777,541	0,1
777,976	0,09
778,41	0,09
778,844	0,07
779,279	0,07
779,713	0,06
780,147	0,05
780,581	0,04
781,015	0,03
781,449	0,02
781,883	0,02
782,317	-0
782,751	-0,01
783,185	-0,02
783,619	-0,03
784,053	-0,04
784,487	-0,06
784,921	-0,06
785,355	-0,06
785,789	-0,08
786,223	-0,09
786,656	-0,1
787,09	-0,11
787,524	-0,12
787,957	-0,13
788,391	-0,15
788,825	-0,17
789,258	-0,18
789,692	-0,2
790,125	-0,21
790,559	-0,23
790,992	-0,25
791,426	-0,27
791,859	-0,28
792,293	-0,31
792,726	-0,33
793,159	-0,35
793,593	-0,36
794,026	-0,39
794,459	-0,42
794,892	-0,44
795,326	-0,47
795,759	-0,5
796,192	-0,55
796,625	-0,59
797,058	-0,61
797,491	-0,65
797,924	-0,69
798,357	-0,74
798,79	-0,79
799,223	-0,83
799,656	-0,88
800,089	-0,93
800,522	-0,97
800,955	-1,01
801,387	-1,07
801,82	-1,13
802,253	-1,19
802,686	-1,27
803,118	-1,33
803,551	-1,38
803,984	-1,42
804,416	-1,46
804,849	-1,49
805,281	-1,59
805,714	-1,91
806,146	-2,39
806,579	-2,68
807,011	-2,85
807,444	-2,95
807,876	-3,04
808,308	-3,07
808,741	-3,1
809,173	-3,15
809,605	-3,17
810,037	-3,25
810,47	-3,18
810,902	-2,98
811,334	-2,84
811,766	-2,68
812,198	-2,44
812,63	-2
813,062	-1,78
813,494	-1,68
813,926	-1,59
814,358	-1,54
814,79	-1,46
815,222	-1,4
815,654	-1,35
816,086	-1,29
816,518	-1,23
816,949	-1,18
817,381	-1,14
817,813	-1,12
818,245	-1,08
818,676	-1,04
819,108	-1
819,54	-0,99
819,971	-0,97
820,403	-0,92
820,834	-0,91
821,266	-0,86
821,697	-0,84
822,129	-0,82
822,56	-0,8
822,991	-0,78
823,423	-0,75
823,854	-0,74
824,286	-0,72
824,717	-0,7
825,148	-0,69
825,579	-0,68
826,01	-0,67
826,442	-0,67
826,873	-0,64
827,304	-0,61
827,735	-0,6
828,166	-0,6
828,597	-0,6
829,028	-0,59
829,459	-0,6
829,89	-0,61
830,321	-0,56
830,752	-0,57
831,183	-0,56
831,613	-0,55
832,044	-0,54
832,475	-0,54
832,906	-0,55
833,336	-0,56
833,767	-0,57
834,198	-0,55
834,628	-0,53
835,059	-0,56
835,49	-0,57
835,92	-0,54
836,351	-0,54
836,781	-0,54
837,212	-0,56
837,642	-0,56
838,072	-0,53
838,503	-0,54
838,933	-0,51
839,364	-0,52
839,794	-0,5
840,224	-0,49
840,654	-0,53
841,085	-0,54
841,515	-0,52
841,945	-0,52
842,375	-0,48
842,805	-0,47
843,235	-0,45
843,665	-0,47
844,095	-0,46
844,525	-0,48
844,955	-0,48
845,385	-0,46
845,815	-0,44
846,245	-0,46
846,675	-0,46
847,105	-0,48
847,534	-0,48
847,964	-0,48
848,394	-0,46
848,824	-0,49
849,253	-0,48
849,683	-0,49
850,112	-0,5
850,542	-0,54
850,972	-0,54
851,401	-0,52
851,831	-0,5
852,26	-0,51
852,69	-0,54
853,119	-0,54
853,548	-0,53
853,978	-0,54
854,407	-0,52
854,836	-0,51
855,266	-0,51
855,695	-0,52
856,124	-0,53
856,553	-0,55
856,983	-0,56
857,412	-0,55
857,841	-0,57
858,27	-0,57
858,699	-0,57
859,128	-0,61
859,557	-0,62
859,986	-0,63
860,415	-0,6
860,844	-0,58
861,273	-0,58
861,702	-0,58
862,13	-0,56
862,559	-0,58
862,988	-0,55
863,417	-0,55
863,845	-0,53
864,274	-0,54
864,703	-0,54
865,131	-0,54
865,56	-0,55
865,989	-0,58
866,417	-0,55
866,846	-0,55
867,274	-0,54
867,703	-0,56
868,131	-0,57
868,559	-0,57
868,988	-0,6
869,416	-0,58
869,844	-0,6
870,273	-0,63
870,701	-0,61
871,129	-0,64
871,557	-0,66
871,986	-0,67
872,414	-0,68
872,842	-0,65
873,27	-0,64
873,698	-0,6
874,126	-0,64
874,554	-0,62
874,982	-0,62
875,41	-0,64
875,838	-0,59
876,266	-0,57
876,694	-0,56
877,122	-0,56
877,549	-0,62
877,977	-0,58
878,405	-0,61
878,833	-0,57
879,26	-0,56
879,688	-0,56
880,116	-0,55
880,543	-0,54
880,971	-0,52
881,399	-0,55
881,826	-0,55
882,254	-0,53
882,681	-0,57
883,109	-0,54
883,536	-0,55
883,963	-0,58
884,391	-0,56
884,818	-0,54
885,245	-0,58
885,673	-0,61
886,1	-0,58
886,527	-0,57
886,954	-0,54
887,381	-0,56
887,809	-0,57
888,236	-0,58
888,663	-0,58
889,09	-0,62
889,517	-0,64
889,944	-0,63
890,371	-0,62
890,798	-0,63
891,225	-0,63
891,652	-0,65
892,078	-0,63
892,505	-0,65
892,932	-0,61
893,359	-0,62
893,786	-0,61
894,212	-0,58
894,639	-0,59
895,066	-0,61
895,492	-0,56
895,919	-0,57
896,346	-0,57
896,772	-0,57
897,199	-0,54
897,625	-0,57
898,052	-0,53
898,478	-0,52
898,904	-0,54
899,331	-0,54
899,757	-0,55
900,183	-0,57
900,61	-0,55
901,036	-0,55
901,462	-0,55
901,888	-0,54
902,315	-0,53
902,741	-0,59
903,167	-0,56
903,593	-0,58
904,019	-0,55
904,445	-0,53
904,871	-0,55
905,297	-0,58
905,723	-0,58
906,149	-0,57
906,575	-0,58
907,001	-0,58
907,427	-0,55
907,852	-0,55
908,278	-0,56
908,704	-0,55
909,13	-0,55
909,555	-0,53
909,981	-0,52
910,407	-0,52
910,832	-0,52
911,258	-0,51
911,684	-0,52
912,109	-0,51
912,535	-0,53
912,96	-0,47
913,386	-0,51
913,811	-0,5
914,236	-0,52
914,662	-0,5
915,087	-0,53
915,512	-0,53
915,938	-0,56
916,363	-0,55
916,788	-0,57
917,213	-0,55
917,639	-0,6
918,064	-0,57
918,489	-0,59
918,914	-0,59
919,339	-0,6
919,764	-0,58
920,189	-0,58
920,614	-0,6
921,039	-0,6
921,464	-0,57
921,889	-0,59
922,314	-0,6
922,738	-0,63
923,163	-0,64
923,588	-0,64
924,013	-0,62
924,437	-0,63
924,862	-0,63
925,287	-0,6
925,711	-0,6
926,136	-0,61
926,561	-0,6
926,985	-0,58
927,41	-0,55
927,834	-0,53
928,259	-0,5
928,683	-0,49
929,108	-0,45
929,532	-0,46
929,956	-0,45
930,381	-0,45
930,805	-0,44
931,229	-0,44
931,653	-0,44
932,078	-0,43
932,502	-0,45
932,926	-0,46
933,35	-0,46
933,774	-0,46
934,198	-0,44
934,622	-0,43
935,046	-0,43
935,47	-0,44
935,894	-0,43
936,318	-0,43
936,742	-0,43
937,166	-0,43
937,59	-0,42
938,014	-0,44
938,437	-0,45
938,861	-0,48
939,285	-0,48
939,709	-0,47
940,132	-0,48
940,556	-0,48
940,98	-0,48
941,403	-0,46
941,827	-0,46
942,25	-0,48
942,674	-0,46
943,097	-0,46
943,521	-0,45
943,944	-0,46
944,368	-0,46
944,791	-0,44
945,214	-0,46
945,638	-0,47
946,061	-0,51
946,484	-0,52
946,907	-0,5
947,331	-0,5
947,754	-0,54
948,177	-0,52
948,6	-0,52
949,023	-0,51
949,446	-0,51
949,869	-0,48
950,292	-0,49
950,715	-0,45
951,138	-0,43
951,561	-0,42
951,984	-0,42
952,407	-0,41
952,83	-0,39
953,252	-0,35
953,675	-0,35
954,098	-0,35
954,521	-0,34
954,943	-0,33
955,366	-0,34
955,789	-0,33
956,211	-0,34
956,634	-0,34
957,056	-0,32
957,479	-0,33
957,902	-0,35
958,324	-0,35
958,746	-0,34
959,169	-0,35
959,591	-0,36
960,014	-0,37
960,436	-0,36
960,858	-0,35
961,281	-0,36
961,703	-0,37
962,125	-0,37
962,547	-0,36
962,969	-0,37
963,391	-0,37
963,814	-0,39
964,236	-0,38
964,658	-0,35
965,08	-0,36
965,502	-0,36
965,924	-0,32
966,346	-0,32
966,768	-0,31
967,189	-0,33
967,611	-0,32
968,033	-0,31
968,455	-0,29
968,877	-0,29
969,298	-0,3
969,72	-0,31
970,142	-0,3
970,563	-0,31
970,985	-0,3
971,407	-0,28
971,828	-0,26
972,25	-0,26
972,671	-0,25
973,093	-0,24
973,514	-0,23
973,936	-0,21
974,357	-0,2
974,778	-0,19
975,2	-0,19
975,621	-0,18
976,042	-0,17
976,464	-0,16
976,885	-0,15
977,306	-0,14
977,727	-0,13
978,148	-0,13
978,57	-0,12
978,991	-0,1
979,412	-0,09
979,833	-0,08
980,254	-0,06
980,675	-0,07
981,096	-0,06
981,517	-0,04
981,937	-0,04
982,358	-0,03
982,779	-0,01
983,2	-0,01
983,621	-0,01
984,042	0,01
984,462	0,02
984,883	0,03
985,304	0,05
985,724	0,06
986,145	0,07
986,565	0,09
986,986	0,1
987,407	0,11
987,827	0,13
988,248	0,14
988,668	0,15
989,088	0,17
989,509	0,18
989,929	0,2
990,35	0,21
990,77	0,23
991,19	0,23
991,61	0,25
992,031	0,26
992,451	0,27
992,871	0,28
993,291	0,29
993,711	0,3
994,131	0,31
994,551	0,31
994,971	0,33
995,391	0,33
995,811	0,34
996,231	0,34
996,651	0,35
997,071	0,36
997,491	0,37
997,911	0,37
998,331	0,38
998,75	0,39
999,17	0,39
999,59	0,4
1000,009	0,41
1000,429	0,41
1000,849	0,42
1001,268	0,42
1001,688	0,43
1002,107	0,43
1002,527	0,44
1002,946	0,44
1003,366	0,44
1003,785	0,44
1004,205	0,45
1004,624	0,45
1005,044	0,46
1005,463	0,46
1005,882	0,46
1006,301	0,46
1006,721	0,46
1007,14	0,46
1007,559	0,47
1007,978	0,47
1008,397	0,47
1008,816	0,47
1009,235	0,47
1009,655	0,47
1010,074	0,47
1010,492	0,47
1010,911	0,47
1011,33	0,46
1011,749	0,46
1012,168	0,46
1012,587	0,46
1013,006	0,46
1013,425	0,46
1013,843	0,46
1014,262	0,46
1014,681	0,46
1015,099	0,46
1015,518	0,46
1015,937	0,46
1016,355	0,46
1016,774	0,46
1017,192	0,46
1017,611	0,46
1018,029	0,46
1018,448	0,46
1018,866	0,46
1019,285	0,46
1019,703	0,46
1020,121	0,46
1020,54	0,46
1020,958	0,46
1021,376	0,46
1021,794	0,46
1022,213	0,46
1022,631	0,46
1023,049	0,46
1023,467	0,45
1023,885	0,45
1024,303	0,45
1024,721	0,45
1025,139	0,45
1025,557	0,45
1025,975	0,45
1026,393	0,45
1026,811	0,44
1027,229	0,44
1027,647	0,44
1028,065	0,44
1028,482	0,44
1028,9	0,44
1029,318	0,44
1029,735	0,44
1030,153	0,44
1030,571	0,44
1030,988	0,44
1031,406	0,44
1031,823	0,44
1032,241	0,44
1032,659	0,44
1033,076	0,44
1033,493	0,45
1033,911	0,45
1034,328	0,45
1034,746	0,45
1035,163	0,45
1035,58	0,45
1035,997	0,45
1036,415	0,45
1036,832	0,45
1037,249	0,45
1037,666	0,44
1038,083	0,44
1038,501	0,44
1038,918	0,44
1039,335	0,44
1039,752	0,44
1040,169	0,44
1040,586	0,44
1041,003	0,44
1041,419	0,44
1041,836	0,44
1042,253	0,44
1042,67	0,44
1043,087	0,44
1043,504	0,44
1043,92	0,44
1044,337	0,44
1044,754	0,44
1045,17	0,44
1045,587	0,44
1046,004	0,44
1046,42	0,44
1046,837	0,44
1047,253	0,43
1047,67	0,43
1048,086	0,43
1048,503	0,44
1048,919	0,44
1049,335	0,44
1049,752	0,44
1050,168	0,44
1050,584	0,44
1051,001	0,44
1051,417	0,44
1051,833	0,44
1052,249	0,44
1052,665	0,44
1053,081	0,44
1053,497	0,44
1053,914	0,44
1054,33	0,45
1054,746	0,45
1055,162	0,45
1055,578	0,45
1055,993	0,45
1056,409	0,45
1056,825	0,45
1057,241	0,45
1057,657	0,45
1058,073	0,45
1058,488	0,45
1058,904	0,45
1059,32	0,45
1059,736	0,45
1060,151	0,45
1060,567	0,45
1060,982	0,45
1061,398	0,45
1061,813	0,45
1062,229	0,45
1062,644	0,45
1063,06	0,45
1063,475	0,45
1063,891	0,45
1064,306	0,45
1064,721	0,45
1065,137	0,45
1065,552	0,45
1065,967	0,45
1066,382	0,45
1066,798	0,45
1067,213	0,45
1067,628	0,45
1068,043	0,45
1068,458	0,45
1068,873	0,45
1069,288	0,45
1069,703	0,45
1070,118	0,45
1070,533	0,45
1070,948	0,45
1071,363	0,45
1071,778	0,45
1072,193	0,45
1072,607	0,45
1073,022	0,45
1073,437	0,45
1073,852	0,45
1074,266	0,45
1074,681	0,45
1075,096	0,45
1075,51	0,45
1075,925	0,45
1076,339	0,45
1076,754	0,45
1077,168	0,45
1077,583	0,45
1077,997	0,45
1078,412	0,45
1078,826	0,44
1079,24	0,44
1079,655	0,44
1080,069	0,44
1080,483	0,44
1080,897	0,44
1081,312	0,44
1081,726	0,44
1082,14	0,44
1082,554	0,43
1082,968	0,43
1083,382	0,43
1083,796	0,43
1084,21	0,43
1084,624	0,43
1085,038	0,43
1085,452	0,43
1085,866	0,43
1086,28	0,42
1086,694	0,42
1087,108	0,42
1087,521	0,42
1087,935	0,42
1088,349	0,41
1088,763	0,41
1089,176	0,41
1089,59	0,4
1090,004	0,4
1090,417	0,4
1090,831	0,39
1091,244	0,39
1091,658	0,39
1092,071	0,39
1092,485	0,38
1092,898	0,38
1093,312	0,38
1093,725	0,38
1094,138	0,37
1094,552	0,37
1094,965	0,37
1095,378	0,37
1095,791	0,37
1096,205	0,37
1096,618	0,36
1097,031	0,36
1097,444	0,36
1097,857	0,35
1098,27	0,35
1098,683	0,35
1099,096	0,34
1099,509	0,34
1099,922	0,34
1100,335	0,34
1100,748	0,33
1101,161	0,32
1101,574	0,32
1101,986	0,31
1102,399	0,31
1102,812	0,31
1103,225	0,3
1103,637	0,3
1104,05	0,29
1104,463	0,29
1104,875	0,29
1105,288	0,29
1105,7	0,29
1106,113	0,28
1106,525	0,28
1106,938	0,27
1107,35	0,27
1107,763	0,26
1108,175	0,26
1108,588	0,25
1109	0,24
1109,412	0,24
1109,824	0,23
1110,237	0,23
1110,649	0,22
1111,061	0,21
