Data from 18C-808nm-8A-cont_Absorbance__548__01977.txt Node

Date: Mon Jul 17 17:39:25 CEST 2023
User: Laser008
Spectrometer: MAYP115816
Trigger mode: 0
Integration Time (sec): 2,500000E-1
Scans to average: 10
Electric dark correction enabled: true
Nonlinearity correction enabled: true
Boxcar width: 5
XAxis mode: Wavelengths
Number of Pixels in Spectrum: 2068
>>>>>Begin Spectral Data<<<<<
198,914	-0,74
199,384	-0,49
199,855	-0,37
200,325	-0,27
200,796	-0,25
201,266	-0,2
201,737	-0,19
202,207	-0,17
202,677	-0,16
203,147	-0,14
203,618	-0,12
204,088	-0,09
204,558	-0,08
205,028	-0,08
205,498	-0,1
205,968	-0,09
206,439	-0,11
206,909	-0,11
207,379	-0,12
207,849	-0,13
208,319	-0,14
208,789	-0,14
209,258	-0,13
209,728	-0,15
210,198	-0,14
210,668	-0,13
211,138	-0,13
211,608	-0,12
212,077	-0,12
212,547	-0,11
213,017	-0,12
213,486	-0,12
213,956	-0,13
214,426	-0,14
214,895	-0,13
215,365	-0,14
215,834	-0,15
216,304	-0,16
216,773	-0,17
217,243	-0,19
217,712	-0,2
218,181	-0,19
218,651	-0,19
219,12	-0,19
219,589	-0,19
220,058	-0,19
220,528	-0,2
220,997	-0,2
221,466	-0,21
221,935	-0,21
222,404	-0,21
222,873	-0,19
223,342	-0,19
223,812	-0,19
224,281	-0,18
224,749	-0,18
225,218	-0,2
225,687	-0,19
226,156	-0,18
226,625	-0,17
227,094	-0,18
227,563	-0,18
228,031	-0,2
228,5	-0,2
228,969	-0,21
229,438	-0,21
229,906	-0,2
230,375	-0,19
230,844	-0,18
231,312	-0,18
231,781	-0,19
232,249	-0,17
232,718	-0,17
233,186	-0,14
233,655	-0,14
234,123	-0,14
234,591	-0,14
235,06	-0,14
235,528	-0,15
235,996	-0,15
236,465	-0,15
236,933	-0,15
237,401	-0,15
237,869	-0,14
238,337	-0,14
238,805	-0,13
239,274	-0,14
239,742	-0,14
240,21	-0,13
240,678	-0,12
241,146	-0,11
241,614	-0,11
242,081	-0,1
242,549	-0,11
243,017	-0,11
243,485	-0,11
243,953	-0,11
244,421	-0,1
244,888	-0,09
245,356	-0,09
245,824	-0,1
246,291	-0,1
246,759	-0,11
247,227	-0,12
247,694	-0,11
248,162	-0,11
248,629	-0,1
249,097	-0,11
249,564	-0,12
250,032	-0,13
250,499	-0,14
250,967	-0,14
251,434	-0,14
251,901	-0,14
252,369	-0,14
252,836	-0,15
253,303	-0,16
253,77	-0,18
254,237	-0,17
254,705	-0,17
255,172	-0,17
255,639	-0,17
256,106	-0,17
256,573	-0,17
257,04	-0,17
257,507	-0,17
257,974	-0,17
258,441	-0,16
258,908	-0,16
259,375	-0,17
259,841	-0,17
260,308	-0,18
260,775	-0,17
261,242	-0,17
261,709	-0,17
262,175	-0,18
262,642	-0,18
263,109	-0,18
263,575	-0,19
264,042	-0,18
264,508	-0,18
264,975	-0,19
265,441	-0,2
265,908	-0,21
266,374	-0,2
266,841	-0,21
267,307	-0,2
267,773	-0,2
268,24	-0,2
268,706	-0,2
269,172	-0,21
269,639	-0,22
270,105	-0,2
270,571	-0,21
271,037	-0,21
271,503	-0,22
271,969	-0,21
272,435	-0,22
272,902	-0,24
273,368	-0,25
273,834	-0,25
274,3	-0,25
274,765	-0,25
275,231	-0,25
275,697	-0,24
276,163	-0,24
276,629	-0,24
277,095	-0,24
277,56	-0,24
278,026	-0,23
278,492	-0,21
278,958	-0,22
279,423	-0,22
279,889	-0,22
280,354	-0,22
280,82	-0,22
281,286	-0,23
281,751	-0,24
282,217	-0,22
282,682	-0,22
283,147	-0,22
283,613	-0,23
284,078	-0,23
284,544	-0,23
285,009	-0,23
285,474	-0,22
285,939	-0,24
286,405	-0,23
286,87	-0,22
287,335	-0,23
287,8	-0,22
288,265	-0,21
288,73	-0,22
289,195	-0,24
289,66	-0,24
290,125	-0,23
290,59	-0,25
291,055	-0,23
291,52	-0,24
291,985	-0,24
292,45	-0,26
292,915	-0,26
293,38	-0,27
293,844	-0,26
294,309	-0,24
294,774	-0,22
295,239	-0,23
295,703	-0,23
296,168	-0,22
296,632	-0,21
297,097	-0,19
297,562	-0,18
298,026	-0,18
298,491	-0,18
298,955	-0,18
299,419	-0,17
299,884	-0,18
300,348	-0,17
300,813	-0,17
301,277	-0,17
301,741	-0,18
302,205	-0,18
302,67	-0,17
303,134	-0,16
303,598	-0,17
304,062	-0,16
304,526	-0,15
304,99	-0,15
305,454	-0,16
305,919	-0,16
306,383	-0,16
306,847	-0,16
307,31	-0,17
307,774	-0,17
308,238	-0,17
308,702	-0,17
309,166	-0,18
309,63	-0,19
310,094	-0,16
310,557	-0,16
311,021	-0,16
311,485	-0,16
311,948	-0,15
312,412	-0,15
312,876	-0,14
313,339	-0,15
313,803	-0,15
314,266	-0,15
314,73	-0,14
315,193	-0,14
315,657	-0,13
316,12	-0,12
316,584	-0,11
317,047	-0,11
317,51	-0,09
317,973	-0,08
318,437	-0,07
318,9	-0,06
319,363	-0,04
319,826	-0,04
320,29	-0,05
320,753	-0,05
321,216	-0,05
321,679	-0,06
322,142	-0,05
322,605	-0,06
323,068	-0,06
323,531	-0,06
323,994	-0,05
324,457	-0,05
324,92	-0,05
325,382	-0,04
325,845	-0,04
326,308	-0,03
326,771	-0,03
327,233	-0,02
327,696	-0,01
328,159	-0
328,622	0
329,084	-0
329,547	0
330,009	0
330,472	0,02
330,934	0,02
331,397	0,02
331,859	0,04
332,322	0,04
332,784	0,04
333,246	0,04
333,709	0,04
334,171	0,04
334,633	0,05
335,096	0,05
335,558	0,04
336,02	0,05
336,482	0,05
336,944	0,06
337,406	0,06
337,868	0,07
338,331	0,07
338,793	0,09
339,255	0,1
339,717	0,11
340,178	0,11
340,64	0,12
341,102	0,13
341,564	0,14
342,026	0,15
342,488	0,16
342,949	0,17
343,411	0,2
343,873	0,23
344,335	0,26
344,796	0,29
345,258	0,34
345,719	0,39
346,181	0,44
346,643	0,48
347,104	0,52
347,566	0,55
348,027	0,59
348,488	0,61
348,95	0,64
349,411	0,66
349,873	0,69
350,334	0,71
350,795	0,73
351,256	0,74
351,718	0,75
352,179	0,75
352,64	0,76
353,101	0,76
353,562	0,76
354,023	0,77
354,484	0,77
354,945	0,77
355,406	0,78
355,867	0,78
356,328	0,78
356,789	0,79
357,25	0,79
357,711	0,8
358,172	0,8
358,633	0,8
359,093	0,8
359,554	0,8
360,015	0,8
360,476	0,8
360,936	0,8
361,397	0,81
361,858	0,8
362,318	0,8
362,779	0,8
363,239	0,81
363,7	0,81
364,16	0,81
364,621	0,81
365,081	0,81
365,541	0,81
366,002	0,81
366,462	0,81
366,922	0,8
367,383	0,8
367,843	0,8
368,303	0,8
368,763	0,81
369,223	0,81
369,684	0,81
370,144	0,81
370,604	0,81
371,064	0,81
371,524	0,81
371,984	0,81
372,444	0,8
372,904	0,8
373,363	0,8
373,823	0,8
374,283	0,8
374,743	0,8
375,203	0,8
375,663	0,8
376,122	0,8
376,582	0,8
377,042	0,8
377,501	0,8
377,961	0,8
378,42	0,8
378,88	0,8
379,34	0,8
379,799	0,8
380,259	0,8
380,718	0,8
381,177	0,8
381,637	0,8
382,096	0,8
382,555	0,79
383,015	0,79
383,474	0,79
383,933	0,79
384,393	0,79
384,852	0,79
385,311	0,79
385,77	0,79
386,229	0,79
386,688	0,79
387,147	0,79
387,606	0,79
388,065	0,79
388,524	0,79
388,983	0,79
389,442	0,79
389,901	0,79
390,36	0,79
390,819	0,79
391,277	0,79
391,736	0,79
392,195	0,79
392,654	0,79
393,112	0,79
393,571	0,79
394,03	0,78
394,488	0,78
394,947	0,78
395,405	0,78
395,864	0,78
396,322	0,78
396,781	0,78
397,239	0,78
397,698	0,78
398,156	0,78
398,614	0,78
399,073	0,78
399,531	0,78
399,989	0,78
400,447	0,78
400,905	0,78
401,364	0,78
401,822	0,78
402,28	0,78
402,738	0,78
403,196	0,78
403,654	0,78
404,112	0,78
404,57	0,78
405,028	0,78
405,486	0,78
405,944	0,78
406,402	0,77
406,859	0,77
407,317	0,78
407,775	0,78
408,233	0,78
408,691	0,77
409,148	0,77
409,606	0,77
410,064	0,77
410,521	0,77
410,979	0,77
411,436	0,77
411,894	0,77
412,351	0,77
412,809	0,77
413,266	0,77
413,724	0,77
414,181	0,77
414,638	0,77
415,096	0,77
415,553	0,77
416,01	0,77
416,467	0,77
416,925	0,77
417,382	0,77
417,839	0,77
418,296	0,77
418,753	0,77
419,21	0,77
419,667	0,77
420,124	0,77
420,581	0,77
421,038	0,77
421,495	0,77
421,952	0,77
422,409	0,77
422,866	0,77
423,322	0,77
423,779	0,77
424,236	0,77
424,693	0,77
425,149	0,77
425,606	0,77
426,063	0,77
426,519	0,77
426,976	0,77
427,433	0,77
427,889	0,77
428,346	0,77
428,802	0,77
429,258	0,77
429,715	0,77
430,171	0,77
430,628	0,77
431,084	0,77
431,54	0,77
431,997	0,77
432,453	0,77
432,909	0,77
433,365	0,76
433,821	0,76
434,277	0,76
434,734	0,76
435,19	0,76
435,646	0,76
436,102	0,76
436,558	0,76
437,014	0,76
437,47	0,76
437,925	0,76
438,381	0,76
438,837	0,76
439,293	0,76
439,749	0,76
440,205	0,76
440,66	0,76
441,116	0,76
441,572	0,76
442,027	0,76
442,483	0,76
442,939	0,76
443,394	0,76
443,85	0,76
444,305	0,76
444,761	0,77
445,216	0,77
445,672	0,77
446,127	0,77
446,582	0,77
447,038	0,77
447,493	0,77
447,948	0,77
448,403	0,77
448,859	0,77
449,314	0,77
449,769	0,77
450,224	0,77
450,679	0,77
451,134	0,77
451,589	0,77
452,044	0,77
452,499	0,77
452,954	0,77
453,409	0,77
453,864	0,77
454,319	0,77
454,774	0,77
455,229	0,77
455,684	0,77
456,138	0,77
456,593	0,77
457,048	0,77
457,503	0,77
457,957	0,77
458,412	0,77
458,866	0,77
459,321	0,78
459,776	0,78
460,23	0,78
460,685	0,78
461,139	0,78
461,593	0,78
462,048	0,78
462,502	0,78
462,957	0,78
463,411	0,78
463,865	0,78
464,319	0,79
464,774	0,79
465,228	0,79
465,682	0,79
466,136	0,79
466,59	0,79
467,044	0,79
467,499	0,79
467,953	0,79
468,407	0,79
468,861	0,79
469,315	0,79
469,768	0,8
470,222	0,8
470,676	0,8
471,13	0,8
471,584	0,8
472,038	0,8
472,491	0,8
472,945	0,8
473,399	0,8
473,852	0,8
474,306	0,81
474,76	0,81
475,213	0,81
475,667	0,81
476,12	0,81
476,574	0,81
477,027	0,81
477,481	0,82
477,934	0,82
478,388	0,82
478,841	0,82
479,294	0,82
479,748	0,82
480,201	0,83
480,654	0,83
481,107	0,83
481,561	0,83
482,014	0,84
482,467	0,84
482,92	0,84
483,373	0,84
483,826	0,84
484,279	0,85
484,732	0,85
485,185	0,85
485,638	0,85
486,091	0,86
486,544	0,86
486,997	0,86
487,449	0,86
487,902	0,86
488,355	0,87
488,808	0,87
489,26	0,87
489,713	0,88
490,166	0,88
490,618	0,88
491,071	0,89
491,523	0,89
491,976	0,89
492,429	0,9
492,881	0,9
493,333	0,9
493,786	0,9
494,238	0,91
494,691	0,91
495,143	0,92
495,595	0,92
496,048	0,92
496,5	0,93
496,952	0,93
497,404	0,94
497,856	0,94
498,309	0,94
498,761	0,95
499,213	0,95
499,665	0,96
500,117	0,96
500,569	0,97
501,021	0,97
501,473	0,97
501,925	0,98
502,377	0,98
502,828	0,99
503,28	0,99
503,732	1
504,184	1
504,636	1,01
505,087	1,01
505,539	1,01
505,991	1,02
506,442	1,02
506,894	1,03
507,345	1,03
507,797	1,04
508,249	1,04
508,7	1,04
509,151	1,05
509,603	1,05
510,054	1,06
510,506	1,06
510,957	1,07
511,408	1,07
511,86	1,07
512,311	1,08
512,762	1,08
513,213	1,09
513,665	1,09
514,116	1,09
514,567	1,1
515,018	1,1
515,469	1,1
515,92	1,11
516,371	1,11
516,822	1,11
517,273	1,12
517,724	1,12
518,175	1,12
518,626	1,13
519,076	1,13
519,527	1,13
519,978	1,13
520,429	1,14
520,88	1,14
521,33	1,14
521,781	1,14
522,232	1,14
522,682	1,15
523,133	1,15
523,583	1,15
524,034	1,15
524,484	1,15
524,935	1,15
525,385	1,15
525,836	1,15
526,286	1,15
526,736	1,15
527,187	1,15
527,637	1,15
528,087	1,15
528,538	1,15
528,988	1,15
529,438	1,15
529,888	1,15
530,338	1,15
530,788	1,14
531,238	1,14
531,688	1,14
532,139	1,14
532,589	1,14
533,038	1,14
533,488	1,14
533,938	1,13
534,388	1,13
534,838	1,13
535,288	1,12
535,738	1,12
536,187	1,12
536,637	1,11
537,087	1,11
537,537	1,1
537,986	1,1
538,436	1,09
538,885	1,09
539,335	1,08
539,785	1,08
540,234	1,07
540,684	1,07
541,133	1,06
541,582	1,06
542,032	1,05
542,481	1,05
542,931	1,04
543,38	1,03
543,829	1,03
544,278	1,02
544,728	1,02
545,177	1,01
545,626	1,01
546,075	1
546,524	1
546,973	0,99
547,422	0,99
547,871	0,98
548,32	0,98
548,769	0,98
549,218	0,97
549,667	0,97
550,116	0,96
550,565	0,96
551,014	0,95
551,463	0,95
551,911	0,94
552,36	0,94
552,809	0,93
553,258	0,93
553,706	0,92
554,155	0,92
554,603	0,91
555,052	0,91
555,501	0,9
555,949	0,9
556,398	0,89
556,846	0,88
557,294	0,88
557,743	0,87
558,191	0,87
558,64	0,86
559,088	0,85
559,536	0,85
559,985	0,84
560,433	0,84
560,881	0,83
561,329	0,83
561,777	0,82
562,225	0,82
562,674	0,81
563,122	0,81
563,57	0,8
564,018	0,8
564,466	0,79
564,914	0,79
565,362	0,79
565,809	0,78
566,257	0,78
566,705	0,77
567,153	0,77
567,601	0,76
568,048	0,76
568,496	0,75
568,944	0,75
569,392	0,74
569,839	0,74
570,287	0,73
570,734	0,73
571,182	0,73
571,63	0,72
572,077	0,72
572,525	0,71
572,972	0,71
573,419	0,71
573,867	0,7
574,314	0,7
574,761	0,69
575,209	0,69
575,656	0,69
576,103	0,68
576,551	0,68
576,998	0,68
577,445	0,67
577,892	0,67
578,339	0,66
578,786	0,66
579,233	0,66
579,68	0,65
580,127	0,65
580,574	0,65
581,021	0,64
581,468	0,64
581,915	0,64
582,362	0,63
582,809	0,63
583,255	0,63
583,702	0,63
584,149	0,62
584,596	0,62
585,042	0,62
585,489	0,61
585,936	0,61
586,382	0,61
586,829	0,61
587,275	0,61
587,722	0,6
588,168	0,6
588,615	0,6
589,061	0,59
589,508	0,59
589,954	0,59
590,4	0,59
590,847	0,58
591,293	0,58
591,739	0,58
592,185	0,58
592,632	0,58
593,078	0,58
593,524	0,57
593,97	0,57
594,416	0,57
594,862	0,57
595,308	0,57
595,754	0,57
596,2	0,56
596,646	0,56
597,092	0,56
597,538	0,56
597,984	0,55
598,43	0,55
598,876	0,55
599,321	0,55
599,767	0,55
600,213	0,55
600,659	0,54
601,104	0,54
601,55	0,54
601,995	0,54
602,441	0,54
602,887	0,54
603,332	0,53
603,778	0,53
604,223	0,53
604,668	0,53
605,114	0,53
605,559	0,53
606,005	0,53
606,45	0,53
606,895	0,53
607,341	0,52
607,786	0,52
608,231	0,52
608,676	0,52
609,121	0,51
609,566	0,5
610,012	0,5
610,457	0,5
610,902	0,49
611,347	0,49
611,792	0,49
612,237	0,48
612,682	0,48
613,127	0,48
613,571	0,48
614,016	0,49
614,461	0,49
614,906	0,49
615,351	0,49
615,795	0,49
616,24	0,49
616,685	0,49
617,129	0,49
617,574	0,49
618,019	0,49
618,463	0,49
618,908	0,49
619,352	0,49
619,797	0,49
620,241	0,49
620,686	0,49
621,13	0,49
621,574	0,49
622,019	0,48
622,463	0,48
622,907	0,48
623,352	0,48
623,796	0,48
624,24	0,48
624,684	0,48
625,128	0,48
625,572	0,48
626,016	0,48
626,461	0,48
626,905	0,48
627,349	0,48
627,793	0,48
628,236	0,48
628,68	0,47
629,124	0,47
629,568	0,47
630,012	0,47
630,456	0,47
630,9	0,47
631,343	0,47
631,787	0,47
632,231	0,47
632,674	0,47
633,118	0,47
633,562	0,47
634,005	0,47
634,449	0,47
634,892	0,47
635,336	0,47
635,779	0,47
636,223	0,46
636,666	0,46
637,109	0,46
637,553	0,46
637,996	0,46
638,439	0,46
638,883	0,46
639,326	0,46
639,769	0,46
640,212	0,46
640,655	0,46
641,099	0,46
641,542	0,46
641,985	0,46
642,428	0,46
642,871	0,46
643,314	0,45
643,757	0,45
644,2	0,45
644,643	0,45
645,085	0,45
645,528	0,45
645,971	0,45
646,414	0,45
646,857	0,45
647,299	0,45
647,742	0,45
648,185	0,45
648,627	0,45
649,07	0,45
649,513	0,45
649,955	0,45
650,398	0,45
650,84	0,45
651,283	0,45
651,725	0,45
652,168	0,45
652,61	0,45
653,052	0,45
653,495	0,44
653,937	0,36
654,379	0,3
654,821	0,31
655,264	0,31
655,706	0,31
656,148	0,31
656,59	0,31
657,032	0,31
657,474	0,31
657,916	0,31
658,358	0,3
658,8	0,36
659,242	0,44
659,684	0,44
660,126	0,44
660,568	0,44
661,01	0,44
661,452	0,44
661,894	0,44
662,335	0,44
662,777	0,44
663,219	0,44
663,661	0,44
664,102	0,44
664,544	0,44
664,985	0,44
665,427	0,44
665,869	0,44
666,31	0,44
666,752	0,44
667,193	0,44
667,634	0,44
668,076	0,44
668,517	0,44
668,959	0,44
669,4	0,44
669,841	0,44
670,282	0,44
670,724	0,44
671,165	0,44
671,606	0,44
672,047	0,44
672,488	0,44
672,929	0,43
673,37	0,43
673,811	0,43
674,252	0,43
674,693	0,43
675,134	0,43
675,575	0,43
676,016	0,43
676,457	0,43
676,898	0,43
677,339	0,43
677,78	0,43
678,22	0,43
678,661	0,43
679,102	0,43
679,542	0,43
679,983	0,43
680,424	0,43
680,864	0,43
681,305	0,43
681,745	0,43
682,186	0,43
682,626	0,43
683,067	0,43
683,507	0,43
683,948	0,43
684,388	0,43
684,828	0,43
685,269	0,43
685,709	0,43
686,149	0,43
686,589	0,42
687,029	0,42
687,47	0,42
687,91	0,42
688,35	0,42
688,79	0,42
689,23	0,42
689,67	0,42
690,11	0,42
690,55	0,42
690,99	0,42
691,43	0,42
691,87	0,42
692,31	0,42
692,749	0,41
693,189	0,41
693,629	0,41
694,069	0,41
694,508	0,41
694,948	0,41
695,388	0,41
695,827	0,41
696,267	0,41
696,706	0,41
697,146	0,41
697,586	0,42
698,025	0,42
698,464	0,42
698,904	0,42
699,343	0,42
699,783	0,42
700,222	0,42
700,661	0,42
701,101	0,42
701,54	0,42
701,979	0,42
702,418	0,42
702,857	0,42
703,297	0,42
703,736	0,42
704,175	0,42
704,614	0,42
705,053	0,42
705,492	0,42
705,931	0,42
706,37	0,42
706,809	0,41
707,248	0,41
707,687	0,41
708,125	0,41
708,564	0,41
709,003	0,41
709,442	0,41
709,88	0,41
710,319	0,41
710,758	0,41
711,196	0,41
711,635	0,41
712,074	0,41
712,512	0,41
712,951	0,41
713,389	0,41
713,828	0,41
714,266	0,41
714,705	0,41
715,143	0,41
715,581	0,41
716,02	0,41
716,458	0,41
716,896	0,41
717,334	0,41
717,773	0,41
718,211	0,41
718,649	0,41
719,087	0,41
719,525	0,41
719,963	0,41
720,401	0,41
720,839	0,41
721,277	0,41
721,715	0,41
722,153	0,41
722,591	0,41
723,029	0,41
723,467	0,41
723,905	0,41
724,342	0,41
724,78	0,41
725,218	0,41
725,656	0,41
726,093	0,41
726,531	0,41
726,969	0,41
727,406	0,41
727,844	0,41
728,281	0,41
728,719	0,4
729,156	0,4
729,594	0,4
730,031	0,4
730,469	0,4
730,906	0,4
731,343	0,4
731,781	0,4
732,218	0,4
732,655	0,4
733,092	0,4
733,53	0,4
733,967	0,4
734,404	0,4
734,841	0,4
735,278	0,4
735,715	0,4
736,152	0,39
736,589	0,39
737,026	0,39
737,463	0,39
737,9	0,39
738,337	0,39
738,774	0,39
739,211	0,39
739,647	0,39
740,084	0,4
740,521	0,4
740,958	0,4
741,394	0,4
741,831	0,4
742,268	0,4
742,704	0,4
743,141	0,4
743,577	0,4
744,014	0,4
744,45	0,4
744,887	0,39
745,323	0,39
745,76	0,39
746,196	0,39
746,632	0,39
747,069	0,39
747,505	0,39
747,941	0,39
748,378	0,39
748,814	0,39
749,25	0,39
749,686	0,39
750,122	0,39
750,558	0,39
750,994	0,4
751,43	0,4
751,866	0,4
752,302	0,4
752,738	0,4
753,174	0,4
753,61	0,4
754,046	0,4
754,482	0,4
754,918	0,4
755,354	0,4
755,789	0,4
756,225	0,39
756,661	0,39
757,096	0,39
757,532	0,39
757,968	0,39
758,403	0,39
758,839	0,38
759,274	0,38
759,71	0,38
760,145	0,37
760,581	0,37
761,016	0,36
761,452	0,36
761,887	0,35
762,322	0,35
762,758	0,34
763,193	0,34
763,628	0,33
764,063	0,33
764,499	0,32
764,934	0,32
765,369	0,31
765,804	0,3
766,239	0,3
766,674	0,29
767,109	0,29
767,544	0,28
767,979	0,27
768,414	0,26
768,849	0,25
769,284	0,25
769,719	0,23
770,154	0,23
770,588	0,22
771,023	0,21
771,458	0,2
771,893	0,19
772,327	0,18
772,762	0,17
773,197	0,16
773,631	0,15
774,066	0,14
774,5	0,13
774,935	0,12
775,369	0,11
775,804	0,09
776,238	0,08
776,673	0,07
777,107	0,06
777,541	0,06
777,976	0,05
778,41	0,04
778,844	0,03
779,279	0,03
779,713	0,02
780,147	0,02
780,581	0,01
781,015	0
781,449	-0,01
781,883	-0,01
782,317	-0,03
782,751	-0,05
783,185	-0,06
783,619	-0,06
784,053	-0,07
784,487	-0,08
784,921	-0,09
785,355	-0,1
785,789	-0,11
786,223	-0,11
786,656	-0,13
787,09	-0,14
787,524	-0,15
787,957	-0,16
788,391	-0,18
788,825	-0,2
789,258	-0,21
789,692	-0,23
790,125	-0,24
790,559	-0,25
790,992	-0,27
791,426	-0,29
791,859	-0,3
792,293	-0,33
792,726	-0,35
793,159	-0,36
793,593	-0,37
794,026	-0,4
794,459	-0,42
794,892	-0,45
795,326	-0,47
795,759	-0,51
796,192	-0,55
796,625	-0,6
797,058	-0,62
797,491	-0,66
797,924	-0,7
798,357	-0,75
798,79	-0,79
799,223	-0,83
799,656	-0,88
800,089	-0,93
800,522	-0,97
800,955	-1,01
801,387	-1,07
801,82	-1,12
802,253	-1,18
802,686	-1,26
803,118	-1,32
803,551	-1,37
803,984	-1,41
804,416	-1,45
804,849	-1,48
805,281	-1,59
805,714	-1,96
806,146	-2,43
806,579	-2,7
807,011	-2,86
807,444	-2,96
807,876	-3,04
808,308	-3,08
808,741	-3,1
809,173	-3,16
809,605	-3,18
810,037	-3,25
810,47	-3,17
810,902	-2,98
811,334	-2,82
811,766	-2,66
812,198	-2,41
812,63	-1,98
813,062	-1,76
813,494	-1,67
813,926	-1,58
814,358	-1,53
814,79	-1,44
815,222	-1,39
815,654	-1,34
816,086	-1,27
816,518	-1,22
816,949	-1,17
817,381	-1,13
817,813	-1,11
818,245	-1,07
818,676	-1,03
819,108	-0,99
819,54	-0,98
819,971	-0,96
820,403	-0,91
820,834	-0,9
821,266	-0,85
821,697	-0,83
822,129	-0,82
822,56	-0,79
822,991	-0,77
823,423	-0,75
823,854	-0,74
824,286	-0,72
824,717	-0,72
825,148	-0,7
825,579	-0,69
826,01	-0,68
826,442	-0,68
826,873	-0,66
827,304	-0,63
827,735	-0,63
828,166	-0,63
828,597	-0,63
829,028	-0,61
829,459	-0,62
829,89	-0,62
830,321	-0,57
830,752	-0,58
831,183	-0,56
831,613	-0,55
832,044	-0,55
832,475	-0,54
832,906	-0,56
833,336	-0,56
833,767	-0,57
834,198	-0,56
834,628	-0,54
835,059	-0,57
835,49	-0,57
835,92	-0,55
836,351	-0,56
836,781	-0,56
837,212	-0,57
837,642	-0,58
838,072	-0,55
838,503	-0,56
838,933	-0,54
839,364	-0,55
839,794	-0,53
840,224	-0,52
840,654	-0,57
841,085	-0,57
841,515	-0,54
841,945	-0,54
842,375	-0,49
842,805	-0,49
843,235	-0,47
843,665	-0,49
844,095	-0,48
844,525	-0,5
844,955	-0,51
845,385	-0,48
845,815	-0,47
846,245	-0,49
846,675	-0,5
847,105	-0,52
847,534	-0,52
847,964	-0,5
848,394	-0,49
848,824	-0,53
849,253	-0,52
849,683	-0,51
850,112	-0,53
850,542	-0,56
850,972	-0,57
851,401	-0,56
851,831	-0,54
852,26	-0,54
852,69	-0,58
853,119	-0,57
853,548	-0,57
853,978	-0,57
854,407	-0,55
854,836	-0,55
855,266	-0,54
855,695	-0,55
856,124	-0,57
856,553	-0,58
856,983	-0,59
857,412	-0,59
857,841	-0,6
858,27	-0,6
858,699	-0,61
859,128	-0,64
859,557	-0,65
859,986	-0,67
860,415	-0,64
860,844	-0,61
861,273	-0,61
861,702	-0,62
862,13	-0,61
862,559	-0,63
862,988	-0,6
863,417	-0,59
863,845	-0,58
864,274	-0,59
864,703	-0,58
865,131	-0,59
865,56	-0,6
865,989	-0,62
866,417	-0,59
866,846	-0,59
867,274	-0,58
867,703	-0,6
868,131	-0,61
868,559	-0,63
868,988	-0,64
869,416	-0,63
869,844	-0,64
870,273	-0,66
870,701	-0,64
871,129	-0,68
871,557	-0,71
871,986	-0,71
872,414	-0,72
872,842	-0,69
873,27	-0,66
873,698	-0,64
874,126	-0,67
874,554	-0,66
874,982	-0,66
875,41	-0,68
875,838	-0,63
876,266	-0,6
876,694	-0,61
877,122	-0,6
877,549	-0,65
877,977	-0,63
878,405	-0,65
878,833	-0,62
879,26	-0,59
879,688	-0,59
880,116	-0,58
880,543	-0,56
880,971	-0,56
881,399	-0,58
881,826	-0,59
882,254	-0,56
882,681	-0,6
883,109	-0,57
883,536	-0,58
883,963	-0,6
884,391	-0,59
884,818	-0,58
885,245	-0,62
885,673	-0,64
886,1	-0,61
886,527	-0,61
886,954	-0,58
887,381	-0,59
887,809	-0,6
888,236	-0,62
888,663	-0,62
889,09	-0,65
889,517	-0,67
889,944	-0,65
890,371	-0,64
890,798	-0,65
891,225	-0,65
891,652	-0,68
892,078	-0,65
892,505	-0,68
892,932	-0,63
893,359	-0,63
893,786	-0,63
894,212	-0,61
894,639	-0,64
895,066	-0,65
895,492	-0,59
895,919	-0,6
896,346	-0,6
896,772	-0,6
897,199	-0,57
897,625	-0,6
898,052	-0,57
898,478	-0,56
898,904	-0,57
899,331	-0,56
899,757	-0,57
900,183	-0,59
900,61	-0,57
901,036	-0,57
901,462	-0,56
901,888	-0,55
902,315	-0,53
902,741	-0,58
903,167	-0,57
903,593	-0,6
904,019	-0,58
904,445	-0,56
904,871	-0,59
905,297	-0,61
905,723	-0,62
906,149	-0,61
906,575	-0,62
907,001	-0,63
907,427	-0,6
907,852	-0,59
908,278	-0,59
908,704	-0,58
909,13	-0,57
909,555	-0,56
909,981	-0,55
910,407	-0,55
910,832	-0,55
911,258	-0,55
911,684	-0,55
912,109	-0,54
912,535	-0,56
912,96	-0,52
913,386	-0,56
913,811	-0,56
914,236	-0,58
914,662	-0,55
915,087	-0,58
915,512	-0,59
915,938	-0,61
916,363	-0,6
916,788	-0,61
917,213	-0,59
917,639	-0,63
918,064	-0,6
918,489	-0,6
918,914	-0,6
919,339	-0,62
919,764	-0,59
920,189	-0,59
920,614	-0,61
921,039	-0,61
921,464	-0,57
921,889	-0,6
922,314	-0,61
922,738	-0,65
923,163	-0,67
923,588	-0,67
924,013	-0,66
924,437	-0,66
924,862	-0,67
925,287	-0,63
925,711	-0,64
926,136	-0,65
926,561	-0,64
926,985	-0,63
927,41	-0,59
927,834	-0,56
928,259	-0,53
928,683	-0,52
929,108	-0,5
929,532	-0,51
929,956	-0,5
930,381	-0,5
930,805	-0,5
931,229	-0,49
931,653	-0,47
932,078	-0,47
932,502	-0,49
932,926	-0,5
933,35	-0,5
933,774	-0,49
934,198	-0,48
934,622	-0,47
935,046	-0,47
935,47	-0,47
935,894	-0,46
936,318	-0,46
936,742	-0,45
937,166	-0,45
937,59	-0,45
938,014	-0,46
938,437	-0,46
938,861	-0,48
939,285	-0,47
939,709	-0,47
940,132	-0,48
940,556	-0,49
940,98	-0,48
941,403	-0,48
941,827	-0,48
942,25	-0,49
942,674	-0,48
943,097	-0,47
943,521	-0,48
943,944	-0,5
944,368	-0,49
944,791	-0,47
945,214	-0,49
945,638	-0,5
946,061	-0,53
946,484	-0,54
946,907	-0,52
947,331	-0,53
947,754	-0,57
948,177	-0,54
948,6	-0,54
949,023	-0,54
949,446	-0,54
949,869	-0,52
950,292	-0,52
950,715	-0,49
951,138	-0,47
951,561	-0,46
951,984	-0,46
952,407	-0,45
952,83	-0,44
953,252	-0,4
953,675	-0,4
954,098	-0,4
954,521	-0,39
954,943	-0,38
955,366	-0,4
955,789	-0,38
956,211	-0,39
956,634	-0,39
957,056	-0,36
957,479	-0,37
957,902	-0,39
958,324	-0,39
958,746	-0,37
959,169	-0,38
959,591	-0,38
960,014	-0,39
960,436	-0,39
960,858	-0,39
961,281	-0,39
961,703	-0,41
962,125	-0,4
962,547	-0,38
962,969	-0,4
963,391	-0,4
963,814	-0,41
964,236	-0,4
964,658	-0,37
965,08	-0,39
965,502	-0,37
965,924	-0,35
966,346	-0,35
966,768	-0,34
967,189	-0,36
967,611	-0,35
968,033	-0,35
968,455	-0,33
968,877	-0,35
969,298	-0,36
969,72	-0,36
970,142	-0,36
970,563	-0,36
970,985	-0,35
971,407	-0,35
971,828	-0,33
972,25	-0,33
972,671	-0,31
973,093	-0,3
973,514	-0,28
973,936	-0,26
974,357	-0,25
974,778	-0,25
975,2	-0,24
975,621	-0,23
976,042	-0,21
976,464	-0,2
976,885	-0,18
977,306	-0,18
977,727	-0,17
978,148	-0,16
978,57	-0,16
978,991	-0,14
979,412	-0,13
979,833	-0,12
980,254	-0,12
980,675	-0,12
981,096	-0,11
981,517	-0,09
981,937	-0,08
982,358	-0,07
982,779	-0,05
983,2	-0,05
983,621	-0,04
984,042	-0,03
984,462	-0,01
984,883	0
985,304	0,02
985,724	0,03
986,145	0,03
986,565	0,05
986,986	0,06
987,407	0,08
987,827	0,09
988,248	0,11
988,668	0,12
989,088	0,12
989,509	0,14
989,929	0,15
990,35	0,16
990,77	0,17
991,19	0,17
991,61	0,19
992,031	0,2
992,451	0,21
992,871	0,22
993,291	0,23
993,711	0,24
994,131	0,25
994,551	0,25
994,971	0,26
995,391	0,27
995,811	0,28
996,231	0,28
996,651	0,29
997,071	0,29
997,491	0,3
997,911	0,31
998,331	0,32
998,75	0,32
999,17	0,33
999,59	0,33
1000,009	0,34
1000,429	0,35
1000,849	0,35
1001,268	0,36
1001,688	0,36
1002,107	0,36
1002,527	0,37
1002,946	0,37
1003,366	0,37
1003,785	0,38
1004,205	0,38
1004,624	0,38
1005,044	0,38
1005,463	0,38
1005,882	0,39
1006,301	0,39
1006,721	0,39
1007,14	0,39
1007,559	0,39
1007,978	0,39
1008,397	0,39
1008,816	0,39
1009,235	0,39
1009,655	0,39
1010,074	0,39
1010,492	0,39
1010,911	0,39
1011,33	0,39
1011,749	0,39
1012,168	0,39
1012,587	0,39
1013,006	0,39
1013,425	0,39
1013,843	0,39
1014,262	0,39
1014,681	0,38
1015,099	0,38
1015,518	0,38
1015,937	0,38
1016,355	0,38
1016,774	0,38
1017,192	0,38
1017,611	0,38
1018,029	0,38
1018,448	0,38
1018,866	0,38
1019,285	0,38
1019,703	0,38
1020,121	0,38
1020,54	0,38
1020,958	0,38
1021,376	0,38
1021,794	0,38
1022,213	0,38
1022,631	0,38
1023,049	0,38
1023,467	0,38
1023,885	0,38
1024,303	0,38
1024,721	0,38
1025,139	0,38
1025,557	0,38
1025,975	0,38
1026,393	0,38
1026,811	0,38
1027,229	0,37
1027,647	0,37
1028,065	0,37
1028,482	0,37
1028,9	0,37
1029,318	0,37
1029,735	0,37
1030,153	0,37
1030,571	0,37
1030,988	0,37
1031,406	0,37
1031,823	0,37
1032,241	0,37
1032,659	0,37
1033,076	0,37
1033,493	0,37
1033,911	0,37
1034,328	0,37
1034,746	0,38
1035,163	0,38
1035,58	0,38
1035,997	0,38
1036,415	0,38
1036,832	0,38
1037,249	0,38
1037,666	0,38
1038,083	0,38
1038,501	0,38
1038,918	0,38
1039,335	0,37
1039,752	0,37
1040,169	0,37
1040,586	0,37
1041,003	0,37
1041,419	0,37
1041,836	0,37
1042,253	0,37
1042,67	0,37
1043,087	0,37
1043,504	0,37
1043,92	0,37
1044,337	0,37
1044,754	0,37
1045,17	0,37
1045,587	0,37
1046,004	0,36
1046,42	0,36
1046,837	0,36
1047,253	0,36
1047,67	0,36
1048,086	0,36
1048,503	0,36
1048,919	0,36
1049,335	0,37
1049,752	0,37
1050,168	0,37
1050,584	0,37
1051,001	0,37
1051,417	0,37
1051,833	0,37
1052,249	0,37
1052,665	0,37
1053,081	0,37
1053,497	0,37
1053,914	0,37
1054,33	0,37
1054,746	0,38
1055,162	0,38
1055,578	0,38
1055,993	0,38
1056,409	0,38
1056,825	0,38
1057,241	0,38
1057,657	0,38
1058,073	0,38
1058,488	0,38
1058,904	0,38
1059,32	0,38
1059,736	0,38
1060,151	0,38
1060,567	0,38
1060,982	0,38
1061,398	0,38
1061,813	0,38
1062,229	0,38
1062,644	0,38
1063,06	0,38
1063,475	0,38
1063,891	0,38
1064,306	0,38
1064,721	0,38
1065,137	0,38
1065,552	0,38
1065,967	0,37
1066,382	0,37
1066,798	0,37
1067,213	0,37
1067,628	0,37
1068,043	0,37
1068,458	0,38
1068,873	0,38
1069,288	0,38
1069,703	0,38
1070,118	0,38
1070,533	0,38
1070,948	0,38
1071,363	0,38
1071,778	0,38
1072,193	0,38
1072,607	0,38
1073,022	0,38
1073,437	0,38
1073,852	0,38
1074,266	0,38
1074,681	0,38
1075,096	0,38
1075,51	0,38
1075,925	0,38
1076,339	0,38
1076,754	0,38
1077,168	0,38
1077,583	0,38
1077,997	0,38
1078,412	0,37
1078,826	0,37
1079,24	0,37
1079,655	0,37
1080,069	0,37
1080,483	0,37
1080,897	0,37
1081,312	0,37
1081,726	0,37
1082,14	0,37
1082,554	0,37
1082,968	0,37
1083,382	0,37
1083,796	0,36
1084,21	0,36
1084,624	0,36
1085,038	0,36
1085,452	0,36
1085,866	0,36
1086,28	0,36
1086,694	0,36
1087,108	0,36
1087,521	0,36
1087,935	0,35
1088,349	0,35
1088,763	0,35
1089,176	0,35
1089,59	0,35
1090,004	0,34
1090,417	0,34
1090,831	0,34
1091,244	0,33
1091,658	0,33
1092,071	0,32
1092,485	0,32
1092,898	0,32
1093,312	0,31
1093,725	0,31
1094,138	0,31
1094,552	0,31
1094,965	0,3
1095,378	0,3
1095,791	0,3
1096,205	0,3
1096,618	0,3
1097,031	0,29
1097,444	0,29
1097,857	0,29
1098,27	0,29
1098,683	0,29
1099,096	0,28
1099,509	0,28
1099,922	0,27
1100,335	0,27
1100,748	0,27
1101,161	0,26
1101,574	0,26
1101,986	0,25
1102,399	0,25
1102,812	0,24
1103,225	0,24
1103,637	0,23
1104,05	0,23
1104,463	0,23
1104,875	0,23
1105,288	0,22
1105,7	0,22
1106,113	0,22
1106,525	0,21
1106,938	0,21
1107,35	0,2
1107,763	0,2
1108,175	0,2
1108,588	0,2
1109	0,19
1109,412	0,19
1109,824	0,2
1110,237	0,2
1110,649	0,2
1111,061	0,19
