Data from 18C-808nm-8A-cont_Absorbance__296__01725.txt Node

Date: Mon Jul 17 17:28:55 CEST 2023
User: Laser008
Spectrometer: MAYP115816
Trigger mode: 0
Integration Time (sec): 2,500000E-1
Scans to average: 10
Electric dark correction enabled: true
Nonlinearity correction enabled: true
Boxcar width: 5
XAxis mode: Wavelengths
Number of Pixels in Spectrum: 2068
>>>>>Begin Spectral Data<<<<<
198,914	-0,72
199,384	-0,49
199,855	-0,36
200,325	-0,28
200,796	-0,24
201,266	-0,19
201,737	-0,17
202,207	-0,16
202,677	-0,15
203,147	-0,14
203,618	-0,11
204,088	-0,1
204,558	-0,08
205,028	-0,07
205,498	-0,08
205,968	-0,09
206,439	-0,1
206,909	-0,09
207,379	-0,09
207,849	-0,09
208,319	-0,09
208,789	-0,09
209,258	-0,09
209,728	-0,11
210,198	-0,11
210,668	-0,11
211,138	-0,11
211,608	-0,11
212,077	-0,11
212,547	-0,1
213,017	-0,1
213,486	-0,1
213,956	-0,11
214,426	-0,12
214,895	-0,1
215,365	-0,12
215,834	-0,12
216,304	-0,12
216,773	-0,12
217,243	-0,14
217,712	-0,16
218,181	-0,16
218,651	-0,16
219,12	-0,16
219,589	-0,16
220,058	-0,15
220,528	-0,16
220,997	-0,17
221,466	-0,18
221,935	-0,19
222,404	-0,18
222,873	-0,17
223,342	-0,17
223,812	-0,18
224,281	-0,17
224,749	-0,18
225,218	-0,19
225,687	-0,19
226,156	-0,18
226,625	-0,16
227,094	-0,15
227,563	-0,16
228,031	-0,18
228,5	-0,18
228,969	-0,18
229,438	-0,17
229,906	-0,16
230,375	-0,15
230,844	-0,15
231,312	-0,15
231,781	-0,15
232,249	-0,14
232,718	-0,14
233,186	-0,12
233,655	-0,13
234,123	-0,12
234,591	-0,13
235,06	-0,13
235,528	-0,13
235,996	-0,13
236,465	-0,12
236,933	-0,12
237,401	-0,12
237,869	-0,12
238,337	-0,12
238,805	-0,1
239,274	-0,1
239,742	-0,1
240,21	-0,09
240,678	-0,09
241,146	-0,09
241,614	-0,1
242,081	-0,09
242,549	-0,09
243,017	-0,09
243,485	-0,09
243,953	-0,09
244,421	-0,08
244,888	-0,08
245,356	-0,09
245,824	-0,09
246,291	-0,08
246,759	-0,09
247,227	-0,1
247,694	-0,09
248,162	-0,08
248,629	-0,08
249,097	-0,09
249,564	-0,09
250,032	-0,1
250,499	-0,1
250,967	-0,1
251,434	-0,1
251,901	-0,1
252,369	-0,1
252,836	-0,11
253,303	-0,12
253,77	-0,14
254,237	-0,13
254,705	-0,14
255,172	-0,13
255,639	-0,13
256,106	-0,14
256,573	-0,15
257,04	-0,14
257,507	-0,14
257,974	-0,15
258,441	-0,14
258,908	-0,14
259,375	-0,15
259,841	-0,15
260,308	-0,16
260,775	-0,16
261,242	-0,15
261,709	-0,17
262,175	-0,18
262,642	-0,18
263,109	-0,17
263,575	-0,18
264,042	-0,17
264,508	-0,17
264,975	-0,19
265,441	-0,19
265,908	-0,2
266,374	-0,19
266,841	-0,19
267,307	-0,19
267,773	-0,18
268,24	-0,18
268,706	-0,18
269,172	-0,18
269,639	-0,2
270,105	-0,18
270,571	-0,19
271,037	-0,19
271,503	-0,2
271,969	-0,19
272,435	-0,19
272,902	-0,21
273,368	-0,23
273,834	-0,23
274,3	-0,23
274,765	-0,23
275,231	-0,23
275,697	-0,22
276,163	-0,21
276,629	-0,21
277,095	-0,21
277,56	-0,21
278,026	-0,21
278,492	-0,2
278,958	-0,2
279,423	-0,2
279,889	-0,19
280,354	-0,2
280,82	-0,2
281,286	-0,21
281,751	-0,22
282,217	-0,21
282,682	-0,21
283,147	-0,21
283,613	-0,2
284,078	-0,2
284,544	-0,21
285,009	-0,22
285,474	-0,22
285,939	-0,23
286,405	-0,22
286,87	-0,22
287,335	-0,2
287,8	-0,19
288,265	-0,18
288,73	-0,21
289,195	-0,22
289,66	-0,22
290,125	-0,21
290,59	-0,21
291,055	-0,2
291,52	-0,2
291,985	-0,21
292,45	-0,23
292,915	-0,22
293,38	-0,23
293,844	-0,21
294,309	-0,2
294,774	-0,18
295,239	-0,18
295,703	-0,19
296,168	-0,18
296,632	-0,18
297,097	-0,16
297,562	-0,15
298,026	-0,17
298,491	-0,17
298,955	-0,17
299,419	-0,16
299,884	-0,16
300,348	-0,16
300,813	-0,15
301,277	-0,15
301,741	-0,15
302,205	-0,15
302,67	-0,14
303,134	-0,13
303,598	-0,13
304,062	-0,13
304,526	-0,13
304,99	-0,14
305,454	-0,14
305,919	-0,13
306,383	-0,14
306,847	-0,13
307,31	-0,14
307,774	-0,15
308,238	-0,15
308,702	-0,15
309,166	-0,16
309,63	-0,15
310,094	-0,13
310,557	-0,12
311,021	-0,12
311,485	-0,12
311,948	-0,11
312,412	-0,11
312,876	-0,1
313,339	-0,11
313,803	-0,11
314,266	-0,1
314,73	-0,11
315,193	-0,11
315,657	-0,1
316,12	-0,1
316,584	-0,07
317,047	-0,08
317,51	-0,07
317,973	-0,07
318,437	-0,05
318,9	-0,04
319,363	-0,03
319,826	-0,02
320,29	-0,03
320,753	-0,03
321,216	-0,04
321,679	-0,04
322,142	-0,04
322,605	-0,05
323,068	-0,05
323,531	-0,05
323,994	-0,05
324,457	-0,05
324,92	-0,03
325,382	-0,02
325,845	-0,02
326,308	-0,02
326,771	-0,02
327,233	-0,01
327,696	-0
328,159	0
328,622	0,01
329,084	0,01
329,547	0,01
330,009	0,02
330,472	0,03
330,934	0,04
331,397	0,05
331,859	0,05
332,322	0,05
332,784	0,06
333,246	0,06
333,709	0,06
334,171	0,06
334,633	0,07
335,096	0,06
335,558	0,06
336,02	0,06
336,482	0,06
336,944	0,07
337,406	0,08
337,868	0,08
338,331	0,09
338,793	0,1
339,255	0,1
339,717	0,11
340,178	0,12
340,64	0,12
341,102	0,13
341,564	0,14
342,026	0,16
342,488	0,17
342,949	0,19
343,411	0,21
343,873	0,23
344,335	0,27
344,796	0,3
345,258	0,34
345,719	0,39
346,181	0,43
346,643	0,48
347,104	0,51
347,566	0,54
348,027	0,57
348,488	0,6
348,95	0,62
349,411	0,64
349,873	0,67
350,334	0,69
350,795	0,7
351,256	0,72
351,718	0,72
352,179	0,73
352,64	0,73
353,101	0,74
353,562	0,74
354,023	0,74
354,484	0,74
354,945	0,75
355,406	0,75
355,867	0,75
356,328	0,75
356,789	0,76
357,25	0,76
357,711	0,76
358,172	0,76
358,633	0,77
359,093	0,77
359,554	0,77
360,015	0,77
360,476	0,77
360,936	0,77
361,397	0,77
361,858	0,77
362,318	0,77
362,779	0,78
363,239	0,78
363,7	0,78
364,16	0,78
364,621	0,78
365,081	0,78
365,541	0,78
366,002	0,78
366,462	0,78
366,922	0,78
367,383	0,78
367,843	0,78
368,303	0,78
368,763	0,78
369,223	0,78
369,684	0,78
370,144	0,78
370,604	0,78
371,064	0,78
371,524	0,78
371,984	0,78
372,444	0,78
372,904	0,78
373,363	0,78
373,823	0,77
374,283	0,77
374,743	0,77
375,203	0,77
375,663	0,77
376,122	0,77
376,582	0,77
377,042	0,77
377,501	0,77
377,961	0,77
378,42	0,77
378,88	0,77
379,34	0,77
379,799	0,77
380,259	0,77
380,718	0,77
381,177	0,77
381,637	0,77
382,096	0,77
382,555	0,77
383,015	0,77
383,474	0,77
383,933	0,77
384,393	0,77
384,852	0,77
385,311	0,77
385,77	0,77
386,229	0,77
386,688	0,77
387,147	0,77
387,606	0,77
388,065	0,77
388,524	0,77
388,983	0,77
389,442	0,76
389,901	0,76
390,36	0,76
390,819	0,76
391,277	0,76
391,736	0,76
392,195	0,76
392,654	0,76
393,112	0,76
393,571	0,76
394,03	0,76
394,488	0,76
394,947	0,76
395,405	0,76
395,864	0,76
396,322	0,76
396,781	0,76
397,239	0,76
397,698	0,76
398,156	0,76
398,614	0,76
399,073	0,76
399,531	0,76
399,989	0,76
400,447	0,76
400,905	0,76
401,364	0,76
401,822	0,76
402,28	0,76
402,738	0,76
403,196	0,75
403,654	0,75
404,112	0,75
404,57	0,75
405,028	0,75
405,486	0,75
405,944	0,75
406,402	0,75
406,859	0,75
407,317	0,75
407,775	0,75
408,233	0,75
408,691	0,75
409,148	0,75
409,606	0,75
410,064	0,75
410,521	0,75
410,979	0,75
411,436	0,75
411,894	0,75
412,351	0,75
412,809	0,75
413,266	0,75
413,724	0,75
414,181	0,75
414,638	0,75
415,096	0,75
415,553	0,75
416,01	0,75
416,467	0,75
416,925	0,75
417,382	0,75
417,839	0,75
418,296	0,75
418,753	0,75
419,21	0,75
419,667	0,75
420,124	0,75
420,581	0,75
421,038	0,75
421,495	0,75
421,952	0,75
422,409	0,75
422,866	0,75
423,322	0,75
423,779	0,75
424,236	0,75
424,693	0,75
425,149	0,75
425,606	0,75
426,063	0,75
426,519	0,75
426,976	0,75
427,433	0,75
427,889	0,75
428,346	0,75
428,802	0,75
429,258	0,75
429,715	0,75
430,171	0,75
430,628	0,75
431,084	0,75
431,54	0,75
431,997	0,75
432,453	0,75
432,909	0,75
433,365	0,74
433,821	0,74
434,277	0,74
434,734	0,74
435,19	0,74
435,646	0,74
436,102	0,74
436,558	0,74
437,014	0,74
437,47	0,74
437,925	0,74
438,381	0,74
438,837	0,74
439,293	0,75
439,749	0,75
440,205	0,75
440,66	0,75
441,116	0,75
441,572	0,75
442,027	0,75
442,483	0,75
442,939	0,75
443,394	0,75
443,85	0,75
444,305	0,75
444,761	0,75
445,216	0,75
445,672	0,75
446,127	0,75
446,582	0,75
447,038	0,75
447,493	0,75
447,948	0,75
448,403	0,75
448,859	0,75
449,314	0,75
449,769	0,75
450,224	0,75
450,679	0,75
451,134	0,75
451,589	0,75
452,044	0,75
452,499	0,75
452,954	0,75
453,409	0,75
453,864	0,75
454,319	0,75
454,774	0,75
455,229	0,75
455,684	0,75
456,138	0,75
456,593	0,75
457,048	0,75
457,503	0,75
457,957	0,75
458,412	0,75
458,866	0,75
459,321	0,76
459,776	0,76
460,23	0,76
460,685	0,76
461,139	0,76
461,593	0,76
462,048	0,76
462,502	0,76
462,957	0,76
463,411	0,76
463,865	0,76
464,319	0,76
464,774	0,77
465,228	0,77
465,682	0,77
466,136	0,77
466,59	0,77
467,044	0,77
467,499	0,77
467,953	0,77
468,407	0,77
468,861	0,77
469,315	0,77
469,768	0,77
470,222	0,77
470,676	0,78
471,13	0,78
471,584	0,78
472,038	0,78
472,491	0,78
472,945	0,78
473,399	0,78
473,852	0,78
474,306	0,78
474,76	0,78
475,213	0,78
475,667	0,79
476,12	0,79
476,574	0,79
477,027	0,79
477,481	0,79
477,934	0,79
478,388	0,79
478,841	0,8
479,294	0,8
479,748	0,8
480,201	0,8
480,654	0,8
481,107	0,8
481,561	0,81
482,014	0,81
482,467	0,81
482,92	0,81
483,373	0,81
483,826	0,81
484,279	0,82
484,732	0,82
485,185	0,82
485,638	0,82
486,091	0,82
486,544	0,82
486,997	0,83
487,449	0,83
487,902	0,83
488,355	0,83
488,808	0,84
489,26	0,84
489,713	0,84
490,166	0,84
490,618	0,85
491,071	0,85
491,523	0,85
491,976	0,85
492,429	0,86
492,881	0,86
493,333	0,86
493,786	0,87
494,238	0,87
494,691	0,87
495,143	0,88
495,595	0,88
496,048	0,88
496,5	0,89
496,952	0,89
497,404	0,89
497,856	0,9
498,309	0,9
498,761	0,9
499,213	0,91
499,665	0,91
500,117	0,92
500,569	0,92
501,021	0,92
501,473	0,93
501,925	0,93
502,377	0,93
502,828	0,94
503,28	0,94
503,732	0,95
504,184	0,95
504,636	0,95
505,087	0,96
505,539	0,96
505,991	0,96
506,442	0,97
506,894	0,97
507,345	0,98
507,797	0,98
508,249	0,98
508,7	0,99
509,151	0,99
509,603	1
510,054	1
510,506	1
510,957	1,01
511,408	1,01
511,86	1,01
512,311	1,02
512,762	1,02
513,213	1,02
513,665	1,02
514,116	1,03
514,567	1,03
515,018	1,03
515,469	1,04
515,92	1,04
516,371	1,04
516,822	1,05
517,273	1,05
517,724	1,05
518,175	1,06
518,626	1,06
519,076	1,06
519,527	1,06
519,978	1,07
520,429	1,07
520,88	1,07
521,33	1,07
521,781	1,07
522,232	1,08
522,682	1,08
523,133	1,08
523,583	1,08
524,034	1,08
524,484	1,08
524,935	1,08
525,385	1,08
525,836	1,08
526,286	1,08
526,736	1,08
527,187	1,08
527,637	1,08
528,087	1,08
528,538	1,08
528,988	1,08
529,438	1,08
529,888	1,08
530,338	1,08
530,788	1,08
531,238	1,08
531,688	1,07
532,139	1,07
532,589	1,07
533,038	1,07
533,488	1,07
533,938	1,07
534,388	1,06
534,838	1,06
535,288	1,06
535,738	1,06
536,187	1,05
536,637	1,05
537,087	1,05
537,537	1,04
537,986	1,04
538,436	1,03
538,885	1,03
539,335	1,02
539,785	1,02
540,234	1,02
540,684	1,01
541,133	1,01
541,582	1
542,032	1
542,481	0,99
542,931	0,99
543,38	0,98
543,829	0,98
544,278	0,97
544,728	0,97
545,177	0,97
545,626	0,96
546,075	0,96
546,524	0,95
546,973	0,95
547,422	0,95
547,871	0,94
548,32	0,94
548,769	0,94
549,218	0,93
549,667	0,93
550,116	0,93
550,565	0,92
551,014	0,92
551,463	0,91
551,911	0,91
552,36	0,91
552,809	0,9
553,258	0,9
553,706	0,89
554,155	0,89
554,603	0,89
555,052	0,88
555,501	0,88
555,949	0,87
556,398	0,87
556,846	0,86
557,294	0,86
557,743	0,86
558,191	0,85
558,64	0,85
559,088	0,84
559,536	0,84
559,985	0,83
560,433	0,83
560,881	0,82
561,329	0,82
561,777	0,81
562,225	0,81
562,674	0,81
563,122	0,8
563,57	0,8
564,018	0,79
564,466	0,79
564,914	0,79
565,362	0,78
565,809	0,78
566,257	0,77
566,705	0,77
567,153	0,77
567,601	0,76
568,048	0,76
568,496	0,76
568,944	0,75
569,392	0,75
569,839	0,75
570,287	0,74
570,734	0,74
571,182	0,74
571,63	0,73
572,077	0,73
572,525	0,73
572,972	0,72
573,419	0,72
573,867	0,72
574,314	0,71
574,761	0,71
575,209	0,71
575,656	0,7
576,103	0,7
576,551	0,7
576,998	0,69
577,445	0,69
577,892	0,69
578,339	0,69
578,786	0,68
579,233	0,68
579,68	0,68
580,127	0,67
580,574	0,67
581,021	0,67
581,468	0,66
581,915	0,66
582,362	0,66
582,809	0,66
583,255	0,66
583,702	0,65
584,149	0,65
584,596	0,65
585,042	0,65
585,489	0,64
585,936	0,64
586,382	0,64
586,829	0,64
587,275	0,64
587,722	0,63
588,168	0,63
588,615	0,63
589,061	0,63
589,508	0,63
589,954	0,62
590,4	0,62
590,847	0,62
591,293	0,62
591,739	0,62
592,185	0,61
592,632	0,61
593,078	0,61
593,524	0,61
593,97	0,61
594,416	0,61
594,862	0,61
595,308	0,61
595,754	0,6
596,2	0,6
596,646	0,6
597,092	0,6
597,538	0,6
597,984	0,6
598,43	0,6
598,876	0,59
599,321	0,59
599,767	0,59
600,213	0,59
600,659	0,59
601,104	0,59
601,55	0,59
601,995	0,59
602,441	0,58
602,887	0,58
603,332	0,58
603,778	0,58
604,223	0,58
604,668	0,58
605,114	0,58
605,559	0,58
606,005	0,57
606,45	0,57
606,895	0,57
607,341	0,57
607,786	0,57
608,231	0,57
608,676	0,56
609,121	0,56
609,566	0,55
610,012	0,55
610,457	0,54
610,902	0,54
611,347	0,54
611,792	0,54
612,237	0,53
612,682	0,53
613,127	0,53
613,571	0,53
614,016	0,54
614,461	0,54
614,906	0,54
615,351	0,54
615,795	0,54
616,24	0,54
616,685	0,54
617,129	0,54
617,574	0,55
618,019	0,55
618,463	0,55
618,908	0,54
619,352	0,54
619,797	0,54
620,241	0,54
620,686	0,54
621,13	0,54
621,574	0,54
622,019	0,54
622,463	0,54
622,907	0,54
623,352	0,53
623,796	0,53
624,24	0,53
624,684	0,53
625,128	0,53
625,572	0,53
626,016	0,53
626,461	0,53
626,905	0,53
627,349	0,53
627,793	0,53
628,236	0,53
628,68	0,53
629,124	0,53
629,568	0,53
630,012	0,53
630,456	0,53
630,9	0,53
631,343	0,53
631,787	0,53
632,231	0,53
632,674	0,53
633,118	0,53
633,562	0,53
634,005	0,53
634,449	0,53
634,892	0,53
635,336	0,53
635,779	0,53
636,223	0,53
636,666	0,53
637,109	0,52
637,553	0,52
637,996	0,52
638,439	0,52
638,883	0,52
639,326	0,52
639,769	0,52
640,212	0,52
640,655	0,52
641,099	0,52
641,542	0,52
641,985	0,52
642,428	0,52
642,871	0,52
643,314	0,52
643,757	0,51
644,2	0,51
644,643	0,51
645,085	0,51
645,528	0,51
645,971	0,51
646,414	0,51
646,857	0,51
647,299	0,51
647,742	0,51
648,185	0,51
648,627	0,51
649,07	0,51
649,513	0,51
649,955	0,51
650,398	0,51
650,84	0,51
651,283	0,51
651,725	0,51
652,168	0,51
652,61	0,51
653,052	0,51
653,495	0,51
653,937	0,43
654,379	0,37
654,821	0,37
655,264	0,38
655,706	0,38
656,148	0,38
656,59	0,38
657,032	0,38
657,474	0,38
657,916	0,37
658,358	0,37
658,8	0,43
659,242	0,51
659,684	0,51
660,126	0,51
660,568	0,51
661,01	0,51
661,452	0,51
661,894	0,51
662,335	0,51
662,777	0,5
663,219	0,5
663,661	0,5
664,102	0,5
664,544	0,5
664,985	0,5
665,427	0,5
665,869	0,5
666,31	0,5
666,752	0,5
667,193	0,5
667,634	0,5
668,076	0,5
668,517	0,5
668,959	0,5
669,4	0,5
669,841	0,5
670,282	0,5
670,724	0,5
671,165	0,5
671,606	0,5
672,047	0,5
672,488	0,5
672,929	0,5
673,37	0,5
673,811	0,5
674,252	0,5
674,693	0,5
675,134	0,5
675,575	0,49
676,016	0,49
676,457	0,49
676,898	0,49
677,339	0,49
677,78	0,49
678,22	0,49
678,661	0,49
679,102	0,49
679,542	0,49
679,983	0,49
680,424	0,49
680,864	0,49
681,305	0,49
681,745	0,49
682,186	0,49
682,626	0,49
683,067	0,49
683,507	0,49
683,948	0,49
684,388	0,49
684,828	0,49
685,269	0,49
685,709	0,49
686,149	0,49
686,589	0,49
687,029	0,49
687,47	0,49
687,91	0,49
688,35	0,49
688,79	0,49
689,23	0,49
689,67	0,49
690,11	0,49
690,55	0,49
690,99	0,49
691,43	0,48
691,87	0,48
692,31	0,48
692,749	0,48
693,189	0,48
693,629	0,48
694,069	0,48
694,508	0,48
694,948	0,48
695,388	0,48
695,827	0,48
696,267	0,48
696,706	0,48
697,146	0,48
697,586	0,48
698,025	0,48
698,464	0,48
698,904	0,48
699,343	0,48
699,783	0,48
700,222	0,48
700,661	0,48
701,101	0,48
701,54	0,48
701,979	0,48
702,418	0,48
702,857	0,48
703,297	0,48
703,736	0,48
704,175	0,48
704,614	0,48
705,053	0,48
705,492	0,48
705,931	0,48
706,37	0,48
706,809	0,48
707,248	0,48
707,687	0,48
708,125	0,48
708,564	0,48
709,003	0,48
709,442	0,48
709,88	0,48
710,319	0,48
710,758	0,47
711,196	0,47
711,635	0,47
712,074	0,47
712,512	0,47
712,951	0,47
713,389	0,47
713,828	0,47
714,266	0,47
714,705	0,47
715,143	0,47
715,581	0,47
716,02	0,47
716,458	0,47
716,896	0,47
717,334	0,47
717,773	0,47
718,211	0,47
718,649	0,47
719,087	0,47
719,525	0,47
719,963	0,47
720,401	0,47
720,839	0,47
721,277	0,47
721,715	0,47
722,153	0,47
722,591	0,47
723,029	0,47
723,467	0,47
723,905	0,47
724,342	0,47
724,78	0,47
725,218	0,47
725,656	0,47
726,093	0,47
726,531	0,47
726,969	0,47
727,406	0,47
727,844	0,47
728,281	0,47
728,719	0,47
729,156	0,47
729,594	0,47
730,031	0,47
730,469	0,47
730,906	0,47
731,343	0,47
731,781	0,47
732,218	0,46
732,655	0,46
733,092	0,46
733,53	0,46
733,967	0,46
734,404	0,46
734,841	0,46
735,278	0,46
735,715	0,46
736,152	0,45
736,589	0,45
737,026	0,45
737,463	0,45
737,9	0,45
738,337	0,45
738,774	0,45
739,211	0,45
739,647	0,45
740,084	0,45
740,521	0,45
740,958	0,45
741,394	0,45
741,831	0,45
742,268	0,45
742,704	0,45
743,141	0,45
743,577	0,45
744,014	0,45
744,45	0,45
744,887	0,45
745,323	0,45
745,76	0,45
746,196	0,45
746,632	0,45
747,069	0,45
747,505	0,44
747,941	0,44
748,378	0,44
748,814	0,44
749,25	0,44
749,686	0,45
750,122	0,45
750,558	0,45
750,994	0,45
751,43	0,45
751,866	0,45
752,302	0,45
752,738	0,45
753,174	0,46
753,61	0,46
754,046	0,46
754,482	0,46
754,918	0,45
755,354	0,45
755,789	0,45
756,225	0,45
756,661	0,45
757,096	0,45
757,532	0,45
757,968	0,44
758,403	0,44
758,839	0,44
759,274	0,44
759,71	0,43
760,145	0,43
760,581	0,42
761,016	0,41
761,452	0,41
761,887	0,4
762,322	0,4
762,758	0,4
763,193	0,39
763,628	0,38
764,063	0,38
764,499	0,37
764,934	0,36
765,369	0,35
765,804	0,35
766,239	0,34
766,674	0,33
767,109	0,33
767,544	0,32
767,979	0,3
768,414	0,29
768,849	0,28
769,284	0,28
769,719	0,27
770,154	0,26
770,588	0,25
771,023	0,24
771,458	0,23
771,893	0,21
772,327	0,2
772,762	0,19
773,197	0,19
773,631	0,18
774,066	0,17
774,5	0,16
774,935	0,15
775,369	0,13
775,804	0,12
776,238	0,11
776,673	0,1
777,107	0,09
777,541	0,08
777,976	0,08
778,41	0,07
778,844	0,05
779,279	0,04
779,713	0,04
780,147	0,03
780,581	0,02
781,015	0,01
781,449	0
781,883	-0,01
782,317	-0,03
782,751	-0,04
783,185	-0,05
783,619	-0,05
784,053	-0,06
784,487	-0,07
784,921	-0,07
785,355	-0,08
785,789	-0,09
786,223	-0,1
786,656	-0,11
787,09	-0,11
787,524	-0,12
787,957	-0,13
788,391	-0,15
788,825	-0,16
789,258	-0,19
789,692	-0,2
790,125	-0,22
790,559	-0,24
790,992	-0,26
791,426	-0,28
791,859	-0,3
792,293	-0,33
792,726	-0,35
793,159	-0,37
793,593	-0,39
794,026	-0,41
794,459	-0,44
794,892	-0,47
795,326	-0,5
795,759	-0,53
796,192	-0,58
796,625	-0,62
797,058	-0,64
797,491	-0,68
797,924	-0,72
798,357	-0,77
798,79	-0,81
799,223	-0,85
799,656	-0,9
800,089	-0,95
800,522	-0,99
800,955	-1,04
801,387	-1,1
801,82	-1,15
802,253	-1,21
802,686	-1,29
803,118	-1,35
803,551	-1,4
803,984	-1,45
804,416	-1,48
804,849	-1,52
805,281	-1,67
805,714	-2,03
806,146	-2,47
806,579	-2,72
807,011	-2,88
807,444	-2,97
807,876	-3,06
808,308	-3,09
808,741	-3,12
809,173	-3,18
809,605	-3,2
810,037	-3,27
810,47	-3,19
810,902	-2,99
811,334	-2,84
811,766	-2,69
812,198	-2,46
812,63	-2,03
813,062	-1,8
813,494	-1,7
813,926	-1,61
814,358	-1,56
814,79	-1,48
815,222	-1,42
815,654	-1,37
816,086	-1,3
816,518	-1,25
816,949	-1,19
817,381	-1,15
817,813	-1,14
818,245	-1,1
818,676	-1,06
819,108	-1,02
819,54	-1,01
819,971	-0,98
820,403	-0,93
820,834	-0,92
821,266	-0,88
821,697	-0,85
822,129	-0,83
822,56	-0,81
822,991	-0,78
823,423	-0,75
823,854	-0,75
824,286	-0,72
824,717	-0,71
825,148	-0,69
825,579	-0,68
826,01	-0,67
826,442	-0,67
826,873	-0,65
827,304	-0,62
827,735	-0,6
828,166	-0,61
828,597	-0,61
829,028	-0,6
829,459	-0,61
829,89	-0,61
830,321	-0,57
830,752	-0,57
831,183	-0,56
831,613	-0,56
832,044	-0,56
832,475	-0,55
832,906	-0,56
833,336	-0,56
833,767	-0,57
834,198	-0,55
834,628	-0,54
835,059	-0,57
835,49	-0,57
835,92	-0,55
836,351	-0,55
836,781	-0,55
837,212	-0,57
837,642	-0,56
838,072	-0,54
838,503	-0,55
838,933	-0,52
839,364	-0,53
839,794	-0,5
840,224	-0,5
840,654	-0,54
841,085	-0,54
841,515	-0,51
841,945	-0,51
842,375	-0,47
842,805	-0,46
843,235	-0,45
843,665	-0,48
844,095	-0,46
844,525	-0,48
844,955	-0,47
845,385	-0,45
845,815	-0,43
846,245	-0,45
846,675	-0,46
847,105	-0,48
847,534	-0,48
847,964	-0,46
848,394	-0,44
848,824	-0,48
849,253	-0,47
849,683	-0,47
850,112	-0,49
850,542	-0,52
850,972	-0,53
851,401	-0,51
851,831	-0,49
852,26	-0,5
852,69	-0,54
853,119	-0,53
853,548	-0,54
853,978	-0,54
854,407	-0,53
854,836	-0,53
855,266	-0,52
855,695	-0,53
856,124	-0,55
856,553	-0,55
856,983	-0,57
857,412	-0,56
857,841	-0,57
858,27	-0,58
858,699	-0,58
859,128	-0,61
859,557	-0,61
859,986	-0,62
860,415	-0,6
860,844	-0,58
861,273	-0,59
861,702	-0,59
862,13	-0,57
862,559	-0,59
862,988	-0,56
863,417	-0,55
863,845	-0,55
864,274	-0,55
864,703	-0,55
865,131	-0,56
865,56	-0,56
865,989	-0,58
866,417	-0,56
866,846	-0,57
867,274	-0,56
867,703	-0,58
868,131	-0,59
868,559	-0,59
868,988	-0,61
869,416	-0,6
869,844	-0,61
870,273	-0,64
870,701	-0,62
871,129	-0,65
871,557	-0,68
871,986	-0,68
872,414	-0,69
872,842	-0,67
873,27	-0,65
873,698	-0,62
874,126	-0,66
874,554	-0,65
874,982	-0,64
875,41	-0,67
875,838	-0,63
876,266	-0,6
876,694	-0,6
877,122	-0,59
877,549	-0,64
877,977	-0,61
878,405	-0,65
878,833	-0,61
879,26	-0,59
879,688	-0,59
880,116	-0,58
880,543	-0,56
880,971	-0,55
881,399	-0,58
881,826	-0,58
882,254	-0,57
882,681	-0,61
883,109	-0,56
883,536	-0,57
883,963	-0,58
884,391	-0,56
884,818	-0,55
885,245	-0,59
885,673	-0,6
886,1	-0,58
886,527	-0,57
886,954	-0,53
887,381	-0,54
887,809	-0,56
888,236	-0,57
888,663	-0,57
889,09	-0,61
889,517	-0,63
889,944	-0,62
890,371	-0,61
890,798	-0,62
891,225	-0,62
891,652	-0,66
892,078	-0,65
892,505	-0,67
892,932	-0,63
893,359	-0,64
893,786	-0,63
894,212	-0,61
894,639	-0,62
895,066	-0,64
895,492	-0,58
895,919	-0,58
896,346	-0,58
896,772	-0,58
897,199	-0,55
897,625	-0,58
898,052	-0,55
898,478	-0,54
898,904	-0,54
899,331	-0,54
899,757	-0,56
900,183	-0,58
900,61	-0,55
901,036	-0,56
901,462	-0,55
901,888	-0,55
902,315	-0,53
902,741	-0,57
903,167	-0,56
903,593	-0,59
904,019	-0,57
904,445	-0,54
904,871	-0,57
905,297	-0,59
905,723	-0,58
906,149	-0,58
906,575	-0,58
907,001	-0,59
907,427	-0,56
907,852	-0,56
908,278	-0,56
908,704	-0,54
909,13	-0,53
909,555	-0,53
909,981	-0,51
910,407	-0,52
910,832	-0,5
911,258	-0,51
911,684	-0,51
912,109	-0,52
912,535	-0,54
912,96	-0,49
913,386	-0,54
913,811	-0,54
914,236	-0,55
914,662	-0,53
915,087	-0,56
915,512	-0,57
915,938	-0,59
916,363	-0,57
916,788	-0,58
917,213	-0,56
917,639	-0,61
918,064	-0,58
918,489	-0,58
918,914	-0,59
919,339	-0,6
919,764	-0,58
920,189	-0,58
920,614	-0,6
921,039	-0,6
921,464	-0,57
921,889	-0,59
922,314	-0,6
922,738	-0,63
923,163	-0,64
923,588	-0,65
924,013	-0,63
924,437	-0,63
924,862	-0,65
925,287	-0,6
925,711	-0,61
926,136	-0,62
926,561	-0,6
926,985	-0,59
927,41	-0,56
927,834	-0,54
928,259	-0,51
928,683	-0,5
929,108	-0,47
929,532	-0,48
929,956	-0,47
930,381	-0,47
930,805	-0,47
931,229	-0,46
931,653	-0,44
932,078	-0,44
932,502	-0,46
932,926	-0,46
933,35	-0,46
933,774	-0,46
934,198	-0,44
934,622	-0,43
935,046	-0,43
935,47	-0,44
935,894	-0,44
936,318	-0,44
936,742	-0,44
937,166	-0,44
937,59	-0,43
938,014	-0,46
938,437	-0,46
938,861	-0,48
939,285	-0,5
939,709	-0,49
940,132	-0,48
940,556	-0,49
940,98	-0,49
941,403	-0,48
941,827	-0,48
942,25	-0,49
942,674	-0,47
943,097	-0,46
943,521	-0,46
943,944	-0,46
944,368	-0,46
944,791	-0,45
945,214	-0,47
945,638	-0,47
946,061	-0,5
946,484	-0,51
946,907	-0,5
947,331	-0,49
947,754	-0,54
948,177	-0,51
948,6	-0,51
949,023	-0,51
949,446	-0,5
949,869	-0,48
950,292	-0,48
950,715	-0,44
951,138	-0,43
951,561	-0,41
951,984	-0,41
952,407	-0,39
952,83	-0,38
953,252	-0,34
953,675	-0,34
954,098	-0,35
954,521	-0,34
954,943	-0,34
955,366	-0,35
955,789	-0,33
956,211	-0,36
956,634	-0,37
957,056	-0,34
957,479	-0,35
957,902	-0,37
958,324	-0,38
958,746	-0,36
959,169	-0,37
959,591	-0,37
960,014	-0,38
960,436	-0,38
960,858	-0,37
961,281	-0,36
961,703	-0,38
962,125	-0,38
962,547	-0,36
962,969	-0,37
963,391	-0,37
963,814	-0,38
964,236	-0,37
964,658	-0,34
965,08	-0,34
965,502	-0,34
965,924	-0,33
966,346	-0,32
966,768	-0,32
967,189	-0,34
967,611	-0,33
968,033	-0,33
968,455	-0,3
968,877	-0,31
969,298	-0,33
969,72	-0,33
970,142	-0,32
970,563	-0,32
970,985	-0,31
971,407	-0,29
971,828	-0,28
972,25	-0,28
972,671	-0,27
973,093	-0,27
973,514	-0,26
973,936	-0,24
974,357	-0,23
974,778	-0,24
975,2	-0,23
975,621	-0,22
976,042	-0,2
976,464	-0,19
976,885	-0,18
977,306	-0,17
977,727	-0,15
978,148	-0,15
978,57	-0,13
978,991	-0,12
979,412	-0,1
979,833	-0,09
980,254	-0,09
980,675	-0,09
981,096	-0,08
981,517	-0,07
981,937	-0,06
982,358	-0,05
982,779	-0,03
983,2	-0,02
983,621	-0,02
984,042	-0,01
984,462	0
984,883	0,02
985,304	0,04
985,724	0,05
986,145	0,06
986,565	0,08
986,986	0,09
987,407	0,1
987,827	0,12
988,248	0,13
988,668	0,14
989,088	0,15
989,509	0,17
989,929	0,18
990,35	0,19
990,77	0,2
991,19	0,21
991,61	0,23
992,031	0,24
992,451	0,25
992,871	0,26
993,291	0,27
993,711	0,28
994,131	0,29
994,551	0,3
994,971	0,3
995,391	0,31
995,811	0,32
996,231	0,32
996,651	0,33
997,071	0,34
997,491	0,35
997,911	0,36
998,331	0,36
998,75	0,37
999,17	0,38
999,59	0,38
1000,009	0,39
1000,429	0,39
1000,849	0,4
1001,268	0,4
1001,688	0,41
1002,107	0,41
1002,527	0,41
1002,946	0,42
1003,366	0,42
1003,785	0,42
1004,205	0,42
1004,624	0,43
1005,044	0,43
1005,463	0,43
1005,882	0,43
1006,301	0,44
1006,721	0,44
1007,14	0,44
1007,559	0,44
1007,978	0,44
1008,397	0,44
1008,816	0,44
1009,235	0,44
1009,655	0,44
1010,074	0,44
1010,492	0,44
1010,911	0,44
1011,33	0,44
1011,749	0,44
1012,168	0,44
1012,587	0,44
1013,006	0,44
1013,425	0,44
1013,843	0,44
1014,262	0,44
1014,681	0,44
1015,099	0,44
1015,518	0,43
1015,937	0,43
1016,355	0,43
1016,774	0,43
1017,192	0,43
1017,611	0,43
1018,029	0,43
1018,448	0,43
1018,866	0,43
1019,285	0,43
1019,703	0,43
1020,121	0,43
1020,54	0,43
1020,958	0,43
1021,376	0,43
1021,794	0,43
1022,213	0,43
1022,631	0,43
1023,049	0,42
1023,467	0,42
1023,885	0,42
1024,303	0,42
1024,721	0,42
1025,139	0,42
1025,557	0,42
1025,975	0,42
1026,393	0,42
1026,811	0,42
1027,229	0,42
1027,647	0,42
1028,065	0,42
1028,482	0,42
1028,9	0,42
1029,318	0,41
1029,735	0,41
1030,153	0,41
1030,571	0,41
1030,988	0,41
1031,406	0,41
1031,823	0,41
1032,241	0,41
1032,659	0,42
1033,076	0,42
1033,493	0,42
1033,911	0,42
1034,328	0,42
1034,746	0,42
1035,163	0,42
1035,58	0,42
1035,997	0,42
1036,415	0,42
1036,832	0,42
1037,249	0,42
1037,666	0,42
1038,083	0,42
1038,501	0,42
1038,918	0,42
1039,335	0,42
1039,752	0,42
1040,169	0,42
1040,586	0,42
1041,003	0,42
1041,419	0,42
1041,836	0,42
1042,253	0,42
1042,67	0,42
1043,087	0,42
1043,504	0,42
1043,92	0,42
1044,337	0,42
1044,754	0,42
1045,17	0,42
1045,587	0,42
1046,004	0,42
1046,42	0,42
1046,837	0,42
1047,253	0,42
1047,67	0,42
1048,086	0,42
1048,503	0,42
1048,919	0,42
1049,335	0,42
1049,752	0,42
1050,168	0,42
1050,584	0,42
1051,001	0,42
1051,417	0,42
1051,833	0,42
1052,249	0,42
1052,665	0,42
1053,081	0,42
1053,497	0,43
1053,914	0,43
1054,33	0,43
1054,746	0,43
1055,162	0,43
1055,578	0,43
1055,993	0,43
1056,409	0,43
1056,825	0,43
1057,241	0,43
1057,657	0,43
1058,073	0,43
1058,488	0,43
1058,904	0,43
1059,32	0,43
1059,736	0,43
1060,151	0,43
1060,567	0,43
1060,982	0,43
1061,398	0,43
1061,813	0,43
1062,229	0,43
1062,644	0,42
1063,06	0,42
1063,475	0,42
1063,891	0,42
1064,306	0,42
1064,721	0,42
1065,137	0,42
1065,552	0,42
1065,967	0,42
1066,382	0,42
1066,798	0,42
1067,213	0,42
1067,628	0,42
1068,043	0,42
1068,458	0,42
1068,873	0,42
1069,288	0,42
1069,703	0,42
1070,118	0,42
1070,533	0,42
1070,948	0,42
1071,363	0,42
1071,778	0,42
1072,193	0,42
1072,607	0,42
1073,022	0,42
1073,437	0,42
1073,852	0,42
1074,266	0,42
1074,681	0,42
1075,096	0,42
1075,51	0,42
1075,925	0,42
1076,339	0,42
1076,754	0,42
1077,168	0,42
1077,583	0,42
1077,997	0,42
1078,412	0,42
1078,826	0,42
1079,24	0,42
1079,655	0,41
1080,069	0,42
1080,483	0,41
1080,897	0,41
1081,312	0,41
1081,726	0,41
1082,14	0,41
1082,554	0,41
1082,968	0,41
1083,382	0,41
1083,796	0,41
1084,21	0,41
1084,624	0,41
1085,038	0,41
1085,452	0,41
1085,866	0,4
1086,28	0,4
1086,694	0,4
1087,108	0,4
1087,521	0,4
1087,935	0,39
1088,349	0,39
1088,763	0,39
1089,176	0,39
1089,59	0,38
1090,004	0,38
1090,417	0,38
1090,831	0,37
1091,244	0,37
1091,658	0,36
1092,071	0,36
1092,485	0,36
1092,898	0,36
1093,312	0,35
1093,725	0,35
1094,138	0,35
1094,552	0,35
1094,965	0,35
1095,378	0,35
1095,791	0,35
1096,205	0,35
1096,618	0,35
1097,031	0,34
1097,444	0,34
1097,857	0,33
1098,27	0,33
1098,683	0,32
1099,096	0,32
1099,509	0,32
1099,922	0,31
1100,335	0,31
1100,748	0,3
1101,161	0,3
1101,574	0,29
1101,986	0,29
1102,399	0,29
1102,812	0,28
1103,225	0,28
1103,637	0,27
1104,05	0,27
1104,463	0,27
1104,875	0,26
1105,288	0,26
1105,7	0,26
1106,113	0,25
1106,525	0,25
1106,938	0,25
1107,35	0,24
1107,763	0,24
1108,175	0,24
1108,588	0,24
1109	0,23
1109,412	0,23
1109,824	0,23
1110,237	0,24
1110,649	0,23
1111,061	0,22
