Data from 18C-808nm-8A-cont_Absorbance__148__01577.txt Node

Date: Mon Jul 17 17:22:45 CEST 2023
User: Laser008
Spectrometer: MAYP115816
Trigger mode: 0
Integration Time (sec): 2,500000E-1
Scans to average: 10
Electric dark correction enabled: true
Nonlinearity correction enabled: true
Boxcar width: 5
XAxis mode: Wavelengths
Number of Pixels in Spectrum: 2068
>>>>>Begin Spectral Data<<<<<
198,914	-0,64
199,384	-0,44
199,855	-0,34
200,325	-0,26
200,796	-0,24
201,266	-0,2
201,737	-0,17
202,207	-0,17
202,677	-0,16
203,147	-0,14
203,618	-0,11
204,088	-0,09
204,558	-0,08
205,028	-0,07
205,498	-0,07
205,968	-0,06
206,439	-0,08
206,909	-0,08
207,379	-0,08
207,849	-0,08
208,319	-0,09
208,789	-0,09
209,258	-0,09
209,728	-0,11
210,198	-0,1
210,668	-0,1
211,138	-0,1
211,608	-0,1
212,077	-0,1
212,547	-0,1
213,017	-0,11
213,486	-0,11
213,956	-0,12
214,426	-0,13
214,895	-0,12
215,365	-0,13
215,834	-0,14
216,304	-0,15
216,773	-0,15
217,243	-0,16
217,712	-0,17
218,181	-0,16
218,651	-0,16
219,12	-0,17
219,589	-0,17
220,058	-0,16
220,528	-0,17
220,997	-0,17
221,466	-0,19
221,935	-0,2
222,404	-0,19
222,873	-0,18
223,342	-0,18
223,812	-0,18
224,281	-0,17
224,749	-0,18
225,218	-0,19
225,687	-0,19
226,156	-0,18
226,625	-0,16
227,094	-0,16
227,563	-0,16
228,031	-0,18
228,5	-0,17
228,969	-0,18
229,438	-0,17
229,906	-0,15
230,375	-0,16
230,844	-0,15
231,312	-0,14
231,781	-0,15
232,249	-0,14
232,718	-0,14
233,186	-0,12
233,655	-0,13
234,123	-0,11
234,591	-0,12
235,06	-0,13
235,528	-0,13
235,996	-0,13
236,465	-0,13
236,933	-0,13
237,401	-0,13
237,869	-0,13
238,337	-0,12
238,805	-0,11
239,274	-0,12
239,742	-0,11
240,21	-0,11
240,678	-0,11
241,146	-0,1
241,614	-0,1
242,081	-0,09
242,549	-0,09
243,017	-0,1
243,485	-0,1
243,953	-0,11
244,421	-0,1
244,888	-0,1
245,356	-0,1
245,824	-0,1
246,291	-0,1
246,759	-0,11
247,227	-0,12
247,694	-0,1
248,162	-0,09
248,629	-0,09
249,097	-0,09
249,564	-0,1
250,032	-0,11
250,499	-0,1
250,967	-0,1
251,434	-0,11
251,901	-0,11
252,369	-0,11
252,836	-0,12
253,303	-0,14
253,77	-0,15
254,237	-0,14
254,705	-0,14
255,172	-0,13
255,639	-0,14
256,106	-0,15
256,573	-0,15
257,04	-0,15
257,507	-0,15
257,974	-0,16
258,441	-0,14
258,908	-0,14
259,375	-0,16
259,841	-0,17
260,308	-0,17
260,775	-0,17
261,242	-0,16
261,709	-0,16
262,175	-0,17
262,642	-0,17
263,109	-0,16
263,575	-0,18
264,042	-0,17
264,508	-0,17
264,975	-0,18
265,441	-0,18
265,908	-0,19
266,374	-0,19
266,841	-0,19
267,307	-0,19
267,773	-0,18
268,24	-0,18
268,706	-0,18
269,172	-0,19
269,639	-0,21
270,105	-0,18
270,571	-0,19
271,037	-0,19
271,503	-0,19
271,969	-0,19
272,435	-0,18
272,902	-0,2
273,368	-0,21
273,834	-0,21
274,3	-0,22
274,765	-0,21
275,231	-0,21
275,697	-0,2
276,163	-0,2
276,629	-0,21
277,095	-0,21
277,56	-0,21
278,026	-0,22
278,492	-0,19
278,958	-0,19
279,423	-0,19
279,889	-0,18
280,354	-0,19
280,82	-0,19
281,286	-0,2
281,751	-0,2
282,217	-0,2
282,682	-0,19
283,147	-0,19
283,613	-0,2
284,078	-0,2
284,544	-0,2
285,009	-0,21
285,474	-0,21
285,939	-0,23
286,405	-0,22
286,87	-0,22
287,335	-0,21
287,8	-0,21
288,265	-0,2
288,73	-0,21
289,195	-0,22
289,66	-0,23
290,125	-0,21
290,59	-0,21
291,055	-0,2
291,52	-0,2
291,985	-0,21
292,45	-0,22
292,915	-0,22
293,38	-0,22
293,844	-0,2
294,309	-0,19
294,774	-0,18
295,239	-0,2
295,703	-0,2
296,168	-0,19
296,632	-0,19
297,097	-0,17
297,562	-0,15
298,026	-0,16
298,491	-0,17
298,955	-0,17
299,419	-0,17
299,884	-0,17
300,348	-0,16
300,813	-0,14
301,277	-0,15
301,741	-0,15
302,205	-0,15
302,67	-0,14
303,134	-0,13
303,598	-0,13
304,062	-0,11
304,526	-0,11
304,99	-0,13
305,454	-0,13
305,919	-0,13
306,383	-0,12
306,847	-0,12
307,31	-0,14
307,774	-0,15
308,238	-0,14
308,702	-0,13
309,166	-0,15
309,63	-0,15
310,094	-0,11
310,557	-0,1
311,021	-0,09
311,485	-0,1
311,948	-0,09
312,412	-0,07
312,876	-0,08
313,339	-0,09
313,803	-0,1
314,266	-0,09
314,73	-0,09
315,193	-0,1
315,657	-0,09
316,12	-0,1
316,584	-0,09
317,047	-0,09
317,51	-0,08
317,973	-0,08
318,437	-0,07
318,9	-0,05
319,363	-0,05
319,826	-0,04
320,29	-0,05
320,753	-0,05
321,216	-0,05
321,679	-0,05
322,142	-0,05
322,605	-0,06
323,068	-0,05
323,531	-0,06
323,994	-0,05
324,457	-0,05
324,92	-0,04
325,382	-0,04
325,845	-0,04
326,308	-0,03
326,771	-0,02
327,233	-0,02
327,696	-0
328,159	0
328,622	0,02
329,084	0,02
329,547	0,03
330,009	0,04
330,472	0,05
330,934	0,05
331,397	0,05
331,859	0,06
332,322	0,05
332,784	0,05
333,246	0,06
333,709	0,06
334,171	0,06
334,633	0,06
335,096	0,06
335,558	0,05
336,02	0,06
336,482	0,05
336,944	0,06
337,406	0,08
337,868	0,08
338,331	0,08
338,793	0,08
339,255	0,09
339,717	0,1
340,178	0,1
340,64	0,11
341,102	0,12
341,564	0,12
342,026	0,14
342,488	0,14
342,949	0,15
343,411	0,19
343,873	0,21
344,335	0,23
344,796	0,27
345,258	0,31
345,719	0,35
346,181	0,38
346,643	0,42
347,104	0,44
347,566	0,47
348,027	0,5
348,488	0,51
348,95	0,53
349,411	0,55
349,873	0,56
350,334	0,58
350,795	0,59
351,256	0,6
351,718	0,61
352,179	0,61
352,64	0,61
353,101	0,62
353,562	0,62
354,023	0,62
354,484	0,62
354,945	0,62
355,406	0,62
355,867	0,63
356,328	0,63
356,789	0,63
357,25	0,63
357,711	0,63
358,172	0,63
358,633	0,63
359,093	0,64
359,554	0,64
360,015	0,64
360,476	0,64
360,936	0,64
361,397	0,64
361,858	0,64
362,318	0,64
362,779	0,64
363,239	0,64
363,7	0,64
364,16	0,64
364,621	0,64
365,081	0,64
365,541	0,64
366,002	0,64
366,462	0,64
366,922	0,64
367,383	0,64
367,843	0,64
368,303	0,64
368,763	0,64
369,223	0,64
369,684	0,64
370,144	0,64
370,604	0,64
371,064	0,64
371,524	0,64
371,984	0,64
372,444	0,64
372,904	0,64
373,363	0,64
373,823	0,64
374,283	0,64
374,743	0,64
375,203	0,64
375,663	0,64
376,122	0,64
376,582	0,64
377,042	0,64
377,501	0,64
377,961	0,64
378,42	0,64
378,88	0,64
379,34	0,64
379,799	0,64
380,259	0,64
380,718	0,64
381,177	0,63
381,637	0,63
382,096	0,63
382,555	0,63
383,015	0,63
383,474	0,63
383,933	0,63
384,393	0,63
384,852	0,63
385,311	0,63
385,77	0,63
386,229	0,63
386,688	0,63
387,147	0,63
387,606	0,63
388,065	0,63
388,524	0,63
388,983	0,63
389,442	0,63
389,901	0,63
390,36	0,63
390,819	0,63
391,277	0,63
391,736	0,63
392,195	0,63
392,654	0,63
393,112	0,63
393,571	0,63
394,03	0,63
394,488	0,63
394,947	0,63
395,405	0,62
395,864	0,62
396,322	0,62
396,781	0,62
397,239	0,62
397,698	0,62
398,156	0,62
398,614	0,62
399,073	0,62
399,531	0,62
399,989	0,62
400,447	0,62
400,905	0,62
401,364	0,62
401,822	0,62
402,28	0,62
402,738	0,62
403,196	0,62
403,654	0,62
404,112	0,62
404,57	0,62
405,028	0,62
405,486	0,62
405,944	0,62
406,402	0,62
406,859	0,62
407,317	0,62
407,775	0,62
408,233	0,62
408,691	0,62
409,148	0,62
409,606	0,62
410,064	0,62
410,521	0,62
410,979	0,62
411,436	0,62
411,894	0,62
412,351	0,62
412,809	0,62
413,266	0,62
413,724	0,61
414,181	0,61
414,638	0,61
415,096	0,61
415,553	0,61
416,01	0,61
416,467	0,61
416,925	0,61
417,382	0,61
417,839	0,61
418,296	0,61
418,753	0,61
419,21	0,61
419,667	0,61
420,124	0,61
420,581	0,61
421,038	0,61
421,495	0,61
421,952	0,61
422,409	0,61
422,866	0,61
423,322	0,61
423,779	0,61
424,236	0,61
424,693	0,61
425,149	0,61
425,606	0,61
426,063	0,61
426,519	0,61
426,976	0,61
427,433	0,61
427,889	0,61
428,346	0,61
428,802	0,61
429,258	0,61
429,715	0,61
430,171	0,61
430,628	0,61
431,084	0,61
431,54	0,61
431,997	0,61
432,453	0,61
432,909	0,61
433,365	0,61
433,821	0,61
434,277	0,61
434,734	0,61
435,19	0,61
435,646	0,61
436,102	0,61
436,558	0,61
437,014	0,61
437,47	0,61
437,925	0,61
438,381	0,61
438,837	0,61
439,293	0,61
439,749	0,61
440,205	0,61
440,66	0,61
441,116	0,61
441,572	0,61
442,027	0,61
442,483	0,61
442,939	0,61
443,394	0,61
443,85	0,61
444,305	0,61
444,761	0,61
445,216	0,61
445,672	0,61
446,127	0,61
446,582	0,61
447,038	0,61
447,493	0,61
447,948	0,61
448,403	0,61
448,859	0,61
449,314	0,61
449,769	0,61
450,224	0,61
450,679	0,61
451,134	0,61
451,589	0,61
452,044	0,61
452,499	0,61
452,954	0,61
453,409	0,61
453,864	0,61
454,319	0,61
454,774	0,61
455,229	0,61
455,684	0,61
456,138	0,61
456,593	0,61
457,048	0,61
457,503	0,61
457,957	0,61
458,412	0,61
458,866	0,61
459,321	0,61
459,776	0,61
460,23	0,62
460,685	0,62
461,139	0,62
461,593	0,62
462,048	0,62
462,502	0,62
462,957	0,62
463,411	0,62
463,865	0,62
464,319	0,62
464,774	0,62
465,228	0,62
465,682	0,62
466,136	0,63
466,59	0,63
467,044	0,63
467,499	0,63
467,953	0,63
468,407	0,63
468,861	0,63
469,315	0,63
469,768	0,63
470,222	0,63
470,676	0,63
471,13	0,63
471,584	0,63
472,038	0,63
472,491	0,63
472,945	0,63
473,399	0,64
473,852	0,64
474,306	0,64
474,76	0,64
475,213	0,64
475,667	0,64
476,12	0,64
476,574	0,64
477,027	0,64
477,481	0,64
477,934	0,65
478,388	0,65
478,841	0,65
479,294	0,65
479,748	0,65
480,201	0,65
480,654	0,65
481,107	0,66
481,561	0,66
482,014	0,66
482,467	0,66
482,92	0,66
483,373	0,66
483,826	0,66
484,279	0,67
484,732	0,67
485,185	0,67
485,638	0,67
486,091	0,67
486,544	0,67
486,997	0,68
487,449	0,68
487,902	0,68
488,355	0,68
488,808	0,68
489,26	0,69
489,713	0,69
490,166	0,69
490,618	0,69
491,071	0,69
491,523	0,7
491,976	0,7
492,429	0,7
492,881	0,7
493,333	0,71
493,786	0,71
494,238	0,71
494,691	0,71
495,143	0,72
495,595	0,72
496,048	0,72
496,5	0,73
496,952	0,73
497,404	0,73
497,856	0,73
498,309	0,74
498,761	0,74
499,213	0,74
499,665	0,75
500,117	0,75
500,569	0,75
501,021	0,76
501,473	0,76
501,925	0,76
502,377	0,77
502,828	0,77
503,28	0,77
503,732	0,78
504,184	0,78
504,636	0,78
505,087	0,79
505,539	0,79
505,991	0,79
506,442	0,8
506,894	0,8
507,345	0,8
507,797	0,81
508,249	0,81
508,7	0,81
509,151	0,82
509,603	0,82
510,054	0,82
510,506	0,83
510,957	0,83
511,408	0,83
511,86	0,83
512,311	0,84
512,762	0,84
513,213	0,84
513,665	0,85
514,116	0,85
514,567	0,85
515,018	0,85
515,469	0,86
515,92	0,86
516,371	0,86
516,822	0,87
517,273	0,87
517,724	0,87
518,175	0,87
518,626	0,88
519,076	0,88
519,527	0,88
519,978	0,88
520,429	0,88
520,88	0,89
521,33	0,89
521,781	0,89
522,232	0,89
522,682	0,89
523,133	0,89
523,583	0,89
524,034	0,9
524,484	0,9
524,935	0,9
525,385	0,9
525,836	0,9
526,286	0,9
526,736	0,9
527,187	0,9
527,637	0,9
528,087	0,9
528,538	0,9
528,988	0,9
529,438	0,9
529,888	0,9
530,338	0,9
530,788	0,89
531,238	0,89
531,688	0,89
532,139	0,89
532,589	0,89
533,038	0,89
533,488	0,89
533,938	0,89
534,388	0,88
534,838	0,88
535,288	0,88
535,738	0,88
536,187	0,87
536,637	0,87
537,087	0,87
537,537	0,86
537,986	0,86
538,436	0,86
538,885	0,85
539,335	0,85
539,785	0,85
540,234	0,84
540,684	0,84
541,133	0,83
541,582	0,83
542,032	0,83
542,481	0,82
542,931	0,82
543,38	0,82
543,829	0,81
544,278	0,81
544,728	0,8
545,177	0,8
545,626	0,8
546,075	0,79
546,524	0,79
546,973	0,79
547,422	0,79
547,871	0,78
548,32	0,78
548,769	0,78
549,218	0,78
549,667	0,77
550,116	0,77
550,565	0,77
551,014	0,76
551,463	0,76
551,911	0,76
552,36	0,75
552,809	0,75
553,258	0,74
553,706	0,74
554,155	0,74
554,603	0,74
555,052	0,73
555,501	0,73
555,949	0,72
556,398	0,72
556,846	0,72
557,294	0,71
557,743	0,71
558,191	0,71
558,64	0,7
559,088	0,7
559,536	0,69
559,985	0,69
560,433	0,69
560,881	0,68
561,329	0,68
561,777	0,68
562,225	0,67
562,674	0,67
563,122	0,67
563,57	0,66
564,018	0,66
564,466	0,66
564,914	0,65
565,362	0,65
565,809	0,65
566,257	0,64
566,705	0,64
567,153	0,64
567,601	0,64
568,048	0,63
568,496	0,63
568,944	0,63
569,392	0,62
569,839	0,62
570,287	0,62
570,734	0,62
571,182	0,61
571,63	0,61
572,077	0,61
572,525	0,6
572,972	0,6
573,419	0,6
573,867	0,59
574,314	0,59
574,761	0,59
575,209	0,59
575,656	0,58
576,103	0,58
576,551	0,58
576,998	0,58
577,445	0,57
577,892	0,57
578,339	0,57
578,786	0,57
579,233	0,56
579,68	0,56
580,127	0,56
580,574	0,56
581,021	0,56
581,468	0,55
581,915	0,55
582,362	0,55
582,809	0,55
583,255	0,55
583,702	0,54
584,149	0,54
584,596	0,54
585,042	0,54
585,489	0,54
585,936	0,53
586,382	0,53
586,829	0,53
587,275	0,53
587,722	0,53
588,168	0,53
588,615	0,52
589,061	0,52
589,508	0,52
589,954	0,52
590,4	0,52
590,847	0,52
591,293	0,51
591,739	0,51
592,185	0,51
592,632	0,51
593,078	0,51
593,524	0,51
593,97	0,51
594,416	0,51
594,862	0,51
595,308	0,51
595,754	0,5
596,2	0,5
596,646	0,5
597,092	0,5
597,538	0,5
597,984	0,5
598,43	0,5
598,876	0,5
599,321	0,5
599,767	0,49
600,213	0,49
600,659	0,49
601,104	0,49
601,55	0,49
601,995	0,49
602,441	0,49
602,887	0,49
603,332	0,48
603,778	0,48
604,223	0,48
604,668	0,48
605,114	0,48
605,559	0,48
606,005	0,48
606,45	0,48
606,895	0,48
607,341	0,48
607,786	0,48
608,231	0,47
608,676	0,47
609,121	0,47
609,566	0,46
610,012	0,46
610,457	0,45
610,902	0,45
611,347	0,45
611,792	0,45
612,237	0,45
612,682	0,44
613,127	0,44
613,571	0,45
614,016	0,45
614,461	0,45
614,906	0,45
615,351	0,45
615,795	0,45
616,24	0,45
616,685	0,45
617,129	0,45
617,574	0,45
618,019	0,45
618,463	0,45
618,908	0,45
619,352	0,45
619,797	0,45
620,241	0,45
620,686	0,45
621,13	0,45
621,574	0,45
622,019	0,45
622,463	0,45
622,907	0,45
623,352	0,45
623,796	0,44
624,24	0,44
624,684	0,44
625,128	0,44
625,572	0,44
626,016	0,44
626,461	0,44
626,905	0,44
627,349	0,44
627,793	0,44
628,236	0,44
628,68	0,44
629,124	0,44
629,568	0,44
630,012	0,44
630,456	0,44
630,9	0,44
631,343	0,44
631,787	0,44
632,231	0,44
632,674	0,44
633,118	0,44
633,562	0,44
634,005	0,44
634,449	0,44
634,892	0,44
635,336	0,44
635,779	0,44
636,223	0,44
636,666	0,44
637,109	0,44
637,553	0,44
637,996	0,44
638,439	0,44
638,883	0,44
639,326	0,44
639,769	0,43
640,212	0,43
640,655	0,43
641,099	0,43
641,542	0,43
641,985	0,43
642,428	0,43
642,871	0,43
643,314	0,43
643,757	0,43
644,2	0,43
644,643	0,43
645,085	0,43
645,528	0,43
645,971	0,43
646,414	0,43
646,857	0,43
647,299	0,43
647,742	0,42
648,185	0,42
648,627	0,42
649,07	0,42
649,513	0,42
649,955	0,42
650,398	0,42
650,84	0,42
651,283	0,42
651,725	0,42
652,168	0,42
652,61	0,43
653,052	0,43
653,495	0,42
653,937	0,34
654,379	0,28
654,821	0,29
655,264	0,29
655,706	0,29
656,148	0,29
656,59	0,29
657,032	0,29
657,474	0,29
657,916	0,29
658,358	0,28
658,8	0,34
659,242	0,42
659,684	0,42
660,126	0,42
660,568	0,42
661,01	0,42
661,452	0,42
661,894	0,42
662,335	0,42
662,777	0,42
663,219	0,42
663,661	0,42
664,102	0,41
664,544	0,41
664,985	0,41
665,427	0,41
665,869	0,41
666,31	0,41
666,752	0,41
667,193	0,42
667,634	0,42
668,076	0,42
668,517	0,42
668,959	0,42
669,4	0,42
669,841	0,42
670,282	0,42
670,724	0,42
671,165	0,42
671,606	0,42
672,047	0,42
672,488	0,42
672,929	0,42
673,37	0,42
673,811	0,42
674,252	0,41
674,693	0,41
675,134	0,41
675,575	0,41
676,016	0,41
676,457	0,41
676,898	0,41
677,339	0,41
677,78	0,41
678,22	0,41
678,661	0,41
679,102	0,41
679,542	0,41
679,983	0,41
680,424	0,41
680,864	0,41
681,305	0,41
681,745	0,41
682,186	0,41
682,626	0,41
683,067	0,41
683,507	0,41
683,948	0,41
684,388	0,41
684,828	0,41
685,269	0,41
685,709	0,41
686,149	0,41
686,589	0,4
687,029	0,4
687,47	0,4
687,91	0,4
688,35	0,4
688,79	0,4
689,23	0,4
689,67	0,4
690,11	0,4
690,55	0,4
690,99	0,4
691,43	0,4
691,87	0,4
692,31	0,4
692,749	0,4
693,189	0,4
693,629	0,39
694,069	0,39
694,508	0,39
694,948	0,39
695,388	0,39
695,827	0,39
696,267	0,39
696,706	0,4
697,146	0,4
697,586	0,4
698,025	0,4
698,464	0,4
698,904	0,4
699,343	0,4
699,783	0,4
700,222	0,4
700,661	0,4
701,101	0,4
701,54	0,4
701,979	0,4
702,418	0,4
702,857	0,4
703,297	0,4
703,736	0,4
704,175	0,4
704,614	0,4
705,053	0,4
705,492	0,4
705,931	0,4
706,37	0,4
706,809	0,4
707,248	0,4
707,687	0,39
708,125	0,39
708,564	0,39
709,003	0,39
709,442	0,39
709,88	0,39
710,319	0,39
710,758	0,39
711,196	0,39
711,635	0,39
712,074	0,39
712,512	0,39
712,951	0,39
713,389	0,39
713,828	0,39
714,266	0,39
714,705	0,38
715,143	0,38
715,581	0,38
716,02	0,38
716,458	0,38
716,896	0,38
717,334	0,38
717,773	0,38
718,211	0,38
718,649	0,38
719,087	0,38
719,525	0,39
719,963	0,39
720,401	0,39
720,839	0,39
721,277	0,39
721,715	0,39
722,153	0,39
722,591	0,39
723,029	0,39
723,467	0,39
723,905	0,39
724,342	0,39
724,78	0,39
725,218	0,39
725,656	0,39
726,093	0,39
726,531	0,39
726,969	0,39
727,406	0,39
727,844	0,39
728,281	0,39
728,719	0,39
729,156	0,38
729,594	0,38
730,031	0,38
730,469	0,38
730,906	0,38
731,343	0,38
731,781	0,38
732,218	0,38
732,655	0,38
733,092	0,38
733,53	0,38
733,967	0,38
734,404	0,38
734,841	0,38
735,278	0,38
735,715	0,38
736,152	0,37
736,589	0,37
737,026	0,37
737,463	0,37
737,9	0,37
738,337	0,37
738,774	0,37
739,211	0,37
739,647	0,37
740,084	0,37
740,521	0,37
740,958	0,37
741,394	0,37
741,831	0,37
742,268	0,37
742,704	0,37
743,141	0,37
743,577	0,37
744,014	0,37
744,45	0,37
744,887	0,37
745,323	0,37
745,76	0,36
746,196	0,36
746,632	0,36
747,069	0,36
747,505	0,36
747,941	0,36
748,378	0,36
748,814	0,36
749,25	0,36
749,686	0,36
750,122	0,37
750,558	0,37
750,994	0,37
751,43	0,37
751,866	0,37
752,302	0,37
752,738	0,37
753,174	0,37
753,61	0,38
754,046	0,38
754,482	0,38
754,918	0,37
755,354	0,37
755,789	0,37
756,225	0,37
756,661	0,37
757,096	0,37
757,532	0,37
757,968	0,37
758,403	0,36
758,839	0,36
759,274	0,36
759,71	0,36
760,145	0,35
760,581	0,35
761,016	0,34
761,452	0,34
761,887	0,33
762,322	0,33
762,758	0,33
763,193	0,32
763,628	0,32
764,063	0,31
764,499	0,3
764,934	0,3
765,369	0,29
765,804	0,29
766,239	0,29
766,674	0,28
767,109	0,27
767,544	0,26
767,979	0,26
768,414	0,25
768,849	0,24
769,284	0,23
769,719	0,22
770,154	0,21
770,588	0,2
771,023	0,19
771,458	0,18
771,893	0,17
772,327	0,16
772,762	0,15
773,197	0,15
773,631	0,14
774,066	0,13
774,5	0,13
774,935	0,11
775,369	0,1
775,804	0,09
776,238	0,08
776,673	0,07
777,107	0,06
777,541	0,05
777,976	0,04
778,41	0,03
778,844	0,03
779,279	0,02
779,713	0,02
780,147	0,01
780,581	0,01
781,015	-0
781,449	-0,01
781,883	-0,02
782,317	-0,03
782,751	-0,04
783,185	-0,04
783,619	-0,05
784,053	-0,06
784,487	-0,08
784,921	-0,08
785,355	-0,09
785,789	-0,1
786,223	-0,11
786,656	-0,12
787,09	-0,13
787,524	-0,14
787,957	-0,15
788,391	-0,17
788,825	-0,18
789,258	-0,19
789,692	-0,2
790,125	-0,22
790,559	-0,23
790,992	-0,25
791,426	-0,28
791,859	-0,29
792,293	-0,32
792,726	-0,34
793,159	-0,36
793,593	-0,38
794,026	-0,4
794,459	-0,43
794,892	-0,46
795,326	-0,48
795,759	-0,52
796,192	-0,56
796,625	-0,61
797,058	-0,63
797,491	-0,68
797,924	-0,72
798,357	-0,77
798,79	-0,81
799,223	-0,85
799,656	-0,91
800,089	-0,96
800,522	-1
800,955	-1,04
801,387	-1,1
801,82	-1,16
802,253	-1,22
802,686	-1,3
803,118	-1,35
803,551	-1,41
803,984	-1,45
804,416	-1,49
804,849	-1,52
805,281	-1,63
805,714	-2
806,146	-2,46
806,579	-2,71
807,011	-2,87
807,444	-2,97
807,876	-3,05
808,308	-3,09
808,741	-3,11
809,173	-3,17
809,605	-3,19
810,037	-3,26
810,47	-3,18
810,902	-2,98
811,334	-2,83
811,766	-2,67
812,198	-2,43
812,63	-2,01
813,062	-1,79
813,494	-1,7
813,926	-1,61
814,358	-1,56
814,79	-1,48
815,222	-1,42
815,654	-1,37
816,086	-1,3
816,518	-1,25
816,949	-1,2
817,381	-1,15
817,813	-1,13
818,245	-1,09
818,676	-1,05
819,108	-1,02
819,54	-1
819,971	-0,98
820,403	-0,93
820,834	-0,91
821,266	-0,87
821,697	-0,85
822,129	-0,83
822,56	-0,81
822,991	-0,79
823,423	-0,76
823,854	-0,75
824,286	-0,73
824,717	-0,71
825,148	-0,7
825,579	-0,68
826,01	-0,66
826,442	-0,66
826,873	-0,64
827,304	-0,6
827,735	-0,59
828,166	-0,6
828,597	-0,59
829,028	-0,58
829,459	-0,6
829,89	-0,6
830,321	-0,56
830,752	-0,56
831,183	-0,56
831,613	-0,55
832,044	-0,54
832,475	-0,53
832,906	-0,55
833,336	-0,54
833,767	-0,54
834,198	-0,53
834,628	-0,51
835,059	-0,54
835,49	-0,54
835,92	-0,51
836,351	-0,51
836,781	-0,52
837,212	-0,53
837,642	-0,52
838,072	-0,51
838,503	-0,52
838,933	-0,5
839,364	-0,5
839,794	-0,48
840,224	-0,48
840,654	-0,52
841,085	-0,53
841,515	-0,5
841,945	-0,5
842,375	-0,46
842,805	-0,46
843,235	-0,45
843,665	-0,46
844,095	-0,44
844,525	-0,46
844,955	-0,47
845,385	-0,44
845,815	-0,43
846,245	-0,45
846,675	-0,46
847,105	-0,47
847,534	-0,48
847,964	-0,46
848,394	-0,44
848,824	-0,48
849,253	-0,47
849,683	-0,47
850,112	-0,49
850,542	-0,52
850,972	-0,52
851,401	-0,49
851,831	-0,48
852,26	-0,48
852,69	-0,51
853,119	-0,51
853,548	-0,5
853,978	-0,52
854,407	-0,5
854,836	-0,49
855,266	-0,48
855,695	-0,49
856,124	-0,51
856,553	-0,52
856,983	-0,54
857,412	-0,54
857,841	-0,56
858,27	-0,56
858,699	-0,57
859,128	-0,61
859,557	-0,62
859,986	-0,63
860,415	-0,62
860,844	-0,58
861,273	-0,58
861,702	-0,58
862,13	-0,56
862,559	-0,58
862,988	-0,55
863,417	-0,54
863,845	-0,52
864,274	-0,52
864,703	-0,52
865,131	-0,52
865,56	-0,53
865,989	-0,56
866,417	-0,54
866,846	-0,54
867,274	-0,53
867,703	-0,56
868,131	-0,57
868,559	-0,58
868,988	-0,61
869,416	-0,59
869,844	-0,6
870,273	-0,64
870,701	-0,61
871,129	-0,64
871,557	-0,67
871,986	-0,66
872,414	-0,68
872,842	-0,65
873,27	-0,63
873,698	-0,59
874,126	-0,64
874,554	-0,62
874,982	-0,6
875,41	-0,64
875,838	-0,59
876,266	-0,56
876,694	-0,56
877,122	-0,55
877,549	-0,59
877,977	-0,57
878,405	-0,6
878,833	-0,57
879,26	-0,56
879,688	-0,56
880,116	-0,53
880,543	-0,52
880,971	-0,52
881,399	-0,55
881,826	-0,55
882,254	-0,55
882,681	-0,59
883,109	-0,55
883,536	-0,55
883,963	-0,58
884,391	-0,57
884,818	-0,56
885,245	-0,6
885,673	-0,61
886,1	-0,58
886,527	-0,58
886,954	-0,54
887,381	-0,56
887,809	-0,57
888,236	-0,59
888,663	-0,59
889,09	-0,62
889,517	-0,64
889,944	-0,63
890,371	-0,61
890,798	-0,62
891,225	-0,62
891,652	-0,65
892,078	-0,62
892,505	-0,64
892,932	-0,59
893,359	-0,61
893,786	-0,61
894,212	-0,58
894,639	-0,6
895,066	-0,62
895,492	-0,57
895,919	-0,57
896,346	-0,56
896,772	-0,56
897,199	-0,53
897,625	-0,56
898,052	-0,52
898,478	-0,51
898,904	-0,52
899,331	-0,51
899,757	-0,53
900,183	-0,56
900,61	-0,53
901,036	-0,55
901,462	-0,54
901,888	-0,53
902,315	-0,52
902,741	-0,57
903,167	-0,56
903,593	-0,59
904,019	-0,57
904,445	-0,54
904,871	-0,56
905,297	-0,59
905,723	-0,58
906,149	-0,57
906,575	-0,58
907,001	-0,58
907,427	-0,54
907,852	-0,53
908,278	-0,53
908,704	-0,52
909,13	-0,51
909,555	-0,51
909,981	-0,49
910,407	-0,5
910,832	-0,5
911,258	-0,5
911,684	-0,51
912,109	-0,51
912,535	-0,53
912,96	-0,48
913,386	-0,53
913,811	-0,52
914,236	-0,53
914,662	-0,52
915,087	-0,55
915,512	-0,54
915,938	-0,56
916,363	-0,54
916,788	-0,56
917,213	-0,54
917,639	-0,58
918,064	-0,55
918,489	-0,56
918,914	-0,57
919,339	-0,58
919,764	-0,55
920,189	-0,56
920,614	-0,58
921,039	-0,59
921,464	-0,55
921,889	-0,57
922,314	-0,59
922,738	-0,62
923,163	-0,63
923,588	-0,63
924,013	-0,63
924,437	-0,63
924,862	-0,64
925,287	-0,59
925,711	-0,61
926,136	-0,62
926,561	-0,61
926,985	-0,6
927,41	-0,56
927,834	-0,54
928,259	-0,51
928,683	-0,49
929,108	-0,46
929,532	-0,47
929,956	-0,47
930,381	-0,46
930,805	-0,46
931,229	-0,45
931,653	-0,44
932,078	-0,44
932,502	-0,45
932,926	-0,46
933,35	-0,46
933,774	-0,45
934,198	-0,43
934,622	-0,42
935,046	-0,43
935,47	-0,43
935,894	-0,42
936,318	-0,42
936,742	-0,41
937,166	-0,42
937,59	-0,42
938,014	-0,44
938,437	-0,44
938,861	-0,46
939,285	-0,48
939,709	-0,47
940,132	-0,47
940,556	-0,48
940,98	-0,47
941,403	-0,47
941,827	-0,46
942,25	-0,47
942,674	-0,46
943,097	-0,46
943,521	-0,45
943,944	-0,46
944,368	-0,46
944,791	-0,44
945,214	-0,47
945,638	-0,48
946,061	-0,51
946,484	-0,52
946,907	-0,5
947,331	-0,51
947,754	-0,55
948,177	-0,52
948,6	-0,52
949,023	-0,51
949,446	-0,51
949,869	-0,48
950,292	-0,49
950,715	-0,46
951,138	-0,44
951,561	-0,42
951,984	-0,43
952,407	-0,41
952,83	-0,4
953,252	-0,36
953,675	-0,37
954,098	-0,37
954,521	-0,37
954,943	-0,35
955,366	-0,36
955,789	-0,34
956,211	-0,36
956,634	-0,35
957,056	-0,33
957,479	-0,34
957,902	-0,36
958,324	-0,36
958,746	-0,35
959,169	-0,36
959,591	-0,36
960,014	-0,37
960,436	-0,36
960,858	-0,37
961,281	-0,37
961,703	-0,38
962,125	-0,37
962,547	-0,36
962,969	-0,36
963,391	-0,37
963,814	-0,38
964,236	-0,37
964,658	-0,34
965,08	-0,35
965,502	-0,33
965,924	-0,31
966,346	-0,32
966,768	-0,32
967,189	-0,34
967,611	-0,33
968,033	-0,33
968,455	-0,32
968,877	-0,32
969,298	-0,34
969,72	-0,35
970,142	-0,34
970,563	-0,35
970,985	-0,33
971,407	-0,31
971,828	-0,29
972,25	-0,28
972,671	-0,26
973,093	-0,26
973,514	-0,24
973,936	-0,22
974,357	-0,21
974,778	-0,21
975,2	-0,2
975,621	-0,19
976,042	-0,18
976,464	-0,17
976,885	-0,16
977,306	-0,15
977,727	-0,15
978,148	-0,14
978,57	-0,12
978,991	-0,1
979,412	-0,09
979,833	-0,09
980,254	-0,1
980,675	-0,1
981,096	-0,09
981,517	-0,07
981,937	-0,07
982,358	-0,05
982,779	-0,04
983,2	-0,05
983,621	-0,04
984,042	-0,03
984,462	-0,01
984,883	0,01
985,304	0,02
985,724	0,04
986,145	0,04
986,565	0,06
986,986	0,06
987,407	0,07
987,827	0,09
988,248	0,1
988,668	0,11
989,088	0,12
989,509	0,13
989,929	0,14
990,35	0,15
990,77	0,16
991,19	0,17
991,61	0,18
992,031	0,19
992,451	0,2
992,871	0,21
993,291	0,22
993,711	0,23
994,131	0,23
994,551	0,24
994,971	0,25
995,391	0,25
995,811	0,26
996,231	0,26
996,651	0,27
997,071	0,27
997,491	0,28
997,911	0,28
998,331	0,29
998,75	0,29
999,17	0,3
999,59	0,3
1000,009	0,3
1000,429	0,31
1000,849	0,31
1001,268	0,32
1001,688	0,32
1002,107	0,32
1002,527	0,33
1002,946	0,33
1003,366	0,33
1003,785	0,33
1004,205	0,34
1004,624	0,34
1005,044	0,34
1005,463	0,34
1005,882	0,35
1006,301	0,35
1006,721	0,35
1007,14	0,35
1007,559	0,35
1007,978	0,35
1008,397	0,35
1008,816	0,35
1009,235	0,35
1009,655	0,35
1010,074	0,35
1010,492	0,35
1010,911	0,35
1011,33	0,35
1011,749	0,35
1012,168	0,35
1012,587	0,34
1013,006	0,34
1013,425	0,34
1013,843	0,34
1014,262	0,34
1014,681	0,34
1015,099	0,34
1015,518	0,34
1015,937	0,34
1016,355	0,34
1016,774	0,34
1017,192	0,34
1017,611	0,34
1018,029	0,34
1018,448	0,34
1018,866	0,34
1019,285	0,34
1019,703	0,34
1020,121	0,34
1020,54	0,34
1020,958	0,34
1021,376	0,34
1021,794	0,34
1022,213	0,34
1022,631	0,34
1023,049	0,34
1023,467	0,34
1023,885	0,34
1024,303	0,33
1024,721	0,33
1025,139	0,33
1025,557	0,33
1025,975	0,33
1026,393	0,33
1026,811	0,33
1027,229	0,33
1027,647	0,33
1028,065	0,33
1028,482	0,33
1028,9	0,33
1029,318	0,33
1029,735	0,33
1030,153	0,33
1030,571	0,33
1030,988	0,33
1031,406	0,33
1031,823	0,33
1032,241	0,33
1032,659	0,33
1033,076	0,33
1033,493	0,33
1033,911	0,33
1034,328	0,33
1034,746	0,33
1035,163	0,33
1035,58	0,33
1035,997	0,33
1036,415	0,33
1036,832	0,33
1037,249	0,33
1037,666	0,33
1038,083	0,33
1038,501	0,33
1038,918	0,33
1039,335	0,33
1039,752	0,33
1040,169	0,33
1040,586	0,33
1041,003	0,33
1041,419	0,33
1041,836	0,33
1042,253	0,33
1042,67	0,33
1043,087	0,33
1043,504	0,33
1043,92	0,33
1044,337	0,33
1044,754	0,33
1045,17	0,33
1045,587	0,33
1046,004	0,33
1046,42	0,33
1046,837	0,33
1047,253	0,33
1047,67	0,33
1048,086	0,33
1048,503	0,33
1048,919	0,33
1049,335	0,33
1049,752	0,33
1050,168	0,33
1050,584	0,33
1051,001	0,33
1051,417	0,33
1051,833	0,33
1052,249	0,33
1052,665	0,33
1053,081	0,33
1053,497	0,33
1053,914	0,33
1054,33	0,33
1054,746	0,33
1055,162	0,33
1055,578	0,34
1055,993	0,34
1056,409	0,34
1056,825	0,34
1057,241	0,34
1057,657	0,34
1058,073	0,34
1058,488	0,34
1058,904	0,34
1059,32	0,34
1059,736	0,33
1060,151	0,33
1060,567	0,33
1060,982	0,33
1061,398	0,33
1061,813	0,33
1062,229	0,33
1062,644	0,33
1063,06	0,33
1063,475	0,33
1063,891	0,33
1064,306	0,33
1064,721	0,33
1065,137	0,33
1065,552	0,33
1065,967	0,33
1066,382	0,33
1066,798	0,33
1067,213	0,33
1067,628	0,33
1068,043	0,33
1068,458	0,33
1068,873	0,33
1069,288	0,33
1069,703	0,33
1070,118	0,33
1070,533	0,33
1070,948	0,33
1071,363	0,33
1071,778	0,33
1072,193	0,33
1072,607	0,33
1073,022	0,33
1073,437	0,33
1073,852	0,33
1074,266	0,33
1074,681	0,33
1075,096	0,33
1075,51	0,33
1075,925	0,33
1076,339	0,33
1076,754	0,33
1077,168	0,33
1077,583	0,33
1077,997	0,33
1078,412	0,33
1078,826	0,33
1079,24	0,33
1079,655	0,33
1080,069	0,33
1080,483	0,33
1080,897	0,33
1081,312	0,33
1081,726	0,33
1082,14	0,33
1082,554	0,32
1082,968	0,32
1083,382	0,32
1083,796	0,32
1084,21	0,32
1084,624	0,32
1085,038	0,32
1085,452	0,32
1085,866	0,32
1086,28	0,31
1086,694	0,31
1087,108	0,31
1087,521	0,31
1087,935	0,31
1088,349	0,31
1088,763	0,3
1089,176	0,3
1089,59	0,3
1090,004	0,3
1090,417	0,29
1090,831	0,29
1091,244	0,29
1091,658	0,29
1092,071	0,29
1092,485	0,28
1092,898	0,28
1093,312	0,28
1093,725	0,28
1094,138	0,27
1094,552	0,27
1094,965	0,27
1095,378	0,27
1095,791	0,27
1096,205	0,27
1096,618	0,26
1097,031	0,26
1097,444	0,26
1097,857	0,26
1098,27	0,25
1098,683	0,25
1099,096	0,25
1099,509	0,24
1099,922	0,24
1100,335	0,24
1100,748	0,23
1101,161	0,23
1101,574	0,23
1101,986	0,22
1102,399	0,22
1102,812	0,22
1103,225	0,21
1103,637	0,21
1104,05	0,21
1104,463	0,21
1104,875	0,2
1105,288	0,2
1105,7	0,2
1106,113	0,2
1106,525	0,2
1106,938	0,19
1107,35	0,18
1107,763	0,18
1108,175	0,18
1108,588	0,18
1109	0,17
1109,412	0,16
1109,824	0,16
1110,237	0,16
1110,649	0,16
1111,061	0,14
