Data from 18C-808nm-8A-cont_Absorbance__371__01800.txt Node

Date: Mon Jul 17 17:32:03 CEST 2023
User: Laser008
Spectrometer: MAYP115816
Trigger mode: 0
Integration Time (sec): 2,500000E-1
Scans to average: 10
Electric dark correction enabled: true
Nonlinearity correction enabled: true
Boxcar width: 5
XAxis mode: Wavelengths
Number of Pixels in Spectrum: 2068
>>>>>Begin Spectral Data<<<<<
198,914	-0,75
199,384	-0,51
199,855	-0,38
200,325	-0,28
200,796	-0,24
201,266	-0,19
201,737	-0,17
202,207	-0,16
202,677	-0,15
203,147	-0,13
203,618	-0,1
204,088	-0,08
204,558	-0,07
205,028	-0,06
205,498	-0,08
205,968	-0,08
206,439	-0,09
206,909	-0,09
207,379	-0,09
207,849	-0,09
208,319	-0,1
208,789	-0,1
209,258	-0,1
209,728	-0,12
210,198	-0,12
210,668	-0,11
211,138	-0,11
211,608	-0,12
212,077	-0,12
212,547	-0,11
213,017	-0,12
213,486	-0,13
213,956	-0,14
214,426	-0,15
214,895	-0,14
215,365	-0,15
215,834	-0,15
216,304	-0,16
216,773	-0,16
217,243	-0,18
217,712	-0,19
218,181	-0,19
218,651	-0,19
219,12	-0,18
219,589	-0,18
220,058	-0,18
220,528	-0,19
220,997	-0,19
221,466	-0,2
221,935	-0,21
222,404	-0,2
222,873	-0,2
223,342	-0,2
223,812	-0,2
224,281	-0,19
224,749	-0,19
225,218	-0,2
225,687	-0,2
226,156	-0,19
226,625	-0,18
227,094	-0,18
227,563	-0,18
228,031	-0,19
228,5	-0,19
228,969	-0,2
229,438	-0,2
229,906	-0,19
230,375	-0,18
230,844	-0,17
231,312	-0,17
231,781	-0,18
232,249	-0,17
232,718	-0,17
233,186	-0,15
233,655	-0,16
234,123	-0,15
234,591	-0,14
235,06	-0,15
235,528	-0,16
235,996	-0,16
236,465	-0,15
236,933	-0,15
237,401	-0,15
237,869	-0,14
238,337	-0,14
238,805	-0,13
239,274	-0,12
239,742	-0,13
240,21	-0,13
240,678	-0,12
241,146	-0,11
241,614	-0,11
242,081	-0,11
242,549	-0,1
243,017	-0,11
243,485	-0,11
243,953	-0,11
244,421	-0,11
244,888	-0,1
245,356	-0,1
245,824	-0,1
246,291	-0,1
246,759	-0,11
247,227	-0,12
247,694	-0,11
248,162	-0,11
248,629	-0,1
249,097	-0,11
249,564	-0,12
250,032	-0,13
250,499	-0,13
250,967	-0,14
251,434	-0,14
251,901	-0,13
252,369	-0,13
252,836	-0,14
253,303	-0,16
253,77	-0,18
254,237	-0,16
254,705	-0,17
255,172	-0,16
255,639	-0,16
256,106	-0,18
256,573	-0,17
257,04	-0,18
257,507	-0,19
257,974	-0,2
258,441	-0,18
258,908	-0,17
259,375	-0,19
259,841	-0,19
260,308	-0,19
260,775	-0,19
261,242	-0,18
261,709	-0,18
262,175	-0,19
262,642	-0,18
263,109	-0,17
263,575	-0,19
264,042	-0,18
264,508	-0,18
264,975	-0,19
265,441	-0,2
265,908	-0,21
266,374	-0,2
266,841	-0,21
267,307	-0,21
267,773	-0,2
268,24	-0,2
268,706	-0,2
269,172	-0,21
269,639	-0,22
270,105	-0,2
270,571	-0,2
271,037	-0,19
271,503	-0,2
271,969	-0,19
272,435	-0,19
272,902	-0,22
273,368	-0,23
273,834	-0,22
274,3	-0,22
274,765	-0,22
275,231	-0,23
275,697	-0,22
276,163	-0,22
276,629	-0,21
277,095	-0,22
277,56	-0,22
278,026	-0,21
278,492	-0,19
278,958	-0,2
279,423	-0,2
279,889	-0,19
280,354	-0,2
280,82	-0,19
281,286	-0,21
281,751	-0,22
282,217	-0,21
282,682	-0,21
283,147	-0,22
283,613	-0,23
284,078	-0,23
284,544	-0,24
285,009	-0,26
285,474	-0,24
285,939	-0,26
286,405	-0,25
286,87	-0,23
287,335	-0,23
287,8	-0,22
288,265	-0,21
288,73	-0,22
289,195	-0,24
289,66	-0,23
290,125	-0,21
290,59	-0,22
291,055	-0,21
291,52	-0,21
291,985	-0,21
292,45	-0,24
292,915	-0,23
293,38	-0,24
293,844	-0,22
294,309	-0,2
294,774	-0,19
295,239	-0,21
295,703	-0,22
296,168	-0,2
296,632	-0,2
297,097	-0,18
297,562	-0,16
298,026	-0,17
298,491	-0,17
298,955	-0,17
299,419	-0,17
299,884	-0,17
300,348	-0,15
300,813	-0,14
301,277	-0,16
301,741	-0,16
302,205	-0,16
302,67	-0,16
303,134	-0,16
303,598	-0,16
304,062	-0,16
304,526	-0,15
304,99	-0,17
305,454	-0,17
305,919	-0,16
306,383	-0,15
306,847	-0,14
307,31	-0,15
307,774	-0,16
308,238	-0,15
308,702	-0,14
309,166	-0,16
309,63	-0,16
310,094	-0,12
310,557	-0,12
311,021	-0,12
311,485	-0,13
311,948	-0,12
312,412	-0,11
312,876	-0,1
313,339	-0,1
313,803	-0,11
314,266	-0,1
314,73	-0,1
315,193	-0,11
315,657	-0,1
316,12	-0,11
316,584	-0,09
317,047	-0,09
317,51	-0,09
317,973	-0,09
318,437	-0,08
318,9	-0,07
319,363	-0,06
319,826	-0,05
320,29	-0,05
320,753	-0,05
321,216	-0,05
321,679	-0,05
322,142	-0,05
322,605	-0,05
323,068	-0,04
323,531	-0,04
323,994	-0,03
324,457	-0,04
324,92	-0,02
325,382	-0,02
325,845	-0,01
326,308	-0
326,771	0,01
327,233	0,01
327,696	0,01
328,159	0,01
328,622	0,02
329,084	0,01
329,547	0,02
330,009	0,02
330,472	0,02
330,934	0,02
331,397	0,02
331,859	0,03
332,322	0,03
332,784	0,03
333,246	0,04
333,709	0,04
334,171	0,04
334,633	0,05
335,096	0,05
335,558	0,05
336,02	0,06
336,482	0,06
336,944	0,07
337,406	0,07
337,868	0,08
338,331	0,08
338,793	0,09
339,255	0,1
339,717	0,1
340,178	0,12
340,64	0,13
341,102	0,13
341,564	0,14
342,026	0,15
342,488	0,16
342,949	0,18
343,411	0,21
343,873	0,24
344,335	0,27
344,796	0,31
345,258	0,35
345,719	0,4
346,181	0,44
346,643	0,48
347,104	0,51
347,566	0,55
348,027	0,57
348,488	0,6
348,95	0,62
349,411	0,64
349,873	0,67
350,334	0,69
350,795	0,71
351,256	0,72
351,718	0,73
352,179	0,74
352,64	0,74
353,101	0,74
353,562	0,75
354,023	0,75
354,484	0,75
354,945	0,75
355,406	0,76
355,867	0,76
356,328	0,76
356,789	0,76
357,25	0,77
357,711	0,77
358,172	0,77
358,633	0,77
359,093	0,77
359,554	0,77
360,015	0,78
360,476	0,78
360,936	0,78
361,397	0,78
361,858	0,78
362,318	0,78
362,779	0,78
363,239	0,78
363,7	0,78
364,16	0,78
364,621	0,78
365,081	0,78
365,541	0,78
366,002	0,78
366,462	0,78
366,922	0,78
367,383	0,78
367,843	0,78
368,303	0,78
368,763	0,78
369,223	0,78
369,684	0,78
370,144	0,78
370,604	0,78
371,064	0,78
371,524	0,78
371,984	0,78
372,444	0,78
372,904	0,78
373,363	0,78
373,823	0,78
374,283	0,78
374,743	0,78
375,203	0,78
375,663	0,78
376,122	0,78
376,582	0,78
377,042	0,78
377,501	0,78
377,961	0,78
378,42	0,78
378,88	0,78
379,34	0,78
379,799	0,78
380,259	0,78
380,718	0,77
381,177	0,77
381,637	0,77
382,096	0,77
382,555	0,77
383,015	0,77
383,474	0,77
383,933	0,77
384,393	0,77
384,852	0,77
385,311	0,77
385,77	0,77
386,229	0,77
386,688	0,77
387,147	0,77
387,606	0,77
388,065	0,77
388,524	0,77
388,983	0,77
389,442	0,77
389,901	0,77
390,36	0,77
390,819	0,77
391,277	0,77
391,736	0,77
392,195	0,76
392,654	0,76
393,112	0,76
393,571	0,76
394,03	0,76
394,488	0,76
394,947	0,76
395,405	0,76
395,864	0,76
396,322	0,76
396,781	0,76
397,239	0,76
397,698	0,76
398,156	0,76
398,614	0,76
399,073	0,76
399,531	0,76
399,989	0,76
400,447	0,76
400,905	0,76
401,364	0,76
401,822	0,76
402,28	0,76
402,738	0,76
403,196	0,76
403,654	0,76
404,112	0,76
404,57	0,76
405,028	0,76
405,486	0,76
405,944	0,76
406,402	0,76
406,859	0,75
407,317	0,76
407,775	0,76
408,233	0,76
408,691	0,76
409,148	0,75
409,606	0,75
410,064	0,75
410,521	0,75
410,979	0,75
411,436	0,75
411,894	0,75
412,351	0,75
412,809	0,75
413,266	0,75
413,724	0,75
414,181	0,75
414,638	0,75
415,096	0,75
415,553	0,75
416,01	0,75
416,467	0,75
416,925	0,75
417,382	0,75
417,839	0,75
418,296	0,75
418,753	0,75
419,21	0,75
419,667	0,75
420,124	0,75
420,581	0,75
421,038	0,75
421,495	0,75
421,952	0,75
422,409	0,75
422,866	0,75
423,322	0,75
423,779	0,75
424,236	0,75
424,693	0,75
425,149	0,75
425,606	0,75
426,063	0,75
426,519	0,75
426,976	0,75
427,433	0,75
427,889	0,75
428,346	0,75
428,802	0,75
429,258	0,75
429,715	0,75
430,171	0,75
430,628	0,75
431,084	0,75
431,54	0,75
431,997	0,75
432,453	0,75
432,909	0,74
433,365	0,74
433,821	0,74
434,277	0,74
434,734	0,74
435,19	0,74
435,646	0,74
436,102	0,74
436,558	0,74
437,014	0,74
437,47	0,74
437,925	0,74
438,381	0,74
438,837	0,75
439,293	0,75
439,749	0,75
440,205	0,75
440,66	0,75
441,116	0,75
441,572	0,75
442,027	0,75
442,483	0,75
442,939	0,75
443,394	0,75
443,85	0,75
444,305	0,75
444,761	0,75
445,216	0,75
445,672	0,75
446,127	0,75
446,582	0,75
447,038	0,75
447,493	0,75
447,948	0,75
448,403	0,75
448,859	0,75
449,314	0,75
449,769	0,75
450,224	0,75
450,679	0,75
451,134	0,75
451,589	0,75
452,044	0,75
452,499	0,75
452,954	0,75
453,409	0,75
453,864	0,75
454,319	0,75
454,774	0,75
455,229	0,75
455,684	0,75
456,138	0,75
456,593	0,75
457,048	0,75
457,503	0,75
457,957	0,75
458,412	0,75
458,866	0,75
459,321	0,75
459,776	0,76
460,23	0,76
460,685	0,76
461,139	0,76
461,593	0,76
462,048	0,76
462,502	0,76
462,957	0,76
463,411	0,76
463,865	0,76
464,319	0,76
464,774	0,77
465,228	0,77
465,682	0,77
466,136	0,77
466,59	0,77
467,044	0,77
467,499	0,77
467,953	0,77
468,407	0,77
468,861	0,77
469,315	0,77
469,768	0,77
470,222	0,77
470,676	0,78
471,13	0,78
471,584	0,78
472,038	0,78
472,491	0,78
472,945	0,78
473,399	0,78
473,852	0,78
474,306	0,78
474,76	0,79
475,213	0,79
475,667	0,79
476,12	0,79
476,574	0,79
477,027	0,79
477,481	0,79
477,934	0,8
478,388	0,8
478,841	0,8
479,294	0,8
479,748	0,8
480,201	0,8
480,654	0,81
481,107	0,81
481,561	0,81
482,014	0,81
482,467	0,81
482,92	0,81
483,373	0,82
483,826	0,82
484,279	0,82
484,732	0,82
485,185	0,82
485,638	0,83
486,091	0,83
486,544	0,83
486,997	0,83
487,449	0,83
487,902	0,84
488,355	0,84
488,808	0,84
489,26	0,85
489,713	0,85
490,166	0,85
490,618	0,85
491,071	0,86
491,523	0,86
491,976	0,86
492,429	0,87
492,881	0,87
493,333	0,87
493,786	0,88
494,238	0,88
494,691	0,88
495,143	0,89
495,595	0,89
496,048	0,89
496,5	0,9
496,952	0,9
497,404	0,9
497,856	0,91
498,309	0,91
498,761	0,91
499,213	0,92
499,665	0,92
500,117	0,93
500,569	0,93
501,021	0,93
501,473	0,94
501,925	0,94
502,377	0,95
502,828	0,95
503,28	0,96
503,732	0,96
504,184	0,96
504,636	0,97
505,087	0,97
505,539	0,98
505,991	0,98
506,442	0,98
506,894	0,99
507,345	0,99
507,797	1
508,249	1
508,7	1
509,151	1,01
509,603	1,01
510,054	1,02
510,506	1,02
510,957	1,02
511,408	1,03
511,86	1,03
512,311	1,03
512,762	1,04
513,213	1,04
513,665	1,04
514,116	1,05
514,567	1,05
515,018	1,05
515,469	1,06
515,92	1,06
516,371	1,06
516,822	1,07
517,273	1,07
517,724	1,07
518,175	1,08
518,626	1,08
519,076	1,08
519,527	1,08
519,978	1,09
520,429	1,09
520,88	1,09
521,33	1,09
521,781	1,1
522,232	1,1
522,682	1,1
523,133	1,1
523,583	1,1
524,034	1,11
524,484	1,11
524,935	1,11
525,385	1,11
525,836	1,11
526,286	1,11
526,736	1,11
527,187	1,11
527,637	1,1
528,087	1,1
528,538	1,1
528,988	1,1
529,438	1,1
529,888	1,1
530,338	1,1
530,788	1,1
531,238	1,1
531,688	1,1
532,139	1,09
532,589	1,09
533,038	1,09
533,488	1,09
533,938	1,09
534,388	1,08
534,838	1,08
535,288	1,08
535,738	1,08
536,187	1,07
536,637	1,07
537,087	1,06
537,537	1,06
537,986	1,06
538,436	1,05
538,885	1,05
539,335	1,04
539,785	1,04
540,234	1,03
540,684	1,03
541,133	1,02
541,582	1,02
542,032	1,01
542,481	1,01
542,931	1
543,38	1
543,829	0,99
544,278	0,99
544,728	0,98
545,177	0,98
545,626	0,98
546,075	0,97
546,524	0,97
546,973	0,96
547,422	0,96
547,871	0,95
548,32	0,95
548,769	0,95
549,218	0,94
549,667	0,94
550,116	0,94
550,565	0,93
551,014	0,93
551,463	0,92
551,911	0,92
552,36	0,91
552,809	0,91
553,258	0,9
553,706	0,9
554,155	0,89
554,603	0,89
555,052	0,88
555,501	0,88
555,949	0,87
556,398	0,87
556,846	0,86
557,294	0,86
557,743	0,85
558,191	0,85
558,64	0,84
559,088	0,84
559,536	0,83
559,985	0,83
560,433	0,82
560,881	0,82
561,329	0,81
561,777	0,81
562,225	0,81
562,674	0,8
563,122	0,8
563,57	0,79
564,018	0,79
564,466	0,78
564,914	0,78
565,362	0,78
565,809	0,77
566,257	0,77
566,705	0,76
567,153	0,76
567,601	0,75
568,048	0,75
568,496	0,75
568,944	0,74
569,392	0,74
569,839	0,73
570,287	0,73
570,734	0,73
571,182	0,72
571,63	0,72
572,077	0,72
572,525	0,71
572,972	0,71
573,419	0,7
573,867	0,7
574,314	0,7
574,761	0,69
575,209	0,69
575,656	0,68
576,103	0,68
576,551	0,68
576,998	0,68
577,445	0,67
577,892	0,67
578,339	0,67
578,786	0,66
579,233	0,66
579,68	0,66
580,127	0,65
580,574	0,65
581,021	0,65
581,468	0,64
581,915	0,64
582,362	0,64
582,809	0,64
583,255	0,64
583,702	0,63
584,149	0,63
584,596	0,63
585,042	0,63
585,489	0,62
585,936	0,62
586,382	0,62
586,829	0,62
587,275	0,61
587,722	0,61
588,168	0,61
588,615	0,61
589,061	0,6
589,508	0,6
589,954	0,6
590,4	0,6
590,847	0,6
591,293	0,59
591,739	0,59
592,185	0,59
592,632	0,59
593,078	0,59
593,524	0,59
593,97	0,58
594,416	0,58
594,862	0,58
595,308	0,58
595,754	0,58
596,2	0,58
596,646	0,57
597,092	0,57
597,538	0,57
597,984	0,57
598,43	0,57
598,876	0,57
599,321	0,57
599,767	0,56
600,213	0,56
600,659	0,56
601,104	0,56
601,55	0,56
601,995	0,56
602,441	0,56
602,887	0,55
603,332	0,55
603,778	0,55
604,223	0,55
604,668	0,55
605,114	0,55
605,559	0,55
606,005	0,54
606,45	0,54
606,895	0,54
607,341	0,54
607,786	0,54
608,231	0,54
608,676	0,53
609,121	0,53
609,566	0,52
610,012	0,52
610,457	0,51
610,902	0,51
611,347	0,51
611,792	0,51
612,237	0,51
612,682	0,5
613,127	0,5
613,571	0,5
614,016	0,51
614,461	0,51
614,906	0,51
615,351	0,51
615,795	0,51
616,24	0,51
616,685	0,51
617,129	0,51
617,574	0,51
618,019	0,51
618,463	0,51
618,908	0,51
619,352	0,51
619,797	0,51
620,241	0,51
620,686	0,51
621,13	0,51
621,574	0,51
622,019	0,5
622,463	0,5
622,907	0,5
623,352	0,5
623,796	0,5
624,24	0,5
624,684	0,5
625,128	0,5
625,572	0,5
626,016	0,5
626,461	0,5
626,905	0,5
627,349	0,5
627,793	0,5
628,236	0,5
628,68	0,5
629,124	0,49
629,568	0,49
630,012	0,49
630,456	0,49
630,9	0,49
631,343	0,49
631,787	0,49
632,231	0,49
632,674	0,49
633,118	0,49
633,562	0,49
634,005	0,49
634,449	0,49
634,892	0,49
635,336	0,49
635,779	0,49
636,223	0,49
636,666	0,49
637,109	0,49
637,553	0,49
637,996	0,49
638,439	0,49
638,883	0,49
639,326	0,49
639,769	0,49
640,212	0,49
640,655	0,48
641,099	0,48
641,542	0,48
641,985	0,48
642,428	0,48
642,871	0,48
643,314	0,48
643,757	0,48
644,2	0,48
644,643	0,48
645,085	0,48
645,528	0,48
645,971	0,48
646,414	0,48
646,857	0,48
647,299	0,47
647,742	0,47
648,185	0,47
648,627	0,47
649,07	0,47
649,513	0,47
649,955	0,47
650,398	0,47
650,84	0,47
651,283	0,47
651,725	0,47
652,168	0,47
652,61	0,48
653,052	0,48
653,495	0,47
653,937	0,39
654,379	0,33
654,821	0,34
655,264	0,34
655,706	0,34
656,148	0,34
656,59	0,34
657,032	0,34
657,474	0,34
657,916	0,34
658,358	0,33
658,8	0,39
659,242	0,47
659,684	0,47
660,126	0,47
660,568	0,47
661,01	0,47
661,452	0,47
661,894	0,47
662,335	0,47
662,777	0,47
663,219	0,46
663,661	0,46
664,102	0,46
664,544	0,46
664,985	0,46
665,427	0,46
665,869	0,46
666,31	0,46
666,752	0,46
667,193	0,46
667,634	0,46
668,076	0,46
668,517	0,46
668,959	0,46
669,4	0,46
669,841	0,47
670,282	0,47
670,724	0,47
671,165	0,47
671,606	0,47
672,047	0,46
672,488	0,46
672,929	0,46
673,37	0,46
673,811	0,46
674,252	0,46
674,693	0,46
675,134	0,46
675,575	0,46
676,016	0,45
676,457	0,45
676,898	0,45
677,339	0,45
677,78	0,45
678,22	0,45
678,661	0,45
679,102	0,45
679,542	0,45
679,983	0,45
680,424	0,45
680,864	0,45
681,305	0,45
681,745	0,45
682,186	0,45
682,626	0,45
683,067	0,45
683,507	0,45
683,948	0,45
684,388	0,45
684,828	0,45
685,269	0,45
685,709	0,45
686,149	0,45
686,589	0,45
687,029	0,45
687,47	0,45
687,91	0,45
688,35	0,45
688,79	0,45
689,23	0,45
689,67	0,45
690,11	0,45
690,55	0,45
690,99	0,45
691,43	0,44
691,87	0,44
692,31	0,44
692,749	0,44
693,189	0,44
693,629	0,44
694,069	0,44
694,508	0,44
694,948	0,44
695,388	0,44
695,827	0,44
696,267	0,44
696,706	0,44
697,146	0,44
697,586	0,44
698,025	0,44
698,464	0,44
698,904	0,44
699,343	0,44
699,783	0,44
700,222	0,44
700,661	0,44
701,101	0,44
701,54	0,44
701,979	0,44
702,418	0,44
702,857	0,44
703,297	0,44
703,736	0,44
704,175	0,44
704,614	0,44
705,053	0,44
705,492	0,44
705,931	0,44
706,37	0,44
706,809	0,44
707,248	0,44
707,687	0,44
708,125	0,44
708,564	0,44
709,003	0,44
709,442	0,44
709,88	0,44
710,319	0,44
710,758	0,44
711,196	0,43
711,635	0,43
712,074	0,43
712,512	0,43
712,951	0,43
713,389	0,43
713,828	0,43
714,266	0,43
714,705	0,43
715,143	0,43
715,581	0,43
716,02	0,43
716,458	0,43
716,896	0,43
717,334	0,43
717,773	0,43
718,211	0,43
718,649	0,43
719,087	0,43
719,525	0,43
719,963	0,43
720,401	0,43
720,839	0,43
721,277	0,43
721,715	0,43
722,153	0,43
722,591	0,43
723,029	0,43
723,467	0,43
723,905	0,43
724,342	0,43
724,78	0,43
725,218	0,43
725,656	0,43
726,093	0,43
726,531	0,43
726,969	0,43
727,406	0,43
727,844	0,43
728,281	0,43
728,719	0,43
729,156	0,43
729,594	0,43
730,031	0,43
730,469	0,43
730,906	0,43
731,343	0,43
731,781	0,43
732,218	0,43
732,655	0,43
733,092	0,42
733,53	0,42
733,967	0,42
734,404	0,42
734,841	0,42
735,278	0,42
735,715	0,42
736,152	0,42
736,589	0,42
737,026	0,42
737,463	0,41
737,9	0,41
738,337	0,41
738,774	0,41
739,211	0,41
739,647	0,42
740,084	0,42
740,521	0,42
740,958	0,42
741,394	0,42
741,831	0,42
742,268	0,42
742,704	0,42
743,141	0,42
743,577	0,42
744,014	0,42
744,45	0,41
744,887	0,41
745,323	0,41
745,76	0,41
746,196	0,41
746,632	0,41
747,069	0,41
747,505	0,41
747,941	0,41
748,378	0,41
748,814	0,41
749,25	0,41
749,686	0,41
750,122	0,41
750,558	0,41
750,994	0,41
751,43	0,42
751,866	0,42
752,302	0,42
752,738	0,42
753,174	0,42
753,61	0,42
754,046	0,42
754,482	0,42
754,918	0,42
755,354	0,42
755,789	0,42
756,225	0,42
756,661	0,42
757,096	0,42
757,532	0,41
757,968	0,41
758,403	0,41
758,839	0,41
759,274	0,41
759,71	0,4
760,145	0,4
760,581	0,39
761,016	0,39
761,452	0,38
761,887	0,38
762,322	0,37
762,758	0,37
763,193	0,36
763,628	0,36
764,063	0,35
764,499	0,34
764,934	0,34
765,369	0,33
765,804	0,32
766,239	0,32
766,674	0,31
767,109	0,3
767,544	0,29
767,979	0,28
768,414	0,28
768,849	0,27
769,284	0,26
769,719	0,25
770,154	0,24
770,588	0,23
771,023	0,22
771,458	0,21
771,893	0,2
772,327	0,18
772,762	0,17
773,197	0,16
773,631	0,15
774,066	0,14
774,5	0,13
774,935	0,12
775,369	0,11
775,804	0,1
776,238	0,1
776,673	0,09
777,107	0,08
777,541	0,08
777,976	0,07
778,41	0,06
778,844	0,04
779,279	0,04
779,713	0,03
780,147	0,02
780,581	0,01
781,015	-0
781,449	-0,02
781,883	-0,02
782,317	-0,03
782,751	-0,04
783,185	-0,04
783,619	-0,05
784,053	-0,06
784,487	-0,06
784,921	-0,07
785,355	-0,07
785,789	-0,08
786,223	-0,09
786,656	-0,1
787,09	-0,12
787,524	-0,12
787,957	-0,14
788,391	-0,16
788,825	-0,17
789,258	-0,18
789,692	-0,2
790,125	-0,21
790,559	-0,23
790,992	-0,24
791,426	-0,27
791,859	-0,29
792,293	-0,32
792,726	-0,33
793,159	-0,35
793,593	-0,37
794,026	-0,4
794,459	-0,43
794,892	-0,46
795,326	-0,48
795,759	-0,52
796,192	-0,56
796,625	-0,6
797,058	-0,63
797,491	-0,67
797,924	-0,71
798,357	-0,75
798,79	-0,79
799,223	-0,83
799,656	-0,89
800,089	-0,94
800,522	-0,98
800,955	-1,02
801,387	-1,08
801,82	-1,13
802,253	-1,19
802,686	-1,27
803,118	-1,33
803,551	-1,38
803,984	-1,43
804,416	-1,46
804,849	-1,49
805,281	-1,61
805,714	-1,99
806,146	-2,45
806,579	-2,71
807,011	-2,87
807,444	-2,96
807,876	-3,04
808,308	-3,08
808,741	-3,1
809,173	-3,16
809,605	-3,18
810,037	-3,25
810,47	-3,17
810,902	-2,97
811,334	-2,82
811,766	-2,65
812,198	-2,39
812,63	-1,97
813,062	-1,77
813,494	-1,67
813,926	-1,58
814,358	-1,53
814,79	-1,45
815,222	-1,4
815,654	-1,35
816,086	-1,28
816,518	-1,23
816,949	-1,18
817,381	-1,13
817,813	-1,12
818,245	-1,08
818,676	-1,04
819,108	-1,01
819,54	-0,99
819,971	-0,97
820,403	-0,92
820,834	-0,9
821,266	-0,86
821,697	-0,84
822,129	-0,82
822,56	-0,8
822,991	-0,77
823,423	-0,75
823,854	-0,74
824,286	-0,72
824,717	-0,71
825,148	-0,69
825,579	-0,68
826,01	-0,66
826,442	-0,65
826,873	-0,64
827,304	-0,61
827,735	-0,6
828,166	-0,6
828,597	-0,6
829,028	-0,59
829,459	-0,59
829,89	-0,6
830,321	-0,56
830,752	-0,57
831,183	-0,56
831,613	-0,55
832,044	-0,55
832,475	-0,54
832,906	-0,56
833,336	-0,56
833,767	-0,56
834,198	-0,56
834,628	-0,54
835,059	-0,57
835,49	-0,58
835,92	-0,55
836,351	-0,55
836,781	-0,55
837,212	-0,57
837,642	-0,57
838,072	-0,54
838,503	-0,55
838,933	-0,52
839,364	-0,54
839,794	-0,52
840,224	-0,51
840,654	-0,56
841,085	-0,57
841,515	-0,54
841,945	-0,54
842,375	-0,49
842,805	-0,49
843,235	-0,48
843,665	-0,49
844,095	-0,48
844,525	-0,49
844,955	-0,5
845,385	-0,47
845,815	-0,46
846,245	-0,47
846,675	-0,49
847,105	-0,51
847,534	-0,5
847,964	-0,49
848,394	-0,46
848,824	-0,5
849,253	-0,48
849,683	-0,48
850,112	-0,5
850,542	-0,52
850,972	-0,53
851,401	-0,51
851,831	-0,49
852,26	-0,5
852,69	-0,54
853,119	-0,54
853,548	-0,54
853,978	-0,54
854,407	-0,53
854,836	-0,53
855,266	-0,52
855,695	-0,54
856,124	-0,55
856,553	-0,56
856,983	-0,58
857,412	-0,57
857,841	-0,58
858,27	-0,59
858,699	-0,59
859,128	-0,62
859,557	-0,63
859,986	-0,64
860,415	-0,62
860,844	-0,59
861,273	-0,6
861,702	-0,6
862,13	-0,58
862,559	-0,6
862,988	-0,58
863,417	-0,58
863,845	-0,57
864,274	-0,57
864,703	-0,56
865,131	-0,57
865,56	-0,58
865,989	-0,59
866,417	-0,56
866,846	-0,57
867,274	-0,56
867,703	-0,59
868,131	-0,59
868,559	-0,6
868,988	-0,62
869,416	-0,61
869,844	-0,63
870,273	-0,65
870,701	-0,63
871,129	-0,66
871,557	-0,69
871,986	-0,69
872,414	-0,69
872,842	-0,66
873,27	-0,64
873,698	-0,61
874,126	-0,65
874,554	-0,64
874,982	-0,65
875,41	-0,68
875,838	-0,62
876,266	-0,59
876,694	-0,6
877,122	-0,59
877,549	-0,65
877,977	-0,63
878,405	-0,65
878,833	-0,62
879,26	-0,6
879,688	-0,6
880,116	-0,58
880,543	-0,57
880,971	-0,56
881,399	-0,59
881,826	-0,59
882,254	-0,58
882,681	-0,6
883,109	-0,56
883,536	-0,57
883,963	-0,58
884,391	-0,57
884,818	-0,55
885,245	-0,58
885,673	-0,59
886,1	-0,56
886,527	-0,55
886,954	-0,53
887,381	-0,54
887,809	-0,56
888,236	-0,58
888,663	-0,59
889,09	-0,62
889,517	-0,65
889,944	-0,66
890,371	-0,64
890,798	-0,65
891,225	-0,65
891,652	-0,67
892,078	-0,65
892,505	-0,68
892,932	-0,63
893,359	-0,64
893,786	-0,64
894,212	-0,6
894,639	-0,61
895,066	-0,64
895,492	-0,59
895,919	-0,58
896,346	-0,58
896,772	-0,57
897,199	-0,54
897,625	-0,57
898,052	-0,54
898,478	-0,52
898,904	-0,54
899,331	-0,55
899,757	-0,56
900,183	-0,58
900,61	-0,57
901,036	-0,58
901,462	-0,58
901,888	-0,57
902,315	-0,56
902,741	-0,61
903,167	-0,59
903,593	-0,61
904,019	-0,59
904,445	-0,56
904,871	-0,59
905,297	-0,6
905,723	-0,59
906,149	-0,59
906,575	-0,59
907,001	-0,6
907,427	-0,56
907,852	-0,56
908,278	-0,56
908,704	-0,54
909,13	-0,53
909,555	-0,52
909,981	-0,52
910,407	-0,53
910,832	-0,52
911,258	-0,52
911,684	-0,52
912,109	-0,52
912,535	-0,54
912,96	-0,49
913,386	-0,54
913,811	-0,54
914,236	-0,55
914,662	-0,53
915,087	-0,56
915,512	-0,56
915,938	-0,58
916,363	-0,57
916,788	-0,59
917,213	-0,57
917,639	-0,63
918,064	-0,6
918,489	-0,6
918,914	-0,61
919,339	-0,61
919,764	-0,59
920,189	-0,59
920,614	-0,61
921,039	-0,62
921,464	-0,58
921,889	-0,61
922,314	-0,62
922,738	-0,65
923,163	-0,66
923,588	-0,66
924,013	-0,66
924,437	-0,66
924,862	-0,68
925,287	-0,64
925,711	-0,64
926,136	-0,66
926,561	-0,64
926,985	-0,63
927,41	-0,6
927,834	-0,58
928,259	-0,55
928,683	-0,53
929,108	-0,5
929,532	-0,5
929,956	-0,49
930,381	-0,48
930,805	-0,47
931,229	-0,47
931,653	-0,45
932,078	-0,44
932,502	-0,45
932,926	-0,47
933,35	-0,46
933,774	-0,46
934,198	-0,45
934,622	-0,43
935,046	-0,44
935,47	-0,45
935,894	-0,44
936,318	-0,44
936,742	-0,44
937,166	-0,43
937,59	-0,43
938,014	-0,46
938,437	-0,46
938,861	-0,47
939,285	-0,48
939,709	-0,47
940,132	-0,47
940,556	-0,48
940,98	-0,48
941,403	-0,47
941,827	-0,47
942,25	-0,48
942,674	-0,46
943,097	-0,46
943,521	-0,46
943,944	-0,47
944,368	-0,47
944,791	-0,46
945,214	-0,48
945,638	-0,49
946,061	-0,53
946,484	-0,54
946,907	-0,52
947,331	-0,53
947,754	-0,57
948,177	-0,54
948,6	-0,54
949,023	-0,53
949,446	-0,53
949,869	-0,5
950,292	-0,51
950,715	-0,47
951,138	-0,45
951,561	-0,44
951,984	-0,43
952,407	-0,42
952,83	-0,41
953,252	-0,36
953,675	-0,37
954,098	-0,38
954,521	-0,37
954,943	-0,36
955,366	-0,37
955,789	-0,35
956,211	-0,36
956,634	-0,38
957,056	-0,36
957,479	-0,37
957,902	-0,39
958,324	-0,39
958,746	-0,37
959,169	-0,38
959,591	-0,39
960,014	-0,4
960,436	-0,39
960,858	-0,39
961,281	-0,39
961,703	-0,41
962,125	-0,41
962,547	-0,39
962,969	-0,4
963,391	-0,4
963,814	-0,4
964,236	-0,39
964,658	-0,36
965,08	-0,36
965,502	-0,36
965,924	-0,34
966,346	-0,33
966,768	-0,32
967,189	-0,34
967,611	-0,33
968,033	-0,33
968,455	-0,32
968,877	-0,32
969,298	-0,34
969,72	-0,35
970,142	-0,34
970,563	-0,34
970,985	-0,33
971,407	-0,31
971,828	-0,29
972,25	-0,28
972,671	-0,27
973,093	-0,27
973,514	-0,26
973,936	-0,25
974,357	-0,23
974,778	-0,23
975,2	-0,23
975,621	-0,21
976,042	-0,2
976,464	-0,2
976,885	-0,18
977,306	-0,18
977,727	-0,17
978,148	-0,15
978,57	-0,14
978,991	-0,12
979,412	-0,11
979,833	-0,1
980,254	-0,1
980,675	-0,1
981,096	-0,08
981,517	-0,07
981,937	-0,07
982,358	-0,05
982,779	-0,04
983,2	-0,04
983,621	-0,03
984,042	-0,02
984,462	-0,01
984,883	0
985,304	0,02
985,724	0,03
986,145	0,04
986,565	0,06
986,986	0,07
987,407	0,08
987,827	0,1
988,248	0,11
988,668	0,13
989,088	0,14
989,509	0,15
989,929	0,16
990,35	0,17
990,77	0,18
991,19	0,19
991,61	0,2
992,031	0,21
992,451	0,22
992,871	0,23
993,291	0,23
993,711	0,25
994,131	0,25
994,551	0,27
994,971	0,27
995,391	0,28
995,811	0,29
996,231	0,29
996,651	0,3
997,071	0,31
997,491	0,31
997,911	0,32
998,331	0,33
998,75	0,34
999,17	0,34
999,59	0,34
1000,009	0,35
1000,429	0,36
1000,849	0,36
1001,268	0,37
1001,688	0,37
1002,107	0,38
1002,527	0,38
1002,946	0,38
1003,366	0,39
1003,785	0,39
1004,205	0,39
1004,624	0,4
1005,044	0,4
1005,463	0,4
1005,882	0,4
1006,301	0,41
1006,721	0,41
1007,14	0,41
1007,559	0,41
1007,978	0,41
1008,397	0,41
1008,816	0,41
1009,235	0,41
1009,655	0,41
1010,074	0,41
1010,492	0,41
1010,911	0,41
1011,33	0,41
1011,749	0,41
1012,168	0,41
1012,587	0,41
1013,006	0,4
1013,425	0,4
1013,843	0,4
1014,262	0,4
1014,681	0,4
1015,099	0,4
1015,518	0,4
1015,937	0,4
1016,355	0,4
1016,774	0,4
1017,192	0,4
1017,611	0,4
1018,029	0,4
1018,448	0,4
1018,866	0,4
1019,285	0,4
1019,703	0,4
1020,121	0,4
1020,54	0,4
1020,958	0,4
1021,376	0,4
1021,794	0,4
1022,213	0,39
1022,631	0,39
1023,049	0,39
1023,467	0,39
1023,885	0,39
1024,303	0,39
1024,721	0,39
1025,139	0,39
1025,557	0,39
1025,975	0,39
1026,393	0,39
1026,811	0,39
1027,229	0,38
1027,647	0,38
1028,065	0,38
1028,482	0,38
1028,9	0,38
1029,318	0,38
1029,735	0,38
1030,153	0,38
1030,571	0,38
1030,988	0,38
1031,406	0,38
1031,823	0,38
1032,241	0,38
1032,659	0,38
1033,076	0,38
1033,493	0,38
1033,911	0,38
1034,328	0,38
1034,746	0,39
1035,163	0,39
1035,58	0,39
1035,997	0,39
1036,415	0,39
1036,832	0,39
1037,249	0,39
1037,666	0,39
1038,083	0,39
1038,501	0,39
1038,918	0,39
1039,335	0,39
1039,752	0,39
1040,169	0,39
1040,586	0,39
1041,003	0,39
1041,419	0,39
1041,836	0,39
1042,253	0,39
1042,67	0,39
1043,087	0,39
1043,504	0,39
1043,92	0,39
1044,337	0,39
1044,754	0,39
1045,17	0,39
1045,587	0,39
1046,004	0,39
1046,42	0,39
1046,837	0,39
1047,253	0,39
1047,67	0,39
1048,086	0,39
1048,503	0,39
1048,919	0,39
1049,335	0,39
1049,752	0,39
1050,168	0,39
1050,584	0,39
1051,001	0,39
1051,417	0,39
1051,833	0,39
1052,249	0,39
1052,665	0,39
1053,081	0,39
1053,497	0,39
1053,914	0,39
1054,33	0,39
1054,746	0,4
1055,162	0,4
1055,578	0,4
1055,993	0,4
1056,409	0,4
1056,825	0,4
1057,241	0,4
1057,657	0,4
1058,073	0,4
1058,488	0,4
1058,904	0,4
1059,32	0,4
1059,736	0,4
1060,151	0,39
1060,567	0,39
1060,982	0,39
1061,398	0,39
1061,813	0,39
1062,229	0,39
1062,644	0,39
1063,06	0,39
1063,475	0,39
1063,891	0,39
1064,306	0,39
1064,721	0,39
1065,137	0,39
1065,552	0,39
1065,967	0,39
1066,382	0,39
1066,798	0,39
1067,213	0,39
1067,628	0,39
1068,043	0,39
1068,458	0,39
1068,873	0,39
1069,288	0,39
1069,703	0,39
1070,118	0,39
1070,533	0,39
1070,948	0,39
1071,363	0,39
1071,778	0,39
1072,193	0,39
1072,607	0,39
1073,022	0,39
1073,437	0,39
1073,852	0,39
1074,266	0,39
1074,681	0,39
1075,096	0,39
1075,51	0,39
1075,925	0,39
1076,339	0,39
1076,754	0,39
1077,168	0,39
1077,583	0,39
1077,997	0,39
1078,412	0,39
1078,826	0,39
1079,24	0,39
1079,655	0,38
1080,069	0,39
1080,483	0,39
1080,897	0,39
1081,312	0,39
1081,726	0,38
1082,14	0,38
1082,554	0,38
1082,968	0,38
1083,382	0,38
1083,796	0,38
1084,21	0,38
1084,624	0,38
1085,038	0,38
1085,452	0,38
1085,866	0,37
1086,28	0,37
1086,694	0,37
1087,108	0,37
1087,521	0,37
1087,935	0,36
1088,349	0,36
1088,763	0,36
1089,176	0,36
1089,59	0,35
1090,004	0,35
1090,417	0,35
1090,831	0,34
1091,244	0,34
1091,658	0,34
1092,071	0,33
1092,485	0,33
1092,898	0,33
1093,312	0,33
1093,725	0,33
1094,138	0,32
1094,552	0,32
1094,965	0,32
1095,378	0,32
1095,791	0,31
1096,205	0,31
1096,618	0,31
1097,031	0,31
1097,444	0,3
1097,857	0,3
1098,27	0,3
1098,683	0,29
1099,096	0,29
1099,509	0,29
1099,922	0,29
1100,335	0,28
1100,748	0,27
1101,161	0,27
1101,574	0,26
1101,986	0,26
1102,399	0,26
1102,812	0,25
1103,225	0,25
1103,637	0,25
1104,05	0,24
1104,463	0,24
1104,875	0,24
1105,288	0,24
1105,7	0,23
1106,113	0,23
1106,525	0,23
1106,938	0,22
1107,35	0,22
1107,763	0,22
1108,175	0,22
1108,588	0,21
1109	0,21
1109,412	0,2
1109,824	0,2
1110,237	0,2
1110,649	0,2
1111,061	0,19
