Data from 18C-808nm-8A-cont_Absorbance__219__01648.txt Node

Date: Mon Jul 17 17:25:43 CEST 2023
User: Laser008
Spectrometer: MAYP115816
Trigger mode: 0
Integration Time (sec): 2,500000E-1
Scans to average: 10
Electric dark correction enabled: true
Nonlinearity correction enabled: true
Boxcar width: 5
XAxis mode: Wavelengths
Number of Pixels in Spectrum: 2068
>>>>>Begin Spectral Data<<<<<
198,914	-0,72
199,384	-0,5
199,855	-0,36
200,325	-0,29
200,796	-0,25
201,266	-0,2
201,737	-0,18
202,207	-0,18
202,677	-0,17
203,147	-0,15
203,618	-0,12
204,088	-0,1
204,558	-0,08
205,028	-0,08
205,498	-0,08
205,968	-0,08
206,439	-0,09
206,909	-0,08
207,379	-0,08
207,849	-0,08
208,319	-0,09
208,789	-0,1
209,258	-0,09
209,728	-0,11
210,198	-0,1
210,668	-0,11
211,138	-0,1
211,608	-0,11
212,077	-0,11
212,547	-0,11
213,017	-0,11
213,486	-0,11
213,956	-0,12
214,426	-0,13
214,895	-0,13
215,365	-0,14
215,834	-0,14
216,304	-0,16
216,773	-0,16
217,243	-0,17
217,712	-0,18
218,181	-0,17
218,651	-0,17
219,12	-0,17
219,589	-0,16
220,058	-0,16
220,528	-0,17
220,997	-0,18
221,466	-0,17
221,935	-0,17
222,404	-0,17
222,873	-0,16
223,342	-0,16
223,812	-0,16
224,281	-0,16
224,749	-0,17
225,218	-0,19
225,687	-0,18
226,156	-0,17
226,625	-0,15
227,094	-0,15
227,563	-0,15
228,031	-0,17
228,5	-0,16
228,969	-0,17
229,438	-0,17
229,906	-0,16
230,375	-0,15
230,844	-0,15
231,312	-0,15
231,781	-0,16
232,249	-0,16
232,718	-0,16
233,186	-0,14
233,655	-0,16
234,123	-0,15
234,591	-0,15
235,06	-0,15
235,528	-0,15
235,996	-0,14
236,465	-0,13
236,933	-0,13
237,401	-0,13
237,869	-0,12
238,337	-0,12
238,805	-0,1
239,274	-0,09
239,742	-0,09
240,21	-0,08
240,678	-0,08
241,146	-0,07
241,614	-0,07
242,081	-0,07
242,549	-0,07
243,017	-0,08
243,485	-0,08
243,953	-0,09
244,421	-0,08
244,888	-0,09
245,356	-0,09
245,824	-0,09
246,291	-0,1
246,759	-0,1
247,227	-0,11
247,694	-0,1
248,162	-0,1
248,629	-0,09
249,097	-0,1
249,564	-0,1
250,032	-0,11
250,499	-0,11
250,967	-0,11
251,434	-0,11
251,901	-0,11
252,369	-0,11
252,836	-0,12
253,303	-0,13
253,77	-0,14
254,237	-0,13
254,705	-0,13
255,172	-0,13
255,639	-0,14
256,106	-0,15
256,573	-0,16
257,04	-0,16
257,507	-0,16
257,974	-0,16
258,441	-0,15
258,908	-0,15
259,375	-0,15
259,841	-0,16
260,308	-0,16
260,775	-0,16
261,242	-0,15
261,709	-0,16
262,175	-0,17
262,642	-0,17
263,109	-0,16
263,575	-0,17
264,042	-0,15
264,508	-0,15
264,975	-0,16
265,441	-0,17
265,908	-0,18
266,374	-0,18
266,841	-0,18
267,307	-0,18
267,773	-0,17
268,24	-0,18
268,706	-0,18
269,172	-0,2
269,639	-0,21
270,105	-0,2
270,571	-0,2
271,037	-0,2
271,503	-0,21
271,969	-0,2
272,435	-0,2
272,902	-0,22
273,368	-0,23
273,834	-0,22
274,3	-0,23
274,765	-0,23
275,231	-0,23
275,697	-0,22
276,163	-0,22
276,629	-0,21
277,095	-0,21
277,56	-0,21
278,026	-0,21
278,492	-0,19
278,958	-0,2
279,423	-0,2
279,889	-0,2
280,354	-0,2
280,82	-0,2
281,286	-0,21
281,751	-0,22
282,217	-0,22
282,682	-0,21
283,147	-0,21
283,613	-0,22
284,078	-0,21
284,544	-0,22
285,009	-0,23
285,474	-0,23
285,939	-0,23
286,405	-0,22
286,87	-0,21
287,335	-0,21
287,8	-0,21
288,265	-0,2
288,73	-0,21
289,195	-0,23
289,66	-0,22
290,125	-0,21
290,59	-0,21
291,055	-0,21
291,52	-0,21
291,985	-0,22
292,45	-0,23
292,915	-0,23
293,38	-0,23
293,844	-0,21
294,309	-0,2
294,774	-0,19
295,239	-0,2
295,703	-0,21
296,168	-0,2
296,632	-0,19
297,097	-0,17
297,562	-0,16
298,026	-0,16
298,491	-0,16
298,955	-0,16
299,419	-0,16
299,884	-0,15
300,348	-0,15
300,813	-0,14
301,277	-0,14
301,741	-0,15
302,205	-0,15
302,67	-0,15
303,134	-0,14
303,598	-0,14
304,062	-0,13
304,526	-0,12
304,99	-0,14
305,454	-0,14
305,919	-0,13
306,383	-0,13
306,847	-0,12
307,31	-0,13
307,774	-0,14
308,238	-0,14
308,702	-0,14
309,166	-0,16
309,63	-0,16
310,094	-0,13
310,557	-0,13
311,021	-0,13
311,485	-0,13
311,948	-0,12
312,412	-0,11
312,876	-0,1
313,339	-0,1
313,803	-0,1
314,266	-0,09
314,73	-0,09
315,193	-0,1
315,657	-0,09
316,12	-0,09
316,584	-0,08
317,047	-0,08
317,51	-0,07
317,973	-0,07
318,437	-0,06
318,9	-0,05
319,363	-0,05
319,826	-0,04
320,29	-0,04
320,753	-0,04
321,216	-0,04
321,679	-0,05
322,142	-0,04
322,605	-0,06
323,068	-0,06
323,531	-0,06
323,994	-0,06
324,457	-0,05
324,92	-0,04
325,382	-0,04
325,845	-0,04
326,308	-0,03
326,771	-0,03
327,233	-0,03
327,696	-0,01
328,159	-0,01
328,622	0
329,084	0
329,547	0
330,009	0,01
330,472	0,02
330,934	0,03
331,397	0,04
331,859	0,04
332,322	0,05
332,784	0,05
333,246	0,07
333,709	0,06
334,171	0,07
334,633	0,07
335,096	0,07
335,558	0,07
336,02	0,07
336,482	0,06
336,944	0,07
337,406	0,08
337,868	0,08
338,331	0,08
338,793	0,09
339,255	0,1
339,717	0,11
340,178	0,12
340,64	0,12
341,102	0,13
341,564	0,15
342,026	0,16
342,488	0,17
342,949	0,17
343,411	0,19
343,873	0,21
344,335	0,24
344,796	0,28
345,258	0,33
345,719	0,36
346,181	0,4
346,643	0,44
347,104	0,47
347,566	0,5
348,027	0,53
348,488	0,55
348,95	0,57
349,411	0,59
349,873	0,61
350,334	0,62
350,795	0,64
351,256	0,65
351,718	0,65
352,179	0,66
352,64	0,66
353,101	0,66
353,562	0,66
354,023	0,66
354,484	0,67
354,945	0,67
355,406	0,67
355,867	0,67
356,328	0,67
356,789	0,67
357,25	0,68
357,711	0,68
358,172	0,68
358,633	0,68
359,093	0,68
359,554	0,68
360,015	0,68
360,476	0,69
360,936	0,69
361,397	0,69
361,858	0,69
362,318	0,69
362,779	0,69
363,239	0,69
363,7	0,69
364,16	0,69
364,621	0,69
365,081	0,69
365,541	0,69
366,002	0,69
366,462	0,69
366,922	0,69
367,383	0,69
367,843	0,69
368,303	0,69
368,763	0,69
369,223	0,69
369,684	0,69
370,144	0,69
370,604	0,69
371,064	0,69
371,524	0,69
371,984	0,69
372,444	0,69
372,904	0,69
373,363	0,69
373,823	0,69
374,283	0,69
374,743	0,69
375,203	0,69
375,663	0,69
376,122	0,69
376,582	0,69
377,042	0,69
377,501	0,69
377,961	0,69
378,42	0,69
378,88	0,69
379,34	0,69
379,799	0,68
380,259	0,68
380,718	0,68
381,177	0,68
381,637	0,68
382,096	0,68
382,555	0,68
383,015	0,68
383,474	0,68
383,933	0,68
384,393	0,68
384,852	0,68
385,311	0,68
385,77	0,68
386,229	0,68
386,688	0,68
387,147	0,68
387,606	0,68
388,065	0,68
388,524	0,68
388,983	0,68
389,442	0,68
389,901	0,68
390,36	0,68
390,819	0,68
391,277	0,68
391,736	0,68
392,195	0,68
392,654	0,67
393,112	0,67
393,571	0,67
394,03	0,67
394,488	0,67
394,947	0,67
395,405	0,67
395,864	0,67
396,322	0,67
396,781	0,67
397,239	0,67
397,698	0,67
398,156	0,67
398,614	0,67
399,073	0,67
399,531	0,67
399,989	0,67
400,447	0,67
400,905	0,67
401,364	0,67
401,822	0,67
402,28	0,67
402,738	0,67
403,196	0,67
403,654	0,67
404,112	0,67
404,57	0,67
405,028	0,67
405,486	0,67
405,944	0,67
406,402	0,67
406,859	0,67
407,317	0,67
407,775	0,67
408,233	0,67
408,691	0,67
409,148	0,67
409,606	0,67
410,064	0,67
410,521	0,67
410,979	0,67
411,436	0,67
411,894	0,66
412,351	0,66
412,809	0,66
413,266	0,66
413,724	0,66
414,181	0,66
414,638	0,66
415,096	0,66
415,553	0,66
416,01	0,66
416,467	0,66
416,925	0,66
417,382	0,66
417,839	0,66
418,296	0,66
418,753	0,66
419,21	0,66
419,667	0,66
420,124	0,66
420,581	0,66
421,038	0,66
421,495	0,66
421,952	0,66
422,409	0,66
422,866	0,66
423,322	0,66
423,779	0,66
424,236	0,66
424,693	0,66
425,149	0,66
425,606	0,66
426,063	0,66
426,519	0,66
426,976	0,66
427,433	0,66
427,889	0,66
428,346	0,66
428,802	0,66
429,258	0,66
429,715	0,66
430,171	0,66
430,628	0,66
431,084	0,66
431,54	0,66
431,997	0,66
432,453	0,66
432,909	0,66
433,365	0,66
433,821	0,66
434,277	0,66
434,734	0,66
435,19	0,66
435,646	0,66
436,102	0,66
436,558	0,66
437,014	0,66
437,47	0,66
437,925	0,66
438,381	0,66
438,837	0,66
439,293	0,66
439,749	0,66
440,205	0,66
440,66	0,66
441,116	0,66
441,572	0,66
442,027	0,66
442,483	0,66
442,939	0,66
443,394	0,66
443,85	0,66
444,305	0,66
444,761	0,66
445,216	0,66
445,672	0,66
446,127	0,66
446,582	0,66
447,038	0,66
447,493	0,66
447,948	0,66
448,403	0,66
448,859	0,66
449,314	0,66
449,769	0,66
450,224	0,66
450,679	0,66
451,134	0,66
451,589	0,66
452,044	0,66
452,499	0,66
452,954	0,66
453,409	0,66
453,864	0,66
454,319	0,66
454,774	0,66
455,229	0,66
455,684	0,66
456,138	0,66
456,593	0,66
457,048	0,66
457,503	0,66
457,957	0,66
458,412	0,66
458,866	0,66
459,321	0,66
459,776	0,67
460,23	0,67
460,685	0,67
461,139	0,67
461,593	0,67
462,048	0,67
462,502	0,67
462,957	0,67
463,411	0,67
463,865	0,67
464,319	0,67
464,774	0,67
465,228	0,67
465,682	0,68
466,136	0,68
466,59	0,68
467,044	0,68
467,499	0,68
467,953	0,68
468,407	0,68
468,861	0,68
469,315	0,68
469,768	0,68
470,222	0,68
470,676	0,68
471,13	0,68
471,584	0,68
472,038	0,68
472,491	0,68
472,945	0,69
473,399	0,69
473,852	0,69
474,306	0,69
474,76	0,69
475,213	0,69
475,667	0,69
476,12	0,69
476,574	0,69
477,027	0,7
477,481	0,7
477,934	0,7
478,388	0,7
478,841	0,7
479,294	0,7
479,748	0,7
480,201	0,71
480,654	0,71
481,107	0,71
481,561	0,71
482,014	0,71
482,467	0,71
482,92	0,72
483,373	0,72
483,826	0,72
484,279	0,72
484,732	0,72
485,185	0,72
485,638	0,72
486,091	0,73
486,544	0,73
486,997	0,73
487,449	0,73
487,902	0,73
488,355	0,74
488,808	0,74
489,26	0,74
489,713	0,74
490,166	0,75
490,618	0,75
491,071	0,75
491,523	0,75
491,976	0,76
492,429	0,76
492,881	0,76
493,333	0,76
493,786	0,77
494,238	0,77
494,691	0,77
495,143	0,78
495,595	0,78
496,048	0,78
496,5	0,78
496,952	0,79
497,404	0,79
497,856	0,79
498,309	0,8
498,761	0,8
499,213	0,8
499,665	0,81
500,117	0,81
500,569	0,81
501,021	0,82
501,473	0,82
501,925	0,82
502,377	0,83
502,828	0,83
503,28	0,83
503,732	0,84
504,184	0,84
504,636	0,84
505,087	0,85
505,539	0,85
505,991	0,86
506,442	0,86
506,894	0,86
507,345	0,87
507,797	0,87
508,249	0,87
508,7	0,88
509,151	0,88
509,603	0,88
510,054	0,89
510,506	0,89
510,957	0,89
511,408	0,9
511,86	0,9
512,311	0,9
512,762	0,91
513,213	0,91
513,665	0,91
514,116	0,92
514,567	0,92
515,018	0,92
515,469	0,93
515,92	0,93
516,371	0,93
516,822	0,93
517,273	0,94
517,724	0,94
518,175	0,94
518,626	0,94
519,076	0,95
519,527	0,95
519,978	0,95
520,429	0,95
520,88	0,96
521,33	0,96
521,781	0,96
522,232	0,96
522,682	0,96
523,133	0,96
523,583	0,97
524,034	0,97
524,484	0,97
524,935	0,97
525,385	0,97
525,836	0,97
526,286	0,97
526,736	0,97
527,187	0,97
527,637	0,97
528,087	0,97
528,538	0,97
528,988	0,97
529,438	0,96
529,888	0,96
530,338	0,96
530,788	0,96
531,238	0,96
531,688	0,96
532,139	0,96
532,589	0,96
533,038	0,96
533,488	0,95
533,938	0,95
534,388	0,95
534,838	0,95
535,288	0,94
535,738	0,94
536,187	0,94
536,637	0,94
537,087	0,93
537,537	0,93
537,986	0,93
538,436	0,92
538,885	0,92
539,335	0,92
539,785	0,91
540,234	0,91
540,684	0,9
541,133	0,9
541,582	0,9
542,032	0,89
542,481	0,89
542,931	0,88
543,38	0,88
543,829	0,87
544,278	0,87
544,728	0,87
545,177	0,86
545,626	0,86
546,075	0,86
546,524	0,85
546,973	0,85
547,422	0,85
547,871	0,84
548,32	0,84
548,769	0,84
549,218	0,83
549,667	0,83
550,116	0,83
550,565	0,82
551,014	0,82
551,463	0,82
551,911	0,81
552,36	0,81
552,809	0,8
553,258	0,8
553,706	0,8
554,155	0,79
554,603	0,79
555,052	0,79
555,501	0,78
555,949	0,78
556,398	0,77
556,846	0,77
557,294	0,77
557,743	0,76
558,191	0,76
558,64	0,75
559,088	0,75
559,536	0,74
559,985	0,74
560,433	0,74
560,881	0,73
561,329	0,73
561,777	0,72
562,225	0,72
562,674	0,72
563,122	0,71
563,57	0,71
564,018	0,71
564,466	0,7
564,914	0,7
565,362	0,7
565,809	0,69
566,257	0,69
566,705	0,69
567,153	0,68
567,601	0,68
568,048	0,68
568,496	0,67
568,944	0,67
569,392	0,67
569,839	0,66
570,287	0,66
570,734	0,66
571,182	0,66
571,63	0,65
572,077	0,65
572,525	0,65
572,972	0,64
573,419	0,64
573,867	0,64
574,314	0,63
574,761	0,63
575,209	0,63
575,656	0,62
576,103	0,62
576,551	0,62
576,998	0,62
577,445	0,61
577,892	0,61
578,339	0,61
578,786	0,61
579,233	0,6
579,68	0,6
580,127	0,6
580,574	0,6
581,021	0,59
581,468	0,59
581,915	0,59
582,362	0,59
582,809	0,58
583,255	0,58
583,702	0,58
584,149	0,58
584,596	0,58
585,042	0,58
585,489	0,57
585,936	0,57
586,382	0,57
586,829	0,57
587,275	0,57
587,722	0,56
588,168	0,56
588,615	0,56
589,061	0,56
589,508	0,56
589,954	0,56
590,4	0,55
590,847	0,55
591,293	0,55
591,739	0,55
592,185	0,55
592,632	0,55
593,078	0,54
593,524	0,54
593,97	0,54
594,416	0,54
594,862	0,54
595,308	0,54
595,754	0,54
596,2	0,54
596,646	0,53
597,092	0,53
597,538	0,53
597,984	0,53
598,43	0,53
598,876	0,53
599,321	0,53
599,767	0,53
600,213	0,53
600,659	0,52
601,104	0,52
601,55	0,52
601,995	0,52
602,441	0,52
602,887	0,52
603,332	0,52
603,778	0,51
604,223	0,51
604,668	0,51
605,114	0,51
605,559	0,51
606,005	0,51
606,45	0,51
606,895	0,51
607,341	0,51
607,786	0,51
608,231	0,5
608,676	0,5
609,121	0,5
609,566	0,49
610,012	0,49
610,457	0,48
610,902	0,48
611,347	0,48
611,792	0,48
612,237	0,47
612,682	0,47
613,127	0,47
613,571	0,47
614,016	0,48
614,461	0,48
614,906	0,48
615,351	0,48
615,795	0,48
616,24	0,48
616,685	0,48
617,129	0,48
617,574	0,48
618,019	0,48
618,463	0,48
618,908	0,48
619,352	0,48
619,797	0,48
620,241	0,48
620,686	0,48
621,13	0,48
621,574	0,48
622,019	0,48
622,463	0,48
622,907	0,48
623,352	0,47
623,796	0,47
624,24	0,47
624,684	0,47
625,128	0,47
625,572	0,47
626,016	0,47
626,461	0,47
626,905	0,47
627,349	0,47
627,793	0,47
628,236	0,47
628,68	0,47
629,124	0,47
629,568	0,47
630,012	0,47
630,456	0,47
630,9	0,47
631,343	0,47
631,787	0,47
632,231	0,47
632,674	0,47
633,118	0,47
633,562	0,47
634,005	0,47
634,449	0,47
634,892	0,47
635,336	0,47
635,779	0,47
636,223	0,47
636,666	0,47
637,109	0,47
637,553	0,47
637,996	0,46
638,439	0,46
638,883	0,46
639,326	0,46
639,769	0,46
640,212	0,46
640,655	0,46
641,099	0,46
641,542	0,46
641,985	0,46
642,428	0,46
642,871	0,46
643,314	0,46
643,757	0,46
644,2	0,46
644,643	0,46
645,085	0,45
645,528	0,45
645,971	0,45
646,414	0,45
646,857	0,45
647,299	0,45
647,742	0,45
648,185	0,45
648,627	0,45
649,07	0,45
649,513	0,45
649,955	0,45
650,398	0,45
650,84	0,45
651,283	0,45
651,725	0,45
652,168	0,45
652,61	0,45
653,052	0,45
653,495	0,45
653,937	0,37
654,379	0,31
654,821	0,32
655,264	0,32
655,706	0,32
656,148	0,32
656,59	0,32
657,032	0,32
657,474	0,32
657,916	0,32
658,358	0,31
658,8	0,37
659,242	0,45
659,684	0,45
660,126	0,45
660,568	0,45
661,01	0,45
661,452	0,45
661,894	0,45
662,335	0,45
662,777	0,44
663,219	0,44
663,661	0,44
664,102	0,44
664,544	0,44
664,985	0,44
665,427	0,44
665,869	0,44
666,31	0,44
666,752	0,44
667,193	0,44
667,634	0,44
668,076	0,44
668,517	0,44
668,959	0,44
669,4	0,44
669,841	0,45
670,282	0,45
670,724	0,45
671,165	0,45
671,606	0,45
672,047	0,45
672,488	0,45
672,929	0,44
673,37	0,44
673,811	0,44
674,252	0,44
674,693	0,44
675,134	0,44
675,575	0,44
676,016	0,44
676,457	0,44
676,898	0,43
677,339	0,43
677,78	0,43
678,22	0,43
678,661	0,43
679,102	0,43
679,542	0,43
679,983	0,43
680,424	0,43
680,864	0,43
681,305	0,43
681,745	0,43
682,186	0,44
682,626	0,44
683,067	0,44
683,507	0,44
683,948	0,44
684,388	0,44
684,828	0,43
685,269	0,43
685,709	0,43
686,149	0,43
686,589	0,43
687,029	0,43
687,47	0,43
687,91	0,43
688,35	0,43
688,79	0,43
689,23	0,43
689,67	0,43
690,11	0,43
690,55	0,43
690,99	0,43
691,43	0,43
691,87	0,43
692,31	0,42
692,749	0,42
693,189	0,42
693,629	0,42
694,069	0,42
694,508	0,42
694,948	0,42
695,388	0,42
695,827	0,42
696,267	0,42
696,706	0,42
697,146	0,42
697,586	0,42
698,025	0,42
698,464	0,42
698,904	0,43
699,343	0,43
699,783	0,43
700,222	0,43
700,661	0,43
701,101	0,43
701,54	0,43
701,979	0,43
702,418	0,43
702,857	0,43
703,297	0,43
703,736	0,43
704,175	0,43
704,614	0,43
705,053	0,43
705,492	0,43
705,931	0,42
706,37	0,42
706,809	0,42
707,248	0,42
707,687	0,42
708,125	0,42
708,564	0,42
709,003	0,42
709,442	0,42
709,88	0,42
710,319	0,42
710,758	0,42
711,196	0,42
711,635	0,42
712,074	0,42
712,512	0,41
712,951	0,41
713,389	0,41
713,828	0,41
714,266	0,41
714,705	0,41
715,143	0,41
715,581	0,41
716,02	0,41
716,458	0,41
716,896	0,41
717,334	0,41
717,773	0,41
718,211	0,41
718,649	0,41
719,087	0,41
719,525	0,41
719,963	0,41
720,401	0,41
720,839	0,41
721,277	0,41
721,715	0,41
722,153	0,41
722,591	0,41
723,029	0,41
723,467	0,41
723,905	0,41
724,342	0,41
724,78	0,41
725,218	0,41
725,656	0,41
726,093	0,41
726,531	0,41
726,969	0,41
727,406	0,41
727,844	0,41
728,281	0,41
728,719	0,41
729,156	0,41
729,594	0,41
730,031	0,41
730,469	0,41
730,906	0,41
731,343	0,41
731,781	0,41
732,218	0,41
732,655	0,41
733,092	0,41
733,53	0,41
733,967	0,4
734,404	0,4
734,841	0,4
735,278	0,4
735,715	0,4
736,152	0,4
736,589	0,4
737,026	0,4
737,463	0,4
737,9	0,4
738,337	0,4
738,774	0,4
739,211	0,4
739,647	0,4
740,084	0,4
740,521	0,4
740,958	0,4
741,394	0,4
741,831	0,4
742,268	0,4
742,704	0,4
743,141	0,4
743,577	0,4
744,014	0,4
744,45	0,4
744,887	0,39
745,323	0,39
745,76	0,39
746,196	0,39
746,632	0,39
747,069	0,39
747,505	0,39
747,941	0,39
748,378	0,39
748,814	0,39
749,25	0,39
749,686	0,39
750,122	0,39
750,558	0,39
750,994	0,39
751,43	0,4
751,866	0,4
752,302	0,4
752,738	0,4
753,174	0,4
753,61	0,4
754,046	0,4
754,482	0,4
754,918	0,4
755,354	0,4
755,789	0,4
756,225	0,4
756,661	0,4
757,096	0,4
757,532	0,4
757,968	0,39
758,403	0,39
758,839	0,39
759,274	0,39
759,71	0,38
760,145	0,38
760,581	0,37
761,016	0,37
761,452	0,36
761,887	0,36
762,322	0,36
762,758	0,35
763,193	0,35
763,628	0,34
764,063	0,33
764,499	0,32
764,934	0,32
765,369	0,31
765,804	0,3
766,239	0,3
766,674	0,29
767,109	0,28
767,544	0,28
767,979	0,27
768,414	0,26
768,849	0,25
769,284	0,24
769,719	0,24
770,154	0,23
770,588	0,23
771,023	0,21
771,458	0,2
771,893	0,19
772,327	0,18
772,762	0,17
773,197	0,16
773,631	0,15
774,066	0,14
774,5	0,13
774,935	0,12
775,369	0,11
775,804	0,1
776,238	0,09
776,673	0,08
777,107	0,08
777,541	0,07
777,976	0,06
778,41	0,05
778,844	0,05
779,279	0,04
779,713	0,03
780,147	0,02
780,581	0,02
781,015	0,01
781,449	0
781,883	-0,01
782,317	-0,02
782,751	-0,03
783,185	-0,03
783,619	-0,04
784,053	-0,05
784,487	-0,06
784,921	-0,07
785,355	-0,08
785,789	-0,09
786,223	-0,09
786,656	-0,11
787,09	-0,12
787,524	-0,12
787,957	-0,14
788,391	-0,16
788,825	-0,18
789,258	-0,19
789,692	-0,2
790,125	-0,22
790,559	-0,23
790,992	-0,26
791,426	-0,28
791,859	-0,3
792,293	-0,33
792,726	-0,34
793,159	-0,36
793,593	-0,38
794,026	-0,41
794,459	-0,44
794,892	-0,46
795,326	-0,49
795,759	-0,53
796,192	-0,57
796,625	-0,61
797,058	-0,64
797,491	-0,68
797,924	-0,72
798,357	-0,76
798,79	-0,8
799,223	-0,85
799,656	-0,9
800,089	-0,95
800,522	-0,99
800,955	-1,04
801,387	-1,1
801,82	-1,15
802,253	-1,21
802,686	-1,29
803,118	-1,35
803,551	-1,4
803,984	-1,44
804,416	-1,48
804,849	-1,51
805,281	-1,61
805,714	-1,96
806,146	-2,44
806,579	-2,7
807,011	-2,87
807,444	-2,96
807,876	-3,05
808,308	-3,08
808,741	-3,11
809,173	-3,16
809,605	-3,18
810,037	-3,26
810,47	-3,18
810,902	-2,98
811,334	-2,83
811,766	-2,67
812,198	-2,43
812,63	-2
813,062	-1,79
813,494	-1,69
813,926	-1,61
814,358	-1,55
814,79	-1,47
815,222	-1,41
815,654	-1,36
816,086	-1,3
816,518	-1,24
816,949	-1,19
817,381	-1,15
817,813	-1,13
818,245	-1,09
818,676	-1,05
819,108	-1,01
819,54	-1
819,971	-0,97
820,403	-0,92
820,834	-0,91
821,266	-0,86
821,697	-0,84
822,129	-0,83
822,56	-0,8
822,991	-0,78
823,423	-0,75
823,854	-0,74
824,286	-0,72
824,717	-0,71
825,148	-0,69
825,579	-0,68
826,01	-0,67
826,442	-0,67
826,873	-0,65
827,304	-0,61
827,735	-0,6
828,166	-0,61
828,597	-0,6
829,028	-0,6
829,459	-0,6
829,89	-0,6
830,321	-0,56
830,752	-0,57
831,183	-0,56
831,613	-0,55
832,044	-0,55
832,475	-0,53
832,906	-0,54
833,336	-0,55
833,767	-0,56
834,198	-0,54
834,628	-0,52
835,059	-0,55
835,49	-0,55
835,92	-0,53
836,351	-0,53
836,781	-0,53
837,212	-0,56
837,642	-0,56
838,072	-0,54
838,503	-0,55
838,933	-0,52
839,364	-0,53
839,794	-0,51
840,224	-0,5
840,654	-0,54
841,085	-0,54
841,515	-0,52
841,945	-0,51
842,375	-0,47
842,805	-0,46
843,235	-0,44
843,665	-0,45
844,095	-0,44
844,525	-0,47
844,955	-0,47
845,385	-0,45
845,815	-0,43
846,245	-0,45
846,675	-0,47
847,105	-0,48
847,534	-0,48
847,964	-0,47
848,394	-0,46
848,824	-0,49
849,253	-0,47
849,683	-0,47
850,112	-0,49
850,542	-0,52
850,972	-0,53
851,401	-0,5
851,831	-0,49
852,26	-0,5
852,69	-0,53
853,119	-0,54
853,548	-0,54
853,978	-0,54
854,407	-0,52
854,836	-0,51
855,266	-0,51
855,695	-0,52
856,124	-0,53
856,553	-0,53
856,983	-0,55
857,412	-0,54
857,841	-0,55
858,27	-0,55
858,699	-0,56
859,128	-0,6
859,557	-0,61
859,986	-0,62
860,415	-0,59
860,844	-0,57
861,273	-0,57
861,702	-0,58
862,13	-0,57
862,559	-0,58
862,988	-0,56
863,417	-0,55
863,845	-0,54
864,274	-0,54
864,703	-0,54
865,131	-0,54
865,56	-0,55
865,989	-0,58
866,417	-0,54
866,846	-0,55
867,274	-0,53
867,703	-0,56
868,131	-0,58
868,559	-0,58
868,988	-0,6
869,416	-0,59
869,844	-0,61
870,273	-0,65
870,701	-0,62
871,129	-0,65
871,557	-0,68
871,986	-0,68
872,414	-0,69
872,842	-0,65
873,27	-0,63
873,698	-0,6
874,126	-0,64
874,554	-0,62
874,982	-0,61
875,41	-0,65
875,838	-0,59
876,266	-0,56
876,694	-0,57
877,122	-0,56
877,549	-0,62
877,977	-0,59
878,405	-0,62
878,833	-0,59
879,26	-0,57
879,688	-0,57
880,116	-0,55
880,543	-0,53
880,971	-0,53
881,399	-0,56
881,826	-0,56
882,254	-0,54
882,681	-0,59
883,109	-0,54
883,536	-0,55
883,963	-0,57
884,391	-0,54
884,818	-0,53
885,245	-0,57
885,673	-0,58
886,1	-0,55
886,527	-0,55
886,954	-0,52
887,381	-0,53
887,809	-0,55
888,236	-0,55
888,663	-0,56
889,09	-0,61
889,517	-0,63
889,944	-0,62
890,371	-0,6
890,798	-0,61
891,225	-0,61
891,652	-0,64
892,078	-0,61
892,505	-0,63
892,932	-0,6
893,359	-0,62
893,786	-0,61
894,212	-0,58
894,639	-0,6
895,066	-0,63
895,492	-0,58
895,919	-0,58
896,346	-0,57
896,772	-0,58
897,199	-0,54
897,625	-0,57
898,052	-0,53
898,478	-0,5
898,904	-0,52
899,331	-0,51
899,757	-0,53
900,183	-0,54
900,61	-0,52
901,036	-0,53
901,462	-0,52
901,888	-0,52
902,315	-0,5
902,741	-0,54
903,167	-0,54
903,593	-0,56
904,019	-0,56
904,445	-0,53
904,871	-0,55
905,297	-0,58
905,723	-0,58
906,149	-0,57
906,575	-0,57
907,001	-0,58
907,427	-0,55
907,852	-0,54
908,278	-0,56
908,704	-0,54
909,13	-0,53
909,555	-0,52
909,981	-0,52
910,407	-0,52
910,832	-0,52
911,258	-0,53
911,684	-0,53
912,109	-0,53
912,535	-0,54
912,96	-0,49
913,386	-0,53
913,811	-0,52
914,236	-0,54
914,662	-0,53
915,087	-0,56
915,512	-0,55
915,938	-0,58
916,363	-0,56
916,788	-0,57
917,213	-0,55
917,639	-0,6
918,064	-0,58
918,489	-0,59
918,914	-0,59
919,339	-0,61
919,764	-0,57
920,189	-0,58
920,614	-0,6
921,039	-0,61
921,464	-0,57
921,889	-0,61
922,314	-0,62
922,738	-0,65
923,163	-0,66
923,588	-0,66
924,013	-0,64
924,437	-0,65
924,862	-0,66
925,287	-0,62
925,711	-0,62
926,136	-0,64
926,561	-0,61
926,985	-0,6
927,41	-0,57
927,834	-0,54
928,259	-0,51
928,683	-0,5
929,108	-0,46
929,532	-0,48
929,956	-0,47
930,381	-0,46
930,805	-0,46
931,229	-0,46
931,653	-0,44
932,078	-0,44
932,502	-0,46
932,926	-0,46
933,35	-0,46
933,774	-0,45
934,198	-0,44
934,622	-0,42
935,046	-0,43
935,47	-0,44
935,894	-0,42
936,318	-0,42
936,742	-0,42
937,166	-0,42
937,59	-0,43
938,014	-0,45
938,437	-0,45
938,861	-0,47
939,285	-0,49
939,709	-0,48
940,132	-0,48
940,556	-0,5
940,98	-0,49
941,403	-0,47
941,827	-0,47
942,25	-0,48
942,674	-0,47
943,097	-0,47
943,521	-0,47
943,944	-0,48
944,368	-0,47
944,791	-0,46
945,214	-0,47
945,638	-0,48
946,061	-0,52
946,484	-0,53
946,907	-0,5
947,331	-0,5
947,754	-0,53
948,177	-0,51
948,6	-0,5
949,023	-0,5
949,446	-0,5
949,869	-0,48
950,292	-0,47
950,715	-0,43
951,138	-0,43
951,561	-0,4
951,984	-0,4
952,407	-0,39
952,83	-0,37
953,252	-0,33
953,675	-0,33
954,098	-0,34
954,521	-0,33
954,943	-0,33
955,366	-0,34
955,789	-0,32
956,211	-0,35
956,634	-0,36
957,056	-0,34
957,479	-0,35
957,902	-0,38
958,324	-0,38
958,746	-0,37
959,169	-0,39
959,591	-0,39
960,014	-0,39
960,436	-0,38
960,858	-0,38
961,281	-0,37
961,703	-0,38
962,125	-0,37
962,547	-0,35
962,969	-0,35
963,391	-0,35
963,814	-0,36
964,236	-0,36
964,658	-0,33
965,08	-0,34
965,502	-0,33
965,924	-0,32
966,346	-0,32
966,768	-0,32
967,189	-0,34
967,611	-0,34
968,033	-0,33
968,455	-0,31
968,877	-0,32
969,298	-0,33
969,72	-0,34
970,142	-0,33
970,563	-0,32
970,985	-0,31
971,407	-0,3
971,828	-0,27
972,25	-0,26
972,671	-0,25
973,093	-0,24
973,514	-0,23
973,936	-0,21
974,357	-0,19
974,778	-0,19
975,2	-0,19
975,621	-0,19
976,042	-0,18
976,464	-0,16
976,885	-0,16
977,306	-0,15
977,727	-0,15
978,148	-0,14
978,57	-0,13
978,991	-0,11
979,412	-0,1
979,833	-0,09
980,254	-0,09
980,675	-0,09
981,096	-0,08
981,517	-0,07
981,937	-0,06
982,358	-0,05
982,779	-0,03
983,2	-0,03
983,621	-0,02
984,042	-0
984,462	0,01
984,883	0,02
985,304	0,04
985,724	0,05
986,145	0,06
986,565	0,07
986,986	0,08
987,407	0,09
987,827	0,1
988,248	0,12
988,668	0,13
989,088	0,13
989,509	0,14
989,929	0,15
990,35	0,16
990,77	0,18
991,19	0,18
991,61	0,2
992,031	0,21
992,451	0,21
992,871	0,22
993,291	0,23
993,711	0,24
994,131	0,25
994,551	0,26
994,971	0,27
995,391	0,27
995,811	0,28
996,231	0,29
996,651	0,29
997,071	0,3
997,491	0,3
997,911	0,31
998,331	0,31
998,75	0,32
999,17	0,32
999,59	0,33
1000,009	0,33
1000,429	0,34
1000,849	0,34
1001,268	0,35
1001,688	0,35
1002,107	0,35
1002,527	0,36
1002,946	0,36
1003,366	0,36
1003,785	0,37
1004,205	0,37
1004,624	0,37
1005,044	0,37
1005,463	0,38
1005,882	0,38
1006,301	0,38
1006,721	0,38
1007,14	0,38
1007,559	0,38
1007,978	0,38
1008,397	0,38
1008,816	0,38
1009,235	0,38
1009,655	0,38
1010,074	0,38
1010,492	0,38
1010,911	0,38
1011,33	0,38
1011,749	0,38
1012,168	0,38
1012,587	0,38
1013,006	0,38
1013,425	0,37
1013,843	0,37
1014,262	0,37
1014,681	0,37
1015,099	0,37
1015,518	0,37
1015,937	0,37
1016,355	0,37
1016,774	0,37
1017,192	0,37
1017,611	0,37
1018,029	0,37
1018,448	0,37
1018,866	0,37
1019,285	0,37
1019,703	0,37
1020,121	0,37
1020,54	0,37
1020,958	0,37
1021,376	0,37
1021,794	0,37
1022,213	0,37
1022,631	0,37
1023,049	0,37
1023,467	0,37
1023,885	0,37
1024,303	0,37
1024,721	0,36
1025,139	0,36
1025,557	0,36
1025,975	0,36
1026,393	0,36
1026,811	0,36
1027,229	0,36
1027,647	0,36
1028,065	0,36
1028,482	0,36
1028,9	0,36
1029,318	0,36
1029,735	0,36
1030,153	0,36
1030,571	0,36
1030,988	0,36
1031,406	0,36
1031,823	0,36
1032,241	0,36
1032,659	0,36
1033,076	0,36
1033,493	0,36
1033,911	0,36
1034,328	0,36
1034,746	0,36
1035,163	0,36
1035,58	0,36
1035,997	0,36
1036,415	0,36
1036,832	0,36
1037,249	0,36
1037,666	0,36
1038,083	0,36
1038,501	0,36
1038,918	0,36
1039,335	0,36
1039,752	0,36
1040,169	0,36
1040,586	0,36
1041,003	0,36
1041,419	0,36
1041,836	0,36
1042,253	0,36
1042,67	0,36
1043,087	0,36
1043,504	0,36
1043,92	0,36
1044,337	0,36
1044,754	0,36
1045,17	0,36
1045,587	0,36
1046,004	0,36
1046,42	0,36
1046,837	0,36
1047,253	0,36
1047,67	0,36
1048,086	0,36
1048,503	0,36
1048,919	0,36
1049,335	0,36
1049,752	0,36
1050,168	0,36
1050,584	0,36
1051,001	0,36
1051,417	0,36
1051,833	0,36
1052,249	0,36
1052,665	0,36
1053,081	0,36
1053,497	0,36
1053,914	0,36
1054,33	0,36
1054,746	0,36
1055,162	0,36
1055,578	0,36
1055,993	0,37
1056,409	0,37
1056,825	0,37
1057,241	0,37
1057,657	0,37
1058,073	0,37
1058,488	0,37
1058,904	0,37
1059,32	0,36
1059,736	0,37
1060,151	0,36
1060,567	0,36
1060,982	0,36
1061,398	0,36
1061,813	0,36
1062,229	0,36
1062,644	0,36
1063,06	0,36
1063,475	0,36
1063,891	0,36
1064,306	0,36
1064,721	0,36
1065,137	0,36
1065,552	0,36
1065,967	0,36
1066,382	0,36
1066,798	0,36
1067,213	0,36
1067,628	0,36
1068,043	0,36
1068,458	0,36
1068,873	0,36
1069,288	0,36
1069,703	0,36
1070,118	0,36
1070,533	0,36
1070,948	0,36
1071,363	0,36
1071,778	0,36
1072,193	0,36
1072,607	0,36
1073,022	0,36
1073,437	0,36
1073,852	0,36
1074,266	0,36
1074,681	0,36
1075,096	0,36
1075,51	0,36
1075,925	0,36
1076,339	0,36
1076,754	0,36
1077,168	0,36
1077,583	0,36
1077,997	0,36
1078,412	0,36
1078,826	0,36
1079,24	0,36
1079,655	0,36
1080,069	0,36
1080,483	0,36
1080,897	0,36
1081,312	0,36
1081,726	0,36
1082,14	0,36
1082,554	0,36
1082,968	0,35
1083,382	0,35
1083,796	0,35
1084,21	0,35
1084,624	0,35
1085,038	0,35
1085,452	0,35
1085,866	0,35
1086,28	0,35
1086,694	0,34
1087,108	0,34
1087,521	0,34
1087,935	0,34
1088,349	0,34
1088,763	0,33
1089,176	0,33
1089,59	0,33
1090,004	0,33
1090,417	0,32
1090,831	0,32
1091,244	0,32
1091,658	0,31
1092,071	0,31
1092,485	0,31
1092,898	0,31
1093,312	0,3
1093,725	0,3
1094,138	0,3
1094,552	0,3
1094,965	0,3
1095,378	0,3
1095,791	0,29
1096,205	0,29
1096,618	0,29
1097,031	0,29
1097,444	0,29
1097,857	0,28
1098,27	0,28
1098,683	0,27
1099,096	0,27
1099,509	0,27
1099,922	0,26
1100,335	0,26
1100,748	0,25
1101,161	0,25
1101,574	0,25
1101,986	0,24
1102,399	0,24
1102,812	0,24
1103,225	0,24
1103,637	0,24
1104,05	0,24
1104,463	0,24
1104,875	0,23
1105,288	0,23
1105,7	0,22
1106,113	0,22
1106,525	0,22
1106,938	0,21
1107,35	0,2
1107,763	0,2
1108,175	0,2
1108,588	0,19
1109	0,18
1109,412	0,18
1109,824	0,17
1110,237	0,17
1110,649	0,18
1111,061	0,17
