Data from 18C-808nm-8A-cont_Absorbance__92__01521.txt Node

Date: Mon Jul 17 17:20:25 CEST 2023
User: Laser008
Spectrometer: MAYP115816
Trigger mode: 0
Integration Time (sec): 2,500000E-1
Scans to average: 10
Electric dark correction enabled: true
Nonlinearity correction enabled: true
Boxcar width: 5
XAxis mode: Wavelengths
Number of Pixels in Spectrum: 2068
>>>>>Begin Spectral Data<<<<<
198,914	-0,73
199,384	-0,51
199,855	-0,38
200,325	-0,29
200,796	-0,27
201,266	-0,22
201,737	-0,19
202,207	-0,18
202,677	-0,17
203,147	-0,16
203,618	-0,13
204,088	-0,11
204,558	-0,09
205,028	-0,08
205,498	-0,09
205,968	-0,09
206,439	-0,1
206,909	-0,1
207,379	-0,11
207,849	-0,11
208,319	-0,11
208,789	-0,12
209,258	-0,11
209,728	-0,12
210,198	-0,13
210,668	-0,13
211,138	-0,12
211,608	-0,12
212,077	-0,12
212,547	-0,11
213,017	-0,12
213,486	-0,13
213,956	-0,14
214,426	-0,15
214,895	-0,15
215,365	-0,15
215,834	-0,15
216,304	-0,16
216,773	-0,16
217,243	-0,17
217,712	-0,18
218,181	-0,17
218,651	-0,17
219,12	-0,16
219,589	-0,16
220,058	-0,15
220,528	-0,16
220,997	-0,17
221,466	-0,19
221,935	-0,2
222,404	-0,19
222,873	-0,18
223,342	-0,18
223,812	-0,19
224,281	-0,2
224,749	-0,21
225,218	-0,22
225,687	-0,23
226,156	-0,21
226,625	-0,19
227,094	-0,18
227,563	-0,18
228,031	-0,2
228,5	-0,19
228,969	-0,2
229,438	-0,18
229,906	-0,16
230,375	-0,15
230,844	-0,14
231,312	-0,15
231,781	-0,16
232,249	-0,15
232,718	-0,15
233,186	-0,13
233,655	-0,14
234,123	-0,14
234,591	-0,15
235,06	-0,14
235,528	-0,15
235,996	-0,15
236,465	-0,15
236,933	-0,15
237,401	-0,15
237,869	-0,14
238,337	-0,15
238,805	-0,14
239,274	-0,12
239,742	-0,12
240,21	-0,12
240,678	-0,11
241,146	-0,11
241,614	-0,11
242,081	-0,1
242,549	-0,11
243,017	-0,11
243,485	-0,11
243,953	-0,11
244,421	-0,12
244,888	-0,12
245,356	-0,12
245,824	-0,11
246,291	-0,11
246,759	-0,12
247,227	-0,12
247,694	-0,11
248,162	-0,1
248,629	-0,1
249,097	-0,1
249,564	-0,1
250,032	-0,11
250,499	-0,11
250,967	-0,12
251,434	-0,12
251,901	-0,11
252,369	-0,12
252,836	-0,13
253,303	-0,15
253,77	-0,16
254,237	-0,16
254,705	-0,16
255,172	-0,14
255,639	-0,15
256,106	-0,16
256,573	-0,17
257,04	-0,17
257,507	-0,18
257,974	-0,18
258,441	-0,15
258,908	-0,16
259,375	-0,17
259,841	-0,17
260,308	-0,18
260,775	-0,18
261,242	-0,17
261,709	-0,17
262,175	-0,18
262,642	-0,18
263,109	-0,17
263,575	-0,19
264,042	-0,17
264,508	-0,17
264,975	-0,19
265,441	-0,2
265,908	-0,2
266,374	-0,19
266,841	-0,19
267,307	-0,18
267,773	-0,17
268,24	-0,18
268,706	-0,18
269,172	-0,19
269,639	-0,2
270,105	-0,18
270,571	-0,19
271,037	-0,19
271,503	-0,21
271,969	-0,21
272,435	-0,21
272,902	-0,23
273,368	-0,25
273,834	-0,24
274,3	-0,25
274,765	-0,24
275,231	-0,25
275,697	-0,23
276,163	-0,23
276,629	-0,23
277,095	-0,23
277,56	-0,22
278,026	-0,22
278,492	-0,21
278,958	-0,2
279,423	-0,2
279,889	-0,19
280,354	-0,2
280,82	-0,2
281,286	-0,21
281,751	-0,21
282,217	-0,2
282,682	-0,2
283,147	-0,2
283,613	-0,2
284,078	-0,21
284,544	-0,22
285,009	-0,23
285,474	-0,22
285,939	-0,24
286,405	-0,22
286,87	-0,23
287,335	-0,22
287,8	-0,22
288,265	-0,21
288,73	-0,22
289,195	-0,24
289,66	-0,24
290,125	-0,23
290,59	-0,23
291,055	-0,22
291,52	-0,22
291,985	-0,22
292,45	-0,24
292,915	-0,24
293,38	-0,24
293,844	-0,23
294,309	-0,21
294,774	-0,2
295,239	-0,22
295,703	-0,22
296,168	-0,22
296,632	-0,21
297,097	-0,19
297,562	-0,17
298,026	-0,19
298,491	-0,18
298,955	-0,17
299,419	-0,16
299,884	-0,16
300,348	-0,15
300,813	-0,13
301,277	-0,14
301,741	-0,13
302,205	-0,14
302,67	-0,13
303,134	-0,11
303,598	-0,11
304,062	-0,11
304,526	-0,1
304,99	-0,12
305,454	-0,12
305,919	-0,12
306,383	-0,13
306,847	-0,12
307,31	-0,14
307,774	-0,15
308,238	-0,15
308,702	-0,15
309,166	-0,16
309,63	-0,16
310,094	-0,14
310,557	-0,14
311,021	-0,13
311,485	-0,14
311,948	-0,13
312,412	-0,12
312,876	-0,11
313,339	-0,12
313,803	-0,13
314,266	-0,13
314,73	-0,13
315,193	-0,13
315,657	-0,11
316,12	-0,1
316,584	-0,09
317,047	-0,09
317,51	-0,08
317,973	-0,08
318,437	-0,07
318,9	-0,05
319,363	-0,04
319,826	-0,04
320,29	-0,05
320,753	-0,05
321,216	-0,06
321,679	-0,06
322,142	-0,06
322,605	-0,07
323,068	-0,07
323,531	-0,06
323,994	-0,06
324,457	-0,06
324,92	-0,04
325,382	-0,05
325,845	-0,04
326,308	-0,04
326,771	-0,03
327,233	-0,02
327,696	-0
328,159	0
328,622	0
329,084	-0
329,547	0,01
330,009	0,01
330,472	0,02
330,934	0,03
331,397	0,03
331,859	0,03
332,322	0,04
332,784	0,03
333,246	0,04
333,709	0,04
334,171	0,04
334,633	0,04
335,096	0,04
335,558	0,04
336,02	0,04
336,482	0,05
336,944	0,06
337,406	0,07
337,868	0,07
338,331	0,07
338,793	0,08
339,255	0,09
339,717	0,09
340,178	0,1
340,64	0,1
341,102	0,11
341,564	0,11
342,026	0,12
342,488	0,13
342,949	0,14
343,411	0,16
343,873	0,18
344,335	0,21
344,796	0,25
345,258	0,28
345,719	0,32
346,181	0,36
346,643	0,39
347,104	0,42
347,566	0,44
348,027	0,46
348,488	0,48
348,95	0,5
349,411	0,51
349,873	0,52
350,334	0,54
350,795	0,55
351,256	0,56
351,718	0,56
352,179	0,57
352,64	0,57
353,101	0,57
353,562	0,57
354,023	0,57
354,484	0,58
354,945	0,58
355,406	0,58
355,867	0,58
356,328	0,58
356,789	0,58
357,25	0,59
357,711	0,59
358,172	0,59
358,633	0,59
359,093	0,59
359,554	0,59
360,015	0,59
360,476	0,59
360,936	0,59
361,397	0,59
361,858	0,59
362,318	0,59
362,779	0,59
363,239	0,59
363,7	0,6
364,16	0,6
364,621	0,6
365,081	0,6
365,541	0,6
366,002	0,59
366,462	0,59
366,922	0,59
367,383	0,59
367,843	0,59
368,303	0,59
368,763	0,59
369,223	0,59
369,684	0,6
370,144	0,6
370,604	0,6
371,064	0,6
371,524	0,6
371,984	0,59
372,444	0,59
372,904	0,59
373,363	0,59
373,823	0,59
374,283	0,59
374,743	0,59
375,203	0,59
375,663	0,59
376,122	0,59
376,582	0,59
377,042	0,59
377,501	0,59
377,961	0,59
378,42	0,59
378,88	0,59
379,34	0,59
379,799	0,59
380,259	0,59
380,718	0,59
381,177	0,59
381,637	0,59
382,096	0,59
382,555	0,59
383,015	0,59
383,474	0,59
383,933	0,59
384,393	0,59
384,852	0,59
385,311	0,59
385,77	0,58
386,229	0,58
386,688	0,58
387,147	0,58
387,606	0,58
388,065	0,58
388,524	0,58
388,983	0,58
389,442	0,58
389,901	0,58
390,36	0,58
390,819	0,58
391,277	0,58
391,736	0,58
392,195	0,58
392,654	0,58
393,112	0,58
393,571	0,58
394,03	0,58
394,488	0,58
394,947	0,58
395,405	0,58
395,864	0,58
396,322	0,58
396,781	0,58
397,239	0,58
397,698	0,58
398,156	0,58
398,614	0,58
399,073	0,58
399,531	0,58
399,989	0,58
400,447	0,58
400,905	0,57
401,364	0,57
401,822	0,57
402,28	0,57
402,738	0,57
403,196	0,57
403,654	0,57
404,112	0,57
404,57	0,57
405,028	0,57
405,486	0,57
405,944	0,57
406,402	0,57
406,859	0,57
407,317	0,57
407,775	0,57
408,233	0,57
408,691	0,57
409,148	0,57
409,606	0,57
410,064	0,57
410,521	0,57
410,979	0,57
411,436	0,57
411,894	0,57
412,351	0,57
412,809	0,57
413,266	0,57
413,724	0,57
414,181	0,57
414,638	0,57
415,096	0,57
415,553	0,57
416,01	0,57
416,467	0,57
416,925	0,57
417,382	0,57
417,839	0,57
418,296	0,57
418,753	0,57
419,21	0,56
419,667	0,56
420,124	0,56
420,581	0,56
421,038	0,56
421,495	0,56
421,952	0,56
422,409	0,56
422,866	0,56
423,322	0,56
423,779	0,56
424,236	0,56
424,693	0,56
425,149	0,56
425,606	0,56
426,063	0,56
426,519	0,56
426,976	0,56
427,433	0,56
427,889	0,56
428,346	0,56
428,802	0,56
429,258	0,56
429,715	0,56
430,171	0,56
430,628	0,56
431,084	0,56
431,54	0,56
431,997	0,56
432,453	0,56
432,909	0,56
433,365	0,56
433,821	0,56
434,277	0,56
434,734	0,56
435,19	0,56
435,646	0,56
436,102	0,56
436,558	0,56
437,014	0,56
437,47	0,56
437,925	0,56
438,381	0,56
438,837	0,56
439,293	0,56
439,749	0,56
440,205	0,56
440,66	0,56
441,116	0,56
441,572	0,56
442,027	0,56
442,483	0,56
442,939	0,56
443,394	0,56
443,85	0,56
444,305	0,56
444,761	0,56
445,216	0,56
445,672	0,56
446,127	0,56
446,582	0,56
447,038	0,56
447,493	0,56
447,948	0,56
448,403	0,56
448,859	0,56
449,314	0,56
449,769	0,56
450,224	0,56
450,679	0,56
451,134	0,56
451,589	0,56
452,044	0,56
452,499	0,56
452,954	0,57
453,409	0,57
453,864	0,57
454,319	0,57
454,774	0,57
455,229	0,57
455,684	0,57
456,138	0,57
456,593	0,57
457,048	0,57
457,503	0,57
457,957	0,56
458,412	0,57
458,866	0,57
459,321	0,57
459,776	0,57
460,23	0,57
460,685	0,57
461,139	0,57
461,593	0,57
462,048	0,57
462,502	0,57
462,957	0,57
463,411	0,57
463,865	0,57
464,319	0,57
464,774	0,57
465,228	0,57
465,682	0,57
466,136	0,58
466,59	0,58
467,044	0,58
467,499	0,58
467,953	0,58
468,407	0,58
468,861	0,58
469,315	0,58
469,768	0,58
470,222	0,58
470,676	0,58
471,13	0,58
471,584	0,58
472,038	0,58
472,491	0,58
472,945	0,58
473,399	0,59
473,852	0,59
474,306	0,59
474,76	0,59
475,213	0,59
475,667	0,59
476,12	0,59
476,574	0,59
477,027	0,59
477,481	0,59
477,934	0,59
478,388	0,6
478,841	0,6
479,294	0,6
479,748	0,6
480,201	0,6
480,654	0,6
481,107	0,6
481,561	0,61
482,014	0,61
482,467	0,61
482,92	0,61
483,373	0,61
483,826	0,61
484,279	0,61
484,732	0,61
485,185	0,62
485,638	0,62
486,091	0,62
486,544	0,62
486,997	0,62
487,449	0,62
487,902	0,63
488,355	0,63
488,808	0,63
489,26	0,63
489,713	0,63
490,166	0,64
490,618	0,64
491,071	0,64
491,523	0,64
491,976	0,65
492,429	0,65
492,881	0,65
493,333	0,65
493,786	0,65
494,238	0,66
494,691	0,66
495,143	0,66
495,595	0,66
496,048	0,67
496,5	0,67
496,952	0,67
497,404	0,68
497,856	0,68
498,309	0,68
498,761	0,68
499,213	0,69
499,665	0,69
500,117	0,69
500,569	0,7
501,021	0,7
501,473	0,7
501,925	0,71
502,377	0,71
502,828	0,71
503,28	0,72
503,732	0,72
504,184	0,72
504,636	0,73
505,087	0,73
505,539	0,73
505,991	0,73
506,442	0,74
506,894	0,74
507,345	0,74
507,797	0,75
508,249	0,75
508,7	0,75
509,151	0,76
509,603	0,76
510,054	0,76
510,506	0,77
510,957	0,77
511,408	0,77
511,86	0,78
512,311	0,78
512,762	0,78
513,213	0,78
513,665	0,79
514,116	0,79
514,567	0,79
515,018	0,8
515,469	0,8
515,92	0,8
516,371	0,8
516,822	0,81
517,273	0,81
517,724	0,81
518,175	0,81
518,626	0,82
519,076	0,82
519,527	0,82
519,978	0,82
520,429	0,82
520,88	0,82
521,33	0,83
521,781	0,83
522,232	0,83
522,682	0,83
523,133	0,83
523,583	0,83
524,034	0,83
524,484	0,83
524,935	0,84
525,385	0,84
525,836	0,84
526,286	0,84
526,736	0,84
527,187	0,84
527,637	0,84
528,087	0,84
528,538	0,84
528,988	0,84
529,438	0,84
529,888	0,84
530,338	0,83
530,788	0,83
531,238	0,83
531,688	0,83
532,139	0,83
532,589	0,83
533,038	0,83
533,488	0,83
533,938	0,83
534,388	0,82
534,838	0,82
535,288	0,82
535,738	0,82
536,187	0,81
536,637	0,81
537,087	0,81
537,537	0,81
537,986	0,8
538,436	0,8
538,885	0,8
539,335	0,79
539,785	0,79
540,234	0,79
540,684	0,78
541,133	0,78
541,582	0,78
542,032	0,77
542,481	0,77
542,931	0,76
543,38	0,76
543,829	0,76
544,278	0,75
544,728	0,75
545,177	0,75
545,626	0,74
546,075	0,74
546,524	0,74
546,973	0,73
547,422	0,73
547,871	0,73
548,32	0,73
548,769	0,72
549,218	0,72
549,667	0,72
550,116	0,72
550,565	0,71
551,014	0,71
551,463	0,71
551,911	0,7
552,36	0,7
552,809	0,7
553,258	0,69
553,706	0,69
554,155	0,69
554,603	0,68
555,052	0,68
555,501	0,68
555,949	0,67
556,398	0,67
556,846	0,67
557,294	0,66
557,743	0,66
558,191	0,66
558,64	0,65
559,088	0,65
559,536	0,64
559,985	0,64
560,433	0,64
560,881	0,63
561,329	0,63
561,777	0,63
562,225	0,62
562,674	0,62
563,122	0,62
563,57	0,62
564,018	0,61
564,466	0,61
564,914	0,61
565,362	0,6
565,809	0,6
566,257	0,6
566,705	0,59
567,153	0,59
567,601	0,59
568,048	0,59
568,496	0,58
568,944	0,58
569,392	0,58
569,839	0,57
570,287	0,57
570,734	0,57
571,182	0,57
571,63	0,56
572,077	0,56
572,525	0,56
572,972	0,55
573,419	0,55
573,867	0,55
574,314	0,55
574,761	0,54
575,209	0,54
575,656	0,54
576,103	0,54
576,551	0,53
576,998	0,53
577,445	0,53
577,892	0,53
578,339	0,53
578,786	0,52
579,233	0,52
579,68	0,52
580,127	0,52
580,574	0,52
581,021	0,51
581,468	0,51
581,915	0,51
582,362	0,51
582,809	0,5
583,255	0,5
583,702	0,5
584,149	0,5
584,596	0,5
585,042	0,5
585,489	0,49
585,936	0,49
586,382	0,49
586,829	0,49
587,275	0,49
587,722	0,49
588,168	0,48
588,615	0,48
589,061	0,48
589,508	0,48
589,954	0,48
590,4	0,48
590,847	0,48
591,293	0,47
591,739	0,47
592,185	0,47
592,632	0,47
593,078	0,47
593,524	0,47
593,97	0,47
594,416	0,47
594,862	0,47
595,308	0,47
595,754	0,46
596,2	0,46
596,646	0,46
597,092	0,46
597,538	0,46
597,984	0,46
598,43	0,46
598,876	0,46
599,321	0,46
599,767	0,45
600,213	0,45
600,659	0,45
601,104	0,45
601,55	0,45
601,995	0,45
602,441	0,45
602,887	0,45
603,332	0,45
603,778	0,44
604,223	0,44
604,668	0,44
605,114	0,44
605,559	0,44
606,005	0,44
606,45	0,44
606,895	0,44
607,341	0,44
607,786	0,44
608,231	0,44
608,676	0,43
609,121	0,43
609,566	0,42
610,012	0,42
610,457	0,42
610,902	0,41
611,347	0,41
611,792	0,41
612,237	0,41
612,682	0,41
613,127	0,41
613,571	0,41
614,016	0,41
614,461	0,41
614,906	0,41
615,351	0,42
615,795	0,42
616,24	0,42
616,685	0,42
617,129	0,42
617,574	0,42
618,019	0,42
618,463	0,42
618,908	0,42
619,352	0,42
619,797	0,42
620,241	0,42
620,686	0,41
621,13	0,41
621,574	0,41
622,019	0,41
622,463	0,41
622,907	0,41
623,352	0,41
623,796	0,41
624,24	0,41
624,684	0,41
625,128	0,41
625,572	0,41
626,016	0,41
626,461	0,41
626,905	0,41
627,349	0,41
627,793	0,41
628,236	0,41
628,68	0,41
629,124	0,41
629,568	0,4
630,012	0,4
630,456	0,4
630,9	0,4
631,343	0,4
631,787	0,4
632,231	0,4
632,674	0,4
633,118	0,4
633,562	0,4
634,005	0,4
634,449	0,4
634,892	0,4
635,336	0,4
635,779	0,4
636,223	0,4
636,666	0,4
637,109	0,4
637,553	0,4
637,996	0,4
638,439	0,4
638,883	0,4
639,326	0,4
639,769	0,4
640,212	0,4
640,655	0,4
641,099	0,39
641,542	0,39
641,985	0,39
642,428	0,39
642,871	0,39
643,314	0,39
643,757	0,39
644,2	0,39
644,643	0,39
645,085	0,39
645,528	0,39
645,971	0,39
646,414	0,39
646,857	0,39
647,299	0,39
647,742	0,39
648,185	0,39
648,627	0,39
649,07	0,39
649,513	0,39
649,955	0,39
650,398	0,39
650,84	0,39
651,283	0,39
651,725	0,39
652,168	0,39
652,61	0,39
653,052	0,39
653,495	0,39
653,937	0,31
654,379	0,25
654,821	0,25
655,264	0,26
655,706	0,26
656,148	0,26
656,59	0,26
657,032	0,26
657,474	0,26
657,916	0,26
658,358	0,25
658,8	0,31
659,242	0,38
659,684	0,39
660,126	0,39
660,568	0,39
661,01	0,38
661,452	0,38
661,894	0,38
662,335	0,38
662,777	0,38
663,219	0,38
663,661	0,38
664,102	0,38
664,544	0,38
664,985	0,38
665,427	0,38
665,869	0,38
666,31	0,38
666,752	0,38
667,193	0,38
667,634	0,38
668,076	0,38
668,517	0,38
668,959	0,38
669,4	0,38
669,841	0,38
670,282	0,38
670,724	0,38
671,165	0,38
671,606	0,38
672,047	0,38
672,488	0,38
672,929	0,38
673,37	0,38
673,811	0,38
674,252	0,38
674,693	0,38
675,134	0,38
675,575	0,37
676,016	0,37
676,457	0,37
676,898	0,37
677,339	0,37
677,78	0,37
678,22	0,37
678,661	0,37
679,102	0,37
679,542	0,37
679,983	0,37
680,424	0,37
680,864	0,37
681,305	0,37
681,745	0,37
682,186	0,37
682,626	0,37
683,067	0,37
683,507	0,37
683,948	0,37
684,388	0,37
684,828	0,37
685,269	0,37
685,709	0,37
686,149	0,37
686,589	0,37
687,029	0,37
687,47	0,37
687,91	0,37
688,35	0,36
688,79	0,36
689,23	0,36
689,67	0,36
690,11	0,37
690,55	0,37
690,99	0,37
691,43	0,36
691,87	0,36
692,31	0,36
692,749	0,36
693,189	0,36
693,629	0,36
694,069	0,36
694,508	0,36
694,948	0,36
695,388	0,36
695,827	0,36
696,267	0,36
696,706	0,36
697,146	0,36
697,586	0,36
698,025	0,36
698,464	0,37
698,904	0,37
699,343	0,37
699,783	0,37
700,222	0,37
700,661	0,37
701,101	0,37
701,54	0,37
701,979	0,37
702,418	0,37
702,857	0,37
703,297	0,37
703,736	0,37
704,175	0,37
704,614	0,37
705,053	0,37
705,492	0,36
705,931	0,36
706,37	0,36
706,809	0,36
707,248	0,36
707,687	0,36
708,125	0,36
708,564	0,36
709,003	0,36
709,442	0,36
709,88	0,36
710,319	0,36
710,758	0,36
711,196	0,36
711,635	0,36
712,074	0,36
712,512	0,35
712,951	0,35
713,389	0,35
713,828	0,35
714,266	0,35
714,705	0,35
715,143	0,35
715,581	0,35
716,02	0,35
716,458	0,35
716,896	0,35
717,334	0,35
717,773	0,35
718,211	0,35
718,649	0,35
719,087	0,35
719,525	0,35
719,963	0,35
720,401	0,35
720,839	0,35
721,277	0,35
721,715	0,35
722,153	0,35
722,591	0,35
723,029	0,35
723,467	0,35
723,905	0,35
724,342	0,35
724,78	0,35
725,218	0,35
725,656	0,35
726,093	0,35
726,531	0,35
726,969	0,35
727,406	0,35
727,844	0,35
728,281	0,35
728,719	0,35
729,156	0,35
729,594	0,35
730,031	0,35
730,469	0,35
730,906	0,35
731,343	0,35
731,781	0,35
732,218	0,35
732,655	0,35
733,092	0,35
733,53	0,35
733,967	0,35
734,404	0,34
734,841	0,34
735,278	0,34
735,715	0,34
736,152	0,34
736,589	0,34
737,026	0,34
737,463	0,34
737,9	0,34
738,337	0,34
738,774	0,34
739,211	0,34
739,647	0,34
740,084	0,34
740,521	0,34
740,958	0,34
741,394	0,34
741,831	0,34
742,268	0,34
742,704	0,34
743,141	0,33
743,577	0,33
744,014	0,33
744,45	0,33
744,887	0,33
745,323	0,33
745,76	0,33
746,196	0,33
746,632	0,33
747,069	0,33
747,505	0,33
747,941	0,33
748,378	0,33
748,814	0,33
749,25	0,33
749,686	0,33
750,122	0,33
750,558	0,33
750,994	0,34
751,43	0,34
751,866	0,34
752,302	0,34
752,738	0,34
753,174	0,34
753,61	0,34
754,046	0,34
754,482	0,34
754,918	0,34
755,354	0,34
755,789	0,34
756,225	0,34
756,661	0,34
757,096	0,34
757,532	0,33
757,968	0,33
758,403	0,33
758,839	0,33
759,274	0,33
759,71	0,32
760,145	0,32
760,581	0,31
761,016	0,31
761,452	0,31
761,887	0,31
762,322	0,3
762,758	0,3
763,193	0,3
763,628	0,29
764,063	0,28
764,499	0,28
764,934	0,27
765,369	0,27
765,804	0,26
766,239	0,26
766,674	0,25
767,109	0,25
767,544	0,24
767,979	0,23
768,414	0,23
768,849	0,22
769,284	0,21
769,719	0,2
770,154	0,2
770,588	0,19
771,023	0,18
771,458	0,17
771,893	0,15
772,327	0,14
772,762	0,13
773,197	0,13
773,631	0,12
774,066	0,11
774,5	0,1
774,935	0,09
775,369	0,08
775,804	0,07
776,238	0,07
776,673	0,06
777,107	0,05
777,541	0,05
777,976	0,04
778,41	0,03
778,844	0,02
779,279	0,02
779,713	0,01
780,147	-0,01
780,581	-0,01
781,015	-0,02
781,449	-0,03
781,883	-0,03
782,317	-0,04
782,751	-0,05
783,185	-0,06
783,619	-0,06
784,053	-0,07
784,487	-0,08
784,921	-0,08
785,355	-0,09
785,789	-0,1
786,223	-0,12
786,656	-0,12
787,09	-0,14
787,524	-0,14
787,957	-0,15
788,391	-0,18
788,825	-0,19
789,258	-0,2
789,692	-0,21
790,125	-0,23
790,559	-0,25
790,992	-0,26
791,426	-0,28
791,859	-0,3
792,293	-0,33
792,726	-0,34
793,159	-0,36
793,593	-0,38
794,026	-0,4
794,459	-0,43
794,892	-0,45
795,326	-0,48
795,759	-0,52
796,192	-0,56
796,625	-0,61
797,058	-0,63
797,491	-0,67
797,924	-0,71
798,357	-0,76
798,79	-0,81
799,223	-0,85
799,656	-0,91
800,089	-0,95
800,522	-0,99
800,955	-1,04
801,387	-1,09
801,82	-1,15
802,253	-1,21
802,686	-1,29
803,118	-1,34
803,551	-1,4
803,984	-1,44
804,416	-1,47
804,849	-1,51
805,281	-1,62
805,714	-1,94
806,146	-2,41
806,579	-2,69
807,011	-2,85
807,444	-2,95
807,876	-3,04
808,308	-3,08
808,741	-3,11
809,173	-3,16
809,605	-3,18
810,037	-3,26
810,47	-3,18
810,902	-2,99
811,334	-2,84
811,766	-2,69
812,198	-2,46
812,63	-2,03
813,062	-1,8
813,494	-1,7
813,926	-1,61
814,358	-1,56
814,79	-1,48
815,222	-1,42
815,654	-1,37
816,086	-1,31
816,518	-1,25
816,949	-1,2
817,381	-1,15
817,813	-1,13
818,245	-1,09
818,676	-1,05
819,108	-1,02
819,54	-1
819,971	-0,98
820,403	-0,93
820,834	-0,91
821,266	-0,87
821,697	-0,84
822,129	-0,83
822,56	-0,81
822,991	-0,78
823,423	-0,76
823,854	-0,74
824,286	-0,72
824,717	-0,71
825,148	-0,69
825,579	-0,68
826,01	-0,67
826,442	-0,66
826,873	-0,64
827,304	-0,61
827,735	-0,6
828,166	-0,6
828,597	-0,6
829,028	-0,6
829,459	-0,61
829,89	-0,61
830,321	-0,56
830,752	-0,58
831,183	-0,56
831,613	-0,56
832,044	-0,56
832,475	-0,54
832,906	-0,56
833,336	-0,57
833,767	-0,57
834,198	-0,54
834,628	-0,53
835,059	-0,56
835,49	-0,56
835,92	-0,54
836,351	-0,53
836,781	-0,54
837,212	-0,55
837,642	-0,55
838,072	-0,53
838,503	-0,54
838,933	-0,52
839,364	-0,53
839,794	-0,51
840,224	-0,5
840,654	-0,54
841,085	-0,55
841,515	-0,52
841,945	-0,53
842,375	-0,48
842,805	-0,47
843,235	-0,46
843,665	-0,48
844,095	-0,47
844,525	-0,49
844,955	-0,49
845,385	-0,47
845,815	-0,45
846,245	-0,47
846,675	-0,48
847,105	-0,49
847,534	-0,5
847,964	-0,48
848,394	-0,47
848,824	-0,5
849,253	-0,48
849,683	-0,49
850,112	-0,49
850,542	-0,54
850,972	-0,54
851,401	-0,51
851,831	-0,5
852,26	-0,5
852,69	-0,54
853,119	-0,53
853,548	-0,54
853,978	-0,54
854,407	-0,52
854,836	-0,53
855,266	-0,52
855,695	-0,53
856,124	-0,54
856,553	-0,55
856,983	-0,56
857,412	-0,56
857,841	-0,57
858,27	-0,58
858,699	-0,59
859,128	-0,61
859,557	-0,61
859,986	-0,62
860,415	-0,59
860,844	-0,58
861,273	-0,58
861,702	-0,59
862,13	-0,57
862,559	-0,59
862,988	-0,55
863,417	-0,55
863,845	-0,54
864,274	-0,54
864,703	-0,54
865,131	-0,55
865,56	-0,55
865,989	-0,57
866,417	-0,55
866,846	-0,55
867,274	-0,54
867,703	-0,56
868,131	-0,57
868,559	-0,57
868,988	-0,6
869,416	-0,59
869,844	-0,6
870,273	-0,63
870,701	-0,62
871,129	-0,65
871,557	-0,68
871,986	-0,67
872,414	-0,68
872,842	-0,65
873,27	-0,64
873,698	-0,6
874,126	-0,64
874,554	-0,62
874,982	-0,62
875,41	-0,65
875,838	-0,6
876,266	-0,57
876,694	-0,57
877,122	-0,56
877,549	-0,62
877,977	-0,59
878,405	-0,62
878,833	-0,59
879,26	-0,57
879,688	-0,57
880,116	-0,54
880,543	-0,53
880,971	-0,52
881,399	-0,55
881,826	-0,56
882,254	-0,54
882,681	-0,57
883,109	-0,53
883,536	-0,54
883,963	-0,56
884,391	-0,54
884,818	-0,54
885,245	-0,57
885,673	-0,59
886,1	-0,56
886,527	-0,56
886,954	-0,53
887,381	-0,55
887,809	-0,56
888,236	-0,57
888,663	-0,58
889,09	-0,62
889,517	-0,64
889,944	-0,63
890,371	-0,61
890,798	-0,62
891,225	-0,62
891,652	-0,66
892,078	-0,63
892,505	-0,66
892,932	-0,61
893,359	-0,62
893,786	-0,62
894,212	-0,58
894,639	-0,59
895,066	-0,62
895,492	-0,56
895,919	-0,56
896,346	-0,55
896,772	-0,55
897,199	-0,53
897,625	-0,56
898,052	-0,52
898,478	-0,52
898,904	-0,54
899,331	-0,54
899,757	-0,55
900,183	-0,57
900,61	-0,55
901,036	-0,56
901,462	-0,56
901,888	-0,54
902,315	-0,53
902,741	-0,58
903,167	-0,56
903,593	-0,59
904,019	-0,57
904,445	-0,55
904,871	-0,58
905,297	-0,6
905,723	-0,6
906,149	-0,59
906,575	-0,6
907,001	-0,6
907,427	-0,57
907,852	-0,56
908,278	-0,56
908,704	-0,53
909,13	-0,52
909,555	-0,51
909,981	-0,51
910,407	-0,51
910,832	-0,5
911,258	-0,5
911,684	-0,5
912,109	-0,51
912,535	-0,53
912,96	-0,48
913,386	-0,53
913,811	-0,53
914,236	-0,54
914,662	-0,52
915,087	-0,55
915,512	-0,55
915,938	-0,57
916,363	-0,57
916,788	-0,58
917,213	-0,55
917,639	-0,6
918,064	-0,58
918,489	-0,59
918,914	-0,59
919,339	-0,6
919,764	-0,58
920,189	-0,58
920,614	-0,6
921,039	-0,6
921,464	-0,56
921,889	-0,58
922,314	-0,59
922,738	-0,62
923,163	-0,63
923,588	-0,63
924,013	-0,62
924,437	-0,62
924,862	-0,63
925,287	-0,59
925,711	-0,6
926,136	-0,62
926,561	-0,61
926,985	-0,6
927,41	-0,57
927,834	-0,54
928,259	-0,51
928,683	-0,5
929,108	-0,48
929,532	-0,48
929,956	-0,48
930,381	-0,47
930,805	-0,46
931,229	-0,45
931,653	-0,43
932,078	-0,43
932,502	-0,45
932,926	-0,46
933,35	-0,46
933,774	-0,44
934,198	-0,42
934,622	-0,42
935,046	-0,43
935,47	-0,44
935,894	-0,43
936,318	-0,43
936,742	-0,43
937,166	-0,43
937,59	-0,42
938,014	-0,44
938,437	-0,46
938,861	-0,48
939,285	-0,49
939,709	-0,48
940,132	-0,48
940,556	-0,48
940,98	-0,48
941,403	-0,47
941,827	-0,47
942,25	-0,49
942,674	-0,48
943,097	-0,47
943,521	-0,47
943,944	-0,48
944,368	-0,48
944,791	-0,46
945,214	-0,49
945,638	-0,5
946,061	-0,54
946,484	-0,54
946,907	-0,52
947,331	-0,53
947,754	-0,57
948,177	-0,53
948,6	-0,53
949,023	-0,52
949,446	-0,53
949,869	-0,5
950,292	-0,5
950,715	-0,46
951,138	-0,45
951,561	-0,43
951,984	-0,42
952,407	-0,4
952,83	-0,39
953,252	-0,35
953,675	-0,36
954,098	-0,35
954,521	-0,34
954,943	-0,33
955,366	-0,34
955,789	-0,32
956,211	-0,35
956,634	-0,36
957,056	-0,33
957,479	-0,34
957,902	-0,36
958,324	-0,36
958,746	-0,36
959,169	-0,38
959,591	-0,38
960,014	-0,38
960,436	-0,38
960,858	-0,38
961,281	-0,38
961,703	-0,39
962,125	-0,39
962,547	-0,37
962,969	-0,38
963,391	-0,39
963,814	-0,39
964,236	-0,38
964,658	-0,37
965,08	-0,37
965,502	-0,36
965,924	-0,33
966,346	-0,33
966,768	-0,33
967,189	-0,35
967,611	-0,34
968,033	-0,33
968,455	-0,31
968,877	-0,32
969,298	-0,31
969,72	-0,33
970,142	-0,32
970,563	-0,33
970,985	-0,31
971,407	-0,3
971,828	-0,29
972,25	-0,28
972,671	-0,27
973,093	-0,27
973,514	-0,25
973,936	-0,24
974,357	-0,23
974,778	-0,23
975,2	-0,22
975,621	-0,21
976,042	-0,2
976,464	-0,19
976,885	-0,17
977,306	-0,16
977,727	-0,15
978,148	-0,14
978,57	-0,14
978,991	-0,13
979,412	-0,11
979,833	-0,11
980,254	-0,1
980,675	-0,11
981,096	-0,09
981,517	-0,08
981,937	-0,08
982,358	-0,07
982,779	-0,05
983,2	-0,06
983,621	-0,05
984,042	-0,04
984,462	-0,02
984,883	-0,01
985,304	0,01
985,724	0,01
986,145	0,02
986,565	0,04
986,986	0,04
987,407	0,05
987,827	0,07
988,248	0,08
988,668	0,08
989,088	0,09
989,509	0,1
989,929	0,11
990,35	0,12
990,77	0,13
991,19	0,14
991,61	0,15
992,031	0,16
992,451	0,17
992,871	0,18
993,291	0,19
993,711	0,19
994,131	0,2
994,551	0,21
994,971	0,22
995,391	0,22
995,811	0,23
996,231	0,23
996,651	0,23
997,071	0,24
997,491	0,24
997,911	0,25
998,331	0,26
998,75	0,26
999,17	0,27
999,59	0,27
1000,009	0,27
1000,429	0,27
1000,849	0,28
1001,268	0,28
1001,688	0,29
1002,107	0,29
1002,527	0,29
1002,946	0,3
1003,366	0,3
1003,785	0,3
1004,205	0,3
1004,624	0,31
1005,044	0,31
1005,463	0,31
1005,882	0,31
1006,301	0,31
1006,721	0,31
1007,14	0,31
1007,559	0,31
1007,978	0,31
1008,397	0,31
1008,816	0,31
1009,235	0,31
1009,655	0,31
1010,074	0,31
1010,492	0,31
1010,911	0,31
1011,33	0,31
1011,749	0,31
1012,168	0,31
1012,587	0,31
1013,006	0,31
1013,425	0,31
1013,843	0,3
1014,262	0,3
1014,681	0,3
1015,099	0,3
1015,518	0,3
1015,937	0,3
1016,355	0,3
1016,774	0,3
1017,192	0,3
1017,611	0,3
1018,029	0,3
1018,448	0,3
1018,866	0,3
1019,285	0,3
1019,703	0,3
1020,121	0,3
1020,54	0,3
1020,958	0,3
1021,376	0,3
1021,794	0,3
1022,213	0,3
1022,631	0,3
1023,049	0,3
1023,467	0,3
1023,885	0,3
1024,303	0,3
1024,721	0,3
1025,139	0,3
1025,557	0,3
1025,975	0,3
1026,393	0,3
1026,811	0,3
1027,229	0,3
1027,647	0,3
1028,065	0,3
1028,482	0,29
1028,9	0,3
1029,318	0,29
1029,735	0,29
1030,153	0,29
1030,571	0,29
1030,988	0,29
1031,406	0,29
1031,823	0,29
1032,241	0,29
1032,659	0,29
1033,076	0,29
1033,493	0,29
1033,911	0,29
1034,328	0,29
1034,746	0,29
1035,163	0,3
1035,58	0,29
1035,997	0,29
1036,415	0,3
1036,832	0,3
1037,249	0,3
1037,666	0,29
1038,083	0,29
1038,501	0,29
1038,918	0,29
1039,335	0,29
1039,752	0,29
1040,169	0,29
1040,586	0,29
1041,003	0,29
1041,419	0,29
1041,836	0,29
1042,253	0,29
1042,67	0,29
1043,087	0,29
1043,504	0,29
1043,92	0,29
1044,337	0,29
1044,754	0,29
1045,17	0,29
1045,587	0,29
1046,004	0,29
1046,42	0,29
1046,837	0,29
1047,253	0,29
1047,67	0,29
1048,086	0,29
1048,503	0,29
1048,919	0,29
1049,335	0,29
1049,752	0,29
1050,168	0,29
1050,584	0,29
1051,001	0,29
1051,417	0,29
1051,833	0,29
1052,249	0,29
1052,665	0,29
1053,081	0,29
1053,497	0,29
1053,914	0,29
1054,33	0,29
1054,746	0,29
1055,162	0,29
1055,578	0,3
1055,993	0,3
1056,409	0,3
1056,825	0,3
1057,241	0,3
1057,657	0,3
1058,073	0,3
1058,488	0,3
1058,904	0,3
1059,32	0,3
1059,736	0,3
1060,151	0,3
1060,567	0,3
1060,982	0,3
1061,398	0,3
1061,813	0,3
1062,229	0,3
1062,644	0,3
1063,06	0,3
1063,475	0,29
1063,891	0,29
1064,306	0,29
1064,721	0,29
1065,137	0,29
1065,552	0,29
1065,967	0,29
1066,382	0,29
1066,798	0,29
1067,213	0,29
1067,628	0,29
1068,043	0,29
1068,458	0,3
1068,873	0,3
1069,288	0,3
1069,703	0,3
1070,118	0,3
1070,533	0,3
1070,948	0,3
1071,363	0,3
1071,778	0,3
1072,193	0,3
1072,607	0,3
1073,022	0,3
1073,437	0,3
1073,852	0,3
1074,266	0,3
1074,681	0,3
1075,096	0,3
1075,51	0,3
1075,925	0,3
1076,339	0,3
1076,754	0,29
1077,168	0,29
1077,583	0,29
1077,997	0,29
1078,412	0,29
1078,826	0,29
1079,24	0,29
1079,655	0,29
1080,069	0,29
1080,483	0,29
1080,897	0,29
1081,312	0,29
1081,726	0,29
1082,14	0,29
1082,554	0,29
1082,968	0,29
1083,382	0,29
1083,796	0,28
1084,21	0,28
1084,624	0,28
1085,038	0,28
1085,452	0,28
1085,866	0,28
1086,28	0,28
1086,694	0,28
1087,108	0,28
1087,521	0,27
1087,935	0,27
1088,349	0,27
1088,763	0,27
1089,176	0,27
1089,59	0,26
1090,004	0,26
1090,417	0,26
1090,831	0,26
1091,244	0,26
1091,658	0,25
1092,071	0,25
1092,485	0,25
1092,898	0,25
1093,312	0,25
1093,725	0,25
1094,138	0,25
1094,552	0,24
1094,965	0,24
1095,378	0,24
1095,791	0,24
1096,205	0,24
1096,618	0,23
1097,031	0,23
1097,444	0,23
1097,857	0,22
1098,27	0,22
1098,683	0,22
1099,096	0,22
1099,509	0,22
1099,922	0,21
1100,335	0,21
1100,748	0,21
1101,161	0,2
1101,574	0,2
1101,986	0,2
1102,399	0,2
1102,812	0,19
1103,225	0,19
1103,637	0,19
1104,05	0,19
1104,463	0,19
1104,875	0,18
1105,288	0,18
1105,7	0,18
1106,113	0,17
1106,525	0,17
1106,938	0,17
1107,35	0,16
1107,763	0,16
1108,175	0,16
1108,588	0,15
1109	0,14
1109,412	0,14
1109,824	0,14
1110,237	0,14
1110,649	0,14
1111,061	0,12
