Data from 18C-808nm-8A-cont_Absorbance__549__01978.txt Node

Date: Mon Jul 17 17:39:28 CEST 2023
User: Laser008
Spectrometer: MAYP115816
Trigger mode: 0
Integration Time (sec): 2,500000E-1
Scans to average: 10
Electric dark correction enabled: true
Nonlinearity correction enabled: true
Boxcar width: 5
XAxis mode: Wavelengths
Number of Pixels in Spectrum: 2068
>>>>>Begin Spectral Data<<<<<
198,914	-0,77
199,384	-0,54
199,855	-0,41
200,325	-0,33
200,796	-0,29
201,266	-0,24
201,737	-0,22
202,207	-0,2
202,677	-0,19
203,147	-0,18
203,618	-0,14
204,088	-0,13
204,558	-0,11
205,028	-0,09
205,498	-0,1
205,968	-0,1
206,439	-0,11
206,909	-0,1
207,379	-0,11
207,849	-0,11
208,319	-0,12
208,789	-0,12
209,258	-0,12
209,728	-0,14
210,198	-0,14
210,668	-0,13
211,138	-0,13
211,608	-0,13
212,077	-0,13
212,547	-0,14
213,017	-0,14
213,486	-0,14
213,956	-0,15
214,426	-0,16
214,895	-0,16
215,365	-0,17
215,834	-0,17
216,304	-0,18
216,773	-0,19
217,243	-0,2
217,712	-0,2
218,181	-0,19
218,651	-0,19
219,12	-0,18
219,589	-0,18
220,058	-0,17
220,528	-0,18
220,997	-0,19
221,466	-0,2
221,935	-0,2
222,404	-0,2
222,873	-0,19
223,342	-0,19
223,812	-0,19
224,281	-0,2
224,749	-0,2
225,218	-0,21
225,687	-0,21
226,156	-0,19
226,625	-0,17
227,094	-0,17
227,563	-0,17
228,031	-0,19
228,5	-0,18
228,969	-0,2
229,438	-0,19
229,906	-0,18
230,375	-0,17
230,844	-0,17
231,312	-0,18
231,781	-0,19
232,249	-0,18
232,718	-0,18
233,186	-0,16
233,655	-0,17
234,123	-0,16
234,591	-0,15
235,06	-0,16
235,528	-0,16
235,996	-0,16
236,465	-0,15
236,933	-0,14
237,401	-0,14
237,869	-0,13
238,337	-0,13
238,805	-0,12
239,274	-0,12
239,742	-0,11
240,21	-0,11
240,678	-0,11
241,146	-0,11
241,614	-0,1
242,081	-0,1
242,549	-0,11
243,017	-0,12
243,485	-0,12
243,953	-0,13
244,421	-0,13
244,888	-0,13
245,356	-0,13
245,824	-0,12
246,291	-0,12
246,759	-0,13
247,227	-0,13
247,694	-0,12
248,162	-0,11
248,629	-0,1
249,097	-0,11
249,564	-0,11
250,032	-0,13
250,499	-0,12
250,967	-0,13
251,434	-0,14
251,901	-0,14
252,369	-0,14
252,836	-0,15
253,303	-0,16
253,77	-0,17
254,237	-0,17
254,705	-0,17
255,172	-0,16
255,639	-0,17
256,106	-0,18
256,573	-0,18
257,04	-0,18
257,507	-0,19
257,974	-0,19
258,441	-0,17
258,908	-0,18
259,375	-0,19
259,841	-0,19
260,308	-0,19
260,775	-0,19
261,242	-0,18
261,709	-0,19
262,175	-0,2
262,642	-0,19
263,109	-0,18
263,575	-0,19
264,042	-0,18
264,508	-0,17
264,975	-0,19
265,441	-0,21
265,908	-0,21
266,374	-0,2
266,841	-0,21
267,307	-0,21
267,773	-0,21
268,24	-0,22
268,706	-0,23
269,172	-0,23
269,639	-0,24
270,105	-0,22
270,571	-0,22
271,037	-0,22
271,503	-0,23
271,969	-0,22
272,435	-0,22
272,902	-0,23
273,368	-0,24
273,834	-0,23
274,3	-0,24
274,765	-0,24
275,231	-0,24
275,697	-0,24
276,163	-0,24
276,629	-0,24
277,095	-0,24
277,56	-0,24
278,026	-0,24
278,492	-0,22
278,958	-0,23
279,423	-0,23
279,889	-0,22
280,354	-0,22
280,82	-0,22
281,286	-0,24
281,751	-0,24
282,217	-0,24
282,682	-0,24
283,147	-0,23
283,613	-0,24
284,078	-0,24
284,544	-0,24
285,009	-0,25
285,474	-0,24
285,939	-0,25
286,405	-0,23
286,87	-0,23
287,335	-0,22
287,8	-0,21
288,265	-0,2
288,73	-0,22
289,195	-0,23
289,66	-0,24
290,125	-0,23
290,59	-0,23
291,055	-0,23
291,52	-0,23
291,985	-0,23
292,45	-0,25
292,915	-0,24
293,38	-0,25
293,844	-0,24
294,309	-0,22
294,774	-0,21
295,239	-0,22
295,703	-0,22
296,168	-0,21
296,632	-0,21
297,097	-0,2
297,562	-0,18
298,026	-0,19
298,491	-0,19
298,955	-0,18
299,419	-0,18
299,884	-0,18
300,348	-0,16
300,813	-0,15
301,277	-0,16
301,741	-0,16
302,205	-0,16
302,67	-0,16
303,134	-0,16
303,598	-0,15
304,062	-0,16
304,526	-0,15
304,99	-0,16
305,454	-0,16
305,919	-0,16
306,383	-0,16
306,847	-0,15
307,31	-0,16
307,774	-0,17
308,238	-0,16
308,702	-0,16
309,166	-0,17
309,63	-0,17
310,094	-0,14
310,557	-0,14
311,021	-0,14
311,485	-0,15
311,948	-0,14
312,412	-0,12
312,876	-0,12
313,339	-0,12
313,803	-0,13
314,266	-0,12
314,73	-0,13
315,193	-0,13
315,657	-0,12
316,12	-0,12
316,584	-0,11
317,047	-0,11
317,51	-0,1
317,973	-0,09
318,437	-0,08
318,9	-0,06
319,363	-0,05
319,826	-0,04
320,29	-0,04
320,753	-0,04
321,216	-0,04
321,679	-0,04
322,142	-0,04
322,605	-0,05
323,068	-0,05
323,531	-0,06
323,994	-0,05
324,457	-0,06
324,92	-0,05
325,382	-0,06
325,845	-0,06
326,308	-0,05
326,771	-0,05
327,233	-0,04
327,696	-0,03
328,159	-0,02
328,622	-0,02
329,084	-0,02
329,547	-0,01
330,009	0
330,472	0,02
330,934	0,02
331,397	0,03
331,859	0,04
332,322	0,04
332,784	0,04
333,246	0,05
333,709	0,05
334,171	0,06
334,633	0,07
335,096	0,06
335,558	0,06
336,02	0,06
336,482	0,05
336,944	0,06
337,406	0,07
337,868	0,07
338,331	0,07
338,793	0,08
339,255	0,08
339,717	0,08
340,178	0,1
340,64	0,11
341,102	0,12
341,564	0,13
342,026	0,14
342,488	0,15
342,949	0,17
343,411	0,2
343,873	0,22
344,335	0,25
344,796	0,3
345,258	0,34
345,719	0,38
346,181	0,43
346,643	0,47
347,104	0,51
347,566	0,54
348,027	0,57
348,488	0,59
348,95	0,62
349,411	0,64
349,873	0,67
350,334	0,69
350,795	0,71
351,256	0,72
351,718	0,73
352,179	0,74
352,64	0,74
353,101	0,75
353,562	0,75
354,023	0,76
354,484	0,76
354,945	0,76
355,406	0,77
355,867	0,77
356,328	0,77
356,789	0,78
357,25	0,78
357,711	0,78
358,172	0,79
358,633	0,79
359,093	0,79
359,554	0,79
360,015	0,79
360,476	0,79
360,936	0,79
361,397	0,79
361,858	0,79
362,318	0,79
362,779	0,79
363,239	0,79
363,7	0,79
364,16	0,79
364,621	0,79
365,081	0,79
365,541	0,79
366,002	0,79
366,462	0,79
366,922	0,79
367,383	0,79
367,843	0,79
368,303	0,79
368,763	0,79
369,223	0,79
369,684	0,79
370,144	0,79
370,604	0,79
371,064	0,79
371,524	0,79
371,984	0,79
372,444	0,79
372,904	0,79
373,363	0,79
373,823	0,79
374,283	0,79
374,743	0,79
375,203	0,79
375,663	0,79
376,122	0,79
376,582	0,79
377,042	0,79
377,501	0,79
377,961	0,79
378,42	0,79
378,88	0,79
379,34	0,79
379,799	0,79
380,259	0,79
380,718	0,79
381,177	0,79
381,637	0,79
382,096	0,78
382,555	0,78
383,015	0,78
383,474	0,78
383,933	0,78
384,393	0,78
384,852	0,78
385,311	0,78
385,77	0,78
386,229	0,78
386,688	0,78
387,147	0,78
387,606	0,78
388,065	0,78
388,524	0,78
388,983	0,78
389,442	0,78
389,901	0,78
390,36	0,78
390,819	0,78
391,277	0,78
391,736	0,77
392,195	0,77
392,654	0,77
393,112	0,77
393,571	0,77
394,03	0,77
394,488	0,77
394,947	0,77
395,405	0,77
395,864	0,77
396,322	0,77
396,781	0,77
397,239	0,77
397,698	0,77
398,156	0,77
398,614	0,77
399,073	0,77
399,531	0,77
399,989	0,77
400,447	0,77
400,905	0,77
401,364	0,77
401,822	0,77
402,28	0,77
402,738	0,77
403,196	0,76
403,654	0,76
404,112	0,76
404,57	0,76
405,028	0,76
405,486	0,76
405,944	0,76
406,402	0,76
406,859	0,76
407,317	0,76
407,775	0,76
408,233	0,76
408,691	0,76
409,148	0,76
409,606	0,76
410,064	0,76
410,521	0,76
410,979	0,76
411,436	0,76
411,894	0,76
412,351	0,76
412,809	0,76
413,266	0,76
413,724	0,76
414,181	0,76
414,638	0,76
415,096	0,76
415,553	0,76
416,01	0,76
416,467	0,76
416,925	0,76
417,382	0,76
417,839	0,76
418,296	0,76
418,753	0,76
419,21	0,76
419,667	0,76
420,124	0,76
420,581	0,76
421,038	0,75
421,495	0,76
421,952	0,75
422,409	0,75
422,866	0,75
423,322	0,75
423,779	0,76
424,236	0,76
424,693	0,76
425,149	0,76
425,606	0,76
426,063	0,76
426,519	0,75
426,976	0,75
427,433	0,75
427,889	0,75
428,346	0,75
428,802	0,75
429,258	0,75
429,715	0,75
430,171	0,75
430,628	0,75
431,084	0,75
431,54	0,75
431,997	0,75
432,453	0,75
432,909	0,75
433,365	0,75
433,821	0,75
434,277	0,75
434,734	0,75
435,19	0,75
435,646	0,75
436,102	0,75
436,558	0,75
437,014	0,75
437,47	0,75
437,925	0,75
438,381	0,75
438,837	0,75
439,293	0,75
439,749	0,75
440,205	0,75
440,66	0,75
441,116	0,75
441,572	0,75
442,027	0,75
442,483	0,75
442,939	0,75
443,394	0,75
443,85	0,75
444,305	0,75
444,761	0,75
445,216	0,75
445,672	0,75
446,127	0,75
446,582	0,75
447,038	0,75
447,493	0,75
447,948	0,75
448,403	0,76
448,859	0,76
449,314	0,76
449,769	0,76
450,224	0,76
450,679	0,76
451,134	0,76
451,589	0,76
452,044	0,76
452,499	0,76
452,954	0,76
453,409	0,76
453,864	0,76
454,319	0,76
454,774	0,76
455,229	0,76
455,684	0,76
456,138	0,76
456,593	0,76
457,048	0,76
457,503	0,76
457,957	0,76
458,412	0,76
458,866	0,76
459,321	0,76
459,776	0,76
460,23	0,76
460,685	0,77
461,139	0,77
461,593	0,77
462,048	0,77
462,502	0,77
462,957	0,77
463,411	0,77
463,865	0,77
464,319	0,77
464,774	0,77
465,228	0,77
465,682	0,77
466,136	0,78
466,59	0,78
467,044	0,78
467,499	0,78
467,953	0,78
468,407	0,78
468,861	0,78
469,315	0,78
469,768	0,78
470,222	0,78
470,676	0,78
471,13	0,79
471,584	0,79
472,038	0,79
472,491	0,79
472,945	0,79
473,399	0,79
473,852	0,79
474,306	0,79
474,76	0,79
475,213	0,8
475,667	0,8
476,12	0,8
476,574	0,8
477,027	0,8
477,481	0,8
477,934	0,8
478,388	0,81
478,841	0,81
479,294	0,81
479,748	0,81
480,201	0,82
480,654	0,82
481,107	0,82
481,561	0,82
482,014	0,82
482,467	0,83
482,92	0,83
483,373	0,83
483,826	0,83
484,279	0,83
484,732	0,84
485,185	0,84
485,638	0,84
486,091	0,84
486,544	0,84
486,997	0,85
487,449	0,85
487,902	0,85
488,355	0,85
488,808	0,86
489,26	0,86
489,713	0,86
490,166	0,87
490,618	0,87
491,071	0,87
491,523	0,88
491,976	0,88
492,429	0,88
492,881	0,88
493,333	0,89
493,786	0,89
494,238	0,9
494,691	0,9
495,143	0,9
495,595	0,91
496,048	0,91
496,5	0,91
496,952	0,92
497,404	0,92
497,856	0,93
498,309	0,93
498,761	0,94
499,213	0,94
499,665	0,95
500,117	0,95
500,569	0,95
501,021	0,96
501,473	0,96
501,925	0,97
502,377	0,97
502,828	0,98
503,28	0,98
503,732	0,98
504,184	0,99
504,636	0,99
505,087	1
505,539	1
505,991	1
506,442	1,01
506,894	1,01
507,345	1,02
507,797	1,02
508,249	1,03
508,7	1,03
509,151	1,04
509,603	1,04
510,054	1,04
510,506	1,05
510,957	1,05
511,408	1,06
511,86	1,06
512,311	1,07
512,762	1,07
513,213	1,07
513,665	1,08
514,116	1,08
514,567	1,08
515,018	1,09
515,469	1,09
515,92	1,1
516,371	1,1
516,822	1,1
517,273	1,11
517,724	1,11
518,175	1,11
518,626	1,11
519,076	1,12
519,527	1,12
519,978	1,12
520,429	1,12
520,88	1,13
521,33	1,13
521,781	1,13
522,232	1,13
522,682	1,13
523,133	1,14
523,583	1,14
524,034	1,14
524,484	1,14
524,935	1,14
525,385	1,14
525,836	1,14
526,286	1,14
526,736	1,14
527,187	1,14
527,637	1,14
528,087	1,14
528,538	1,14
528,988	1,14
529,438	1,14
529,888	1,14
530,338	1,13
530,788	1,13
531,238	1,13
531,688	1,13
532,139	1,13
532,589	1,13
533,038	1,13
533,488	1,12
533,938	1,12
534,388	1,12
534,838	1,12
535,288	1,11
535,738	1,11
536,187	1,1
536,637	1,1
537,087	1,1
537,537	1,09
537,986	1,09
538,436	1,08
538,885	1,08
539,335	1,07
539,785	1,07
540,234	1,06
540,684	1,06
541,133	1,05
541,582	1,05
542,032	1,04
542,481	1,03
542,931	1,03
543,38	1,02
543,829	1,02
544,278	1,01
544,728	1,01
545,177	1
545,626	1
546,075	0,99
546,524	0,99
546,973	0,98
547,422	0,98
547,871	0,97
548,32	0,97
548,769	0,96
549,218	0,96
549,667	0,96
550,116	0,95
550,565	0,95
551,014	0,94
551,463	0,93
551,911	0,93
552,36	0,92
552,809	0,92
553,258	0,91
553,706	0,91
554,155	0,9
554,603	0,9
555,052	0,89
555,501	0,89
555,949	0,88
556,398	0,88
556,846	0,87
557,294	0,86
557,743	0,86
558,191	0,85
558,64	0,85
559,088	0,84
559,536	0,83
559,985	0,83
560,433	0,82
560,881	0,82
561,329	0,81
561,777	0,81
562,225	0,8
562,674	0,8
563,122	0,8
563,57	0,79
564,018	0,79
564,466	0,78
564,914	0,78
565,362	0,77
565,809	0,77
566,257	0,76
566,705	0,76
567,153	0,75
567,601	0,75
568,048	0,74
568,496	0,74
568,944	0,73
569,392	0,73
569,839	0,72
570,287	0,72
570,734	0,72
571,182	0,71
571,63	0,71
572,077	0,7
572,525	0,7
572,972	0,7
573,419	0,69
573,867	0,69
574,314	0,68
574,761	0,68
575,209	0,68
575,656	0,67
576,103	0,67
576,551	0,66
576,998	0,66
577,445	0,66
577,892	0,65
578,339	0,65
578,786	0,65
579,233	0,64
579,68	0,64
580,127	0,64
580,574	0,63
581,021	0,63
581,468	0,63
581,915	0,62
582,362	0,62
582,809	0,62
583,255	0,62
583,702	0,61
584,149	0,61
584,596	0,61
585,042	0,6
585,489	0,6
585,936	0,6
586,382	0,6
586,829	0,59
587,275	0,59
587,722	0,59
588,168	0,59
588,615	0,58
589,061	0,58
589,508	0,58
589,954	0,58
590,4	0,57
590,847	0,57
591,293	0,57
591,739	0,57
592,185	0,56
592,632	0,56
593,078	0,56
593,524	0,56
593,97	0,56
594,416	0,56
594,862	0,56
595,308	0,55
595,754	0,55
596,2	0,55
596,646	0,55
597,092	0,54
597,538	0,54
597,984	0,54
598,43	0,54
598,876	0,54
599,321	0,54
599,767	0,53
600,213	0,53
600,659	0,53
601,104	0,53
601,55	0,53
601,995	0,53
602,441	0,52
602,887	0,52
603,332	0,52
603,778	0,52
604,223	0,52
604,668	0,52
605,114	0,52
605,559	0,51
606,005	0,51
606,45	0,51
606,895	0,51
607,341	0,51
607,786	0,51
608,231	0,51
608,676	0,5
609,121	0,5
609,566	0,49
610,012	0,49
610,457	0,48
610,902	0,48
611,347	0,48
611,792	0,47
612,237	0,47
612,682	0,47
613,127	0,47
613,571	0,47
614,016	0,47
614,461	0,48
614,906	0,48
615,351	0,48
615,795	0,48
616,24	0,48
616,685	0,48
617,129	0,48
617,574	0,48
618,019	0,48
618,463	0,48
618,908	0,48
619,352	0,48
619,797	0,47
620,241	0,47
620,686	0,47
621,13	0,47
621,574	0,47
622,019	0,47
622,463	0,47
622,907	0,47
623,352	0,47
623,796	0,46
624,24	0,46
624,684	0,46
625,128	0,46
625,572	0,46
626,016	0,46
626,461	0,46
626,905	0,46
627,349	0,46
627,793	0,46
628,236	0,46
628,68	0,46
629,124	0,46
629,568	0,46
630,012	0,46
630,456	0,46
630,9	0,46
631,343	0,46
631,787	0,46
632,231	0,46
632,674	0,45
633,118	0,45
633,562	0,45
634,005	0,45
634,449	0,45
634,892	0,45
635,336	0,45
635,779	0,45
636,223	0,45
636,666	0,45
637,109	0,45
637,553	0,45
637,996	0,45
638,439	0,45
638,883	0,45
639,326	0,45
639,769	0,45
640,212	0,44
640,655	0,44
641,099	0,44
641,542	0,44
641,985	0,44
642,428	0,44
642,871	0,44
643,314	0,44
643,757	0,44
644,2	0,44
644,643	0,44
645,085	0,44
645,528	0,44
645,971	0,44
646,414	0,44
646,857	0,43
647,299	0,43
647,742	0,43
648,185	0,43
648,627	0,43
649,07	0,43
649,513	0,43
649,955	0,43
650,398	0,43
650,84	0,43
651,283	0,43
651,725	0,43
652,168	0,43
652,61	0,43
653,052	0,43
653,495	0,43
653,937	0,34
654,379	0,29
654,821	0,29
655,264	0,3
655,706	0,29
656,148	0,29
656,59	0,29
657,032	0,3
657,474	0,3
657,916	0,29
658,358	0,29
658,8	0,35
659,242	0,43
659,684	0,43
660,126	0,43
660,568	0,43
661,01	0,42
661,452	0,42
661,894	0,42
662,335	0,42
662,777	0,42
663,219	0,42
663,661	0,42
664,102	0,42
664,544	0,42
664,985	0,42
665,427	0,42
665,869	0,42
666,31	0,42
666,752	0,42
667,193	0,42
667,634	0,42
668,076	0,42
668,517	0,42
668,959	0,42
669,4	0,42
669,841	0,42
670,282	0,42
670,724	0,42
671,165	0,42
671,606	0,42
672,047	0,42
672,488	0,42
672,929	0,42
673,37	0,42
673,811	0,42
674,252	0,42
674,693	0,42
675,134	0,42
675,575	0,41
676,016	0,41
676,457	0,41
676,898	0,41
677,339	0,41
677,78	0,41
678,22	0,41
678,661	0,41
679,102	0,41
679,542	0,41
679,983	0,41
680,424	0,41
680,864	0,41
681,305	0,42
681,745	0,42
682,186	0,42
682,626	0,42
683,067	0,42
683,507	0,42
683,948	0,42
684,388	0,42
684,828	0,41
685,269	0,41
685,709	0,41
686,149	0,41
686,589	0,41
687,029	0,41
687,47	0,41
687,91	0,41
688,35	0,41
688,79	0,4
689,23	0,4
689,67	0,4
690,11	0,4
690,55	0,4
690,99	0,4
691,43	0,4
691,87	0,4
692,31	0,4
692,749	0,4
693,189	0,4
693,629	0,4
694,069	0,4
694,508	0,4
694,948	0,4
695,388	0,4
695,827	0,4
696,267	0,4
696,706	0,4
697,146	0,4
697,586	0,4
698,025	0,4
698,464	0,4
698,904	0,4
699,343	0,4
699,783	0,4
700,222	0,4
700,661	0,4
701,101	0,4
701,54	0,4
701,979	0,4
702,418	0,4
702,857	0,4
703,297	0,4
703,736	0,4
704,175	0,4
704,614	0,4
705,053	0,4
705,492	0,4
705,931	0,4
706,37	0,4
706,809	0,4
707,248	0,4
707,687	0,4
708,125	0,4
708,564	0,4
709,003	0,4
709,442	0,4
709,88	0,4
710,319	0,4
710,758	0,4
711,196	0,4
711,635	0,4
712,074	0,4
712,512	0,39
712,951	0,39
713,389	0,39
713,828	0,39
714,266	0,39
714,705	0,39
715,143	0,39
715,581	0,39
716,02	0,39
716,458	0,39
716,896	0,39
717,334	0,39
717,773	0,39
718,211	0,39
718,649	0,39
719,087	0,39
719,525	0,39
719,963	0,39
720,401	0,39
720,839	0,39
721,277	0,39
721,715	0,39
722,153	0,39
722,591	0,39
723,029	0,39
723,467	0,39
723,905	0,39
724,342	0,39
724,78	0,39
725,218	0,39
725,656	0,39
726,093	0,39
726,531	0,39
726,969	0,39
727,406	0,39
727,844	0,39
728,281	0,39
728,719	0,39
729,156	0,39
729,594	0,39
730,031	0,39
730,469	0,39
730,906	0,39
731,343	0,39
731,781	0,39
732,218	0,38
732,655	0,38
733,092	0,38
733,53	0,38
733,967	0,38
734,404	0,38
734,841	0,38
735,278	0,38
735,715	0,38
736,152	0,38
736,589	0,38
737,026	0,38
737,463	0,38
737,9	0,38
738,337	0,38
738,774	0,38
739,211	0,38
739,647	0,38
740,084	0,38
740,521	0,38
740,958	0,38
741,394	0,38
741,831	0,38
742,268	0,38
742,704	0,38
743,141	0,38
743,577	0,38
744,014	0,38
744,45	0,38
744,887	0,38
745,323	0,38
745,76	0,38
746,196	0,38
746,632	0,38
747,069	0,38
747,505	0,38
747,941	0,38
748,378	0,38
748,814	0,38
749,25	0,38
749,686	0,38
750,122	0,38
750,558	0,38
750,994	0,38
751,43	0,38
751,866	0,38
752,302	0,38
752,738	0,38
753,174	0,38
753,61	0,38
754,046	0,38
754,482	0,38
754,918	0,38
755,354	0,38
755,789	0,38
756,225	0,38
756,661	0,38
757,096	0,38
757,532	0,38
757,968	0,38
758,403	0,37
758,839	0,37
759,274	0,37
759,71	0,37
760,145	0,36
760,581	0,36
761,016	0,35
761,452	0,35
761,887	0,35
762,322	0,34
762,758	0,34
763,193	0,33
763,628	0,33
764,063	0,32
764,499	0,32
764,934	0,31
765,369	0,31
765,804	0,3
766,239	0,29
766,674	0,28
767,109	0,28
767,544	0,27
767,979	0,26
768,414	0,25
768,849	0,24
769,284	0,24
769,719	0,23
770,154	0,22
770,588	0,21
771,023	0,2
771,458	0,19
771,893	0,18
772,327	0,17
772,762	0,15
773,197	0,15
773,631	0,14
774,066	0,13
774,5	0,12
774,935	0,1
775,369	0,09
775,804	0,09
776,238	0,08
776,673	0,07
777,107	0,06
777,541	0,05
777,976	0,05
778,41	0,04
778,844	0,03
779,279	0,03
779,713	0,02
780,147	0,01
780,581	0
781,015	-0,02
781,449	-0,02
781,883	-0,03
782,317	-0,05
782,751	-0,06
783,185	-0,07
783,619	-0,07
784,053	-0,08
784,487	-0,09
784,921	-0,1
785,355	-0,11
785,789	-0,11
786,223	-0,12
786,656	-0,13
787,09	-0,13
787,524	-0,14
787,957	-0,15
788,391	-0,17
788,825	-0,18
789,258	-0,2
789,692	-0,21
790,125	-0,22
790,559	-0,23
790,992	-0,26
791,426	-0,28
791,859	-0,29
792,293	-0,32
792,726	-0,34
793,159	-0,35
793,593	-0,37
794,026	-0,39
794,459	-0,42
794,892	-0,45
795,326	-0,47
795,759	-0,51
796,192	-0,55
796,625	-0,59
797,058	-0,62
797,491	-0,66
797,924	-0,7
798,357	-0,74
798,79	-0,78
799,223	-0,82
799,656	-0,87
800,089	-0,92
800,522	-0,96
800,955	-1
801,387	-1,06
801,82	-1,11
802,253	-1,17
802,686	-1,25
803,118	-1,31
803,551	-1,36
803,984	-1,4
804,416	-1,43
804,849	-1,46
805,281	-1,58
805,714	-1,95
806,146	-2,43
806,579	-2,69
807,011	-2,86
807,444	-2,96
807,876	-3,04
808,308	-3,07
808,741	-3,1
809,173	-3,15
809,605	-3,17
810,037	-3,25
810,47	-3,17
810,902	-2,97
811,334	-2,82
811,766	-2,66
812,198	-2,4
812,63	-1,97
813,062	-1,75
813,494	-1,65
813,926	-1,57
814,358	-1,51
814,79	-1,43
815,222	-1,38
815,654	-1,33
816,086	-1,27
816,518	-1,21
816,949	-1,16
817,381	-1,12
817,813	-1,1
818,245	-1,06
818,676	-1,02
819,108	-0,99
819,54	-0,98
819,971	-0,95
820,403	-0,91
820,834	-0,89
821,266	-0,85
821,697	-0,83
822,129	-0,82
822,56	-0,8
822,991	-0,78
823,423	-0,75
823,854	-0,74
824,286	-0,72
824,717	-0,71
825,148	-0,69
825,579	-0,69
826,01	-0,67
826,442	-0,66
826,873	-0,64
827,304	-0,61
827,735	-0,6
828,166	-0,61
828,597	-0,61
829,028	-0,6
829,459	-0,61
829,89	-0,61
830,321	-0,57
830,752	-0,58
831,183	-0,57
831,613	-0,56
832,044	-0,55
832,475	-0,54
832,906	-0,55
833,336	-0,56
833,767	-0,56
834,198	-0,55
834,628	-0,54
835,059	-0,56
835,49	-0,57
835,92	-0,55
836,351	-0,55
836,781	-0,55
837,212	-0,57
837,642	-0,57
838,072	-0,55
838,503	-0,55
838,933	-0,53
839,364	-0,54
839,794	-0,53
840,224	-0,52
840,654	-0,57
841,085	-0,57
841,515	-0,54
841,945	-0,54
842,375	-0,5
842,805	-0,49
843,235	-0,48
843,665	-0,5
844,095	-0,48
844,525	-0,51
844,955	-0,51
845,385	-0,48
845,815	-0,47
846,245	-0,49
846,675	-0,5
847,105	-0,52
847,534	-0,53
847,964	-0,51
848,394	-0,49
848,824	-0,53
849,253	-0,52
849,683	-0,53
850,112	-0,53
850,542	-0,56
850,972	-0,56
851,401	-0,53
851,831	-0,52
852,26	-0,52
852,69	-0,56
853,119	-0,56
853,548	-0,56
853,978	-0,56
854,407	-0,54
854,836	-0,55
855,266	-0,54
855,695	-0,56
856,124	-0,57
856,553	-0,58
856,983	-0,59
857,412	-0,58
857,841	-0,59
858,27	-0,59
858,699	-0,6
859,128	-0,63
859,557	-0,63
859,986	-0,64
860,415	-0,62
860,844	-0,61
861,273	-0,62
861,702	-0,62
862,13	-0,6
862,559	-0,61
862,988	-0,59
863,417	-0,58
863,845	-0,57
864,274	-0,58
864,703	-0,58
865,131	-0,58
865,56	-0,59
865,989	-0,61
866,417	-0,58
866,846	-0,58
867,274	-0,59
867,703	-0,6
868,131	-0,61
868,559	-0,61
868,988	-0,64
869,416	-0,62
869,844	-0,63
870,273	-0,65
870,701	-0,63
871,129	-0,66
871,557	-0,68
871,986	-0,68
872,414	-0,69
872,842	-0,66
873,27	-0,65
873,698	-0,61
874,126	-0,66
874,554	-0,65
874,982	-0,65
875,41	-0,68
875,838	-0,64
876,266	-0,62
876,694	-0,62
877,122	-0,61
877,549	-0,67
877,977	-0,63
878,405	-0,67
878,833	-0,63
879,26	-0,62
879,688	-0,61
880,116	-0,58
880,543	-0,56
880,971	-0,55
881,399	-0,57
881,826	-0,58
882,254	-0,56
882,681	-0,58
883,109	-0,53
883,536	-0,55
883,963	-0,56
884,391	-0,55
884,818	-0,54
885,245	-0,58
885,673	-0,6
886,1	-0,58
886,527	-0,58
886,954	-0,55
887,381	-0,58
887,809	-0,6
888,236	-0,6
888,663	-0,61
889,09	-0,65
889,517	-0,67
889,944	-0,66
890,371	-0,64
890,798	-0,65
891,225	-0,65
891,652	-0,68
892,078	-0,65
892,505	-0,68
892,932	-0,64
893,359	-0,65
893,786	-0,64
894,212	-0,61
894,639	-0,63
895,066	-0,66
895,492	-0,6
895,919	-0,61
896,346	-0,6
896,772	-0,6
897,199	-0,57
897,625	-0,6
898,052	-0,57
898,478	-0,55
898,904	-0,56
899,331	-0,56
899,757	-0,57
900,183	-0,59
900,61	-0,57
901,036	-0,58
901,462	-0,58
901,888	-0,57
902,315	-0,55
902,741	-0,6
903,167	-0,58
903,593	-0,6
904,019	-0,59
904,445	-0,56
904,871	-0,59
905,297	-0,61
905,723	-0,6
906,149	-0,59
906,575	-0,6
907,001	-0,6
907,427	-0,58
907,852	-0,57
908,278	-0,58
908,704	-0,55
909,13	-0,56
909,555	-0,55
909,981	-0,54
910,407	-0,55
910,832	-0,55
911,258	-0,54
911,684	-0,54
912,109	-0,53
912,535	-0,56
912,96	-0,51
913,386	-0,55
913,811	-0,55
914,236	-0,56
914,662	-0,54
915,087	-0,58
915,512	-0,58
915,938	-0,62
916,363	-0,61
916,788	-0,62
917,213	-0,61
917,639	-0,65
918,064	-0,63
918,489	-0,62
918,914	-0,62
919,339	-0,64
919,764	-0,62
920,189	-0,61
920,614	-0,62
921,039	-0,62
921,464	-0,59
921,889	-0,61
922,314	-0,62
922,738	-0,65
923,163	-0,67
923,588	-0,67
924,013	-0,67
924,437	-0,67
924,862	-0,68
925,287	-0,64
925,711	-0,66
926,136	-0,68
926,561	-0,66
926,985	-0,64
927,41	-0,62
927,834	-0,59
928,259	-0,56
928,683	-0,54
929,108	-0,5
929,532	-0,52
929,956	-0,51
930,381	-0,49
930,805	-0,49
931,229	-0,49
931,653	-0,47
932,078	-0,47
932,502	-0,47
932,926	-0,48
933,35	-0,48
933,774	-0,47
934,198	-0,45
934,622	-0,44
935,046	-0,45
935,47	-0,46
935,894	-0,46
936,318	-0,46
936,742	-0,45
937,166	-0,46
937,59	-0,46
938,014	-0,49
938,437	-0,5
938,861	-0,52
939,285	-0,53
939,709	-0,51
940,132	-0,52
940,556	-0,52
940,98	-0,52
941,403	-0,51
941,827	-0,51
942,25	-0,52
942,674	-0,5
943,097	-0,5
943,521	-0,5
943,944	-0,51
944,368	-0,49
944,791	-0,48
945,214	-0,5
945,638	-0,5
946,061	-0,54
946,484	-0,54
946,907	-0,52
947,331	-0,53
947,754	-0,57
948,177	-0,53
948,6	-0,53
949,023	-0,54
949,446	-0,54
949,869	-0,52
950,292	-0,52
950,715	-0,48
951,138	-0,47
951,561	-0,46
951,984	-0,45
952,407	-0,43
952,83	-0,42
953,252	-0,38
953,675	-0,38
954,098	-0,39
954,521	-0,37
954,943	-0,37
955,366	-0,38
955,789	-0,36
956,211	-0,38
956,634	-0,39
957,056	-0,37
957,479	-0,39
957,902	-0,41
958,324	-0,41
958,746	-0,39
959,169	-0,4
959,591	-0,41
960,014	-0,41
960,436	-0,41
960,858	-0,41
961,281	-0,4
961,703	-0,41
962,125	-0,4
962,547	-0,39
962,969	-0,4
963,391	-0,4
963,814	-0,4
964,236	-0,39
964,658	-0,37
965,08	-0,38
965,502	-0,37
965,924	-0,34
966,346	-0,34
966,768	-0,33
967,189	-0,35
967,611	-0,33
968,033	-0,33
968,455	-0,32
968,877	-0,33
969,298	-0,33
969,72	-0,34
970,142	-0,34
970,563	-0,35
970,985	-0,34
971,407	-0,34
971,828	-0,32
972,25	-0,32
972,671	-0,3
973,093	-0,3
973,514	-0,29
973,936	-0,26
974,357	-0,25
974,778	-0,25
975,2	-0,24
975,621	-0,24
976,042	-0,21
976,464	-0,2
976,885	-0,19
977,306	-0,19
977,727	-0,18
978,148	-0,17
978,57	-0,17
978,991	-0,16
979,412	-0,14
979,833	-0,13
980,254	-0,12
980,675	-0,12
981,096	-0,11
981,517	-0,1
981,937	-0,09
982,358	-0,07
982,779	-0,05
983,2	-0,05
983,621	-0,05
984,042	-0,03
984,462	-0,02
984,883	-0
985,304	0,02
985,724	0,02
986,145	0,04
986,565	0,06
986,986	0,06
987,407	0,07
987,827	0,08
988,248	0,1
988,668	0,11
989,088	0,12
989,509	0,13
989,929	0,14
990,35	0,15
990,77	0,16
991,19	0,16
991,61	0,17
992,031	0,18
992,451	0,2
992,871	0,21
993,291	0,22
993,711	0,23
994,131	0,23
994,551	0,24
994,971	0,25
995,391	0,26
995,811	0,27
996,231	0,27
996,651	0,27
997,071	0,28
997,491	0,29
997,911	0,29
998,331	0,3
998,75	0,3
999,17	0,31
999,59	0,32
1000,009	0,32
1000,429	0,33
1000,849	0,33
1001,268	0,34
1001,688	0,34
1002,107	0,35
1002,527	0,35
1002,946	0,35
1003,366	0,36
1003,785	0,36
1004,205	0,37
1004,624	0,37
1005,044	0,37
1005,463	0,37
1005,882	0,37
1006,301	0,37
1006,721	0,38
1007,14	0,38
1007,559	0,38
1007,978	0,38
1008,397	0,38
1008,816	0,38
1009,235	0,38
1009,655	0,38
1010,074	0,38
1010,492	0,38
1010,911	0,38
1011,33	0,38
1011,749	0,37
1012,168	0,37
1012,587	0,37
1013,006	0,37
1013,425	0,37
1013,843	0,37
1014,262	0,37
1014,681	0,37
1015,099	0,37
1015,518	0,37
1015,937	0,37
1016,355	0,37
1016,774	0,37
1017,192	0,37
1017,611	0,37
1018,029	0,37
1018,448	0,37
1018,866	0,37
1019,285	0,37
1019,703	0,37
1020,121	0,37
1020,54	0,37
1020,958	0,37
1021,376	0,37
1021,794	0,37
1022,213	0,37
1022,631	0,37
1023,049	0,37
1023,467	0,37
1023,885	0,37
1024,303	0,37
1024,721	0,37
1025,139	0,37
1025,557	0,37
1025,975	0,37
1026,393	0,36
1026,811	0,36
1027,229	0,36
1027,647	0,36
1028,065	0,36
1028,482	0,36
1028,9	0,36
1029,318	0,36
1029,735	0,36
1030,153	0,36
1030,571	0,36
1030,988	0,36
1031,406	0,36
1031,823	0,36
1032,241	0,36
1032,659	0,36
1033,076	0,36
1033,493	0,36
1033,911	0,36
1034,328	0,36
1034,746	0,36
1035,163	0,36
1035,58	0,36
1035,997	0,36
1036,415	0,36
1036,832	0,36
1037,249	0,36
1037,666	0,36
1038,083	0,36
1038,501	0,36
1038,918	0,36
1039,335	0,36
1039,752	0,36
1040,169	0,36
1040,586	0,36
1041,003	0,36
1041,419	0,36
1041,836	0,36
1042,253	0,36
1042,67	0,36
1043,087	0,36
1043,504	0,35
1043,92	0,35
1044,337	0,35
1044,754	0,35
1045,17	0,35
1045,587	0,35
1046,004	0,35
1046,42	0,35
1046,837	0,35
1047,253	0,35
1047,67	0,35
1048,086	0,35
1048,503	0,35
1048,919	0,35
1049,335	0,35
1049,752	0,35
1050,168	0,35
1050,584	0,35
1051,001	0,35
1051,417	0,35
1051,833	0,35
1052,249	0,36
1052,665	0,36
1053,081	0,36
1053,497	0,36
1053,914	0,36
1054,33	0,36
1054,746	0,36
1055,162	0,36
1055,578	0,36
1055,993	0,36
1056,409	0,36
1056,825	0,36
1057,241	0,36
1057,657	0,36
1058,073	0,36
1058,488	0,37
1058,904	0,36
1059,32	0,36
1059,736	0,36
1060,151	0,36
1060,567	0,36
1060,982	0,36
1061,398	0,36
1061,813	0,36
1062,229	0,36
1062,644	0,36
1063,06	0,36
1063,475	0,36
1063,891	0,36
1064,306	0,36
1064,721	0,36
1065,137	0,36
1065,552	0,36
1065,967	0,36
1066,382	0,36
1066,798	0,36
1067,213	0,36
1067,628	0,36
1068,043	0,36
1068,458	0,36
1068,873	0,36
1069,288	0,36
1069,703	0,36
1070,118	0,36
1070,533	0,36
1070,948	0,36
1071,363	0,36
1071,778	0,36
1072,193	0,36
1072,607	0,36
1073,022	0,36
1073,437	0,36
1073,852	0,36
1074,266	0,36
1074,681	0,36
1075,096	0,36
1075,51	0,36
1075,925	0,36
1076,339	0,36
1076,754	0,36
1077,168	0,36
1077,583	0,36
1077,997	0,36
1078,412	0,36
1078,826	0,36
1079,24	0,36
1079,655	0,36
1080,069	0,36
1080,483	0,36
1080,897	0,36
1081,312	0,36
1081,726	0,36
1082,14	0,36
1082,554	0,35
1082,968	0,35
1083,382	0,35
1083,796	0,35
1084,21	0,35
1084,624	0,35
1085,038	0,35
1085,452	0,35
1085,866	0,35
1086,28	0,34
1086,694	0,34
1087,108	0,34
1087,521	0,34
1087,935	0,34
1088,349	0,34
1088,763	0,33
1089,176	0,33
1089,59	0,33
1090,004	0,33
1090,417	0,32
1090,831	0,32
1091,244	0,32
1091,658	0,32
1092,071	0,31
1092,485	0,31
1092,898	0,31
1093,312	0,31
1093,725	0,31
1094,138	0,3
1094,552	0,3
1094,965	0,3
1095,378	0,3
1095,791	0,29
1096,205	0,29
1096,618	0,29
1097,031	0,29
1097,444	0,28
1097,857	0,28
1098,27	0,28
1098,683	0,27
1099,096	0,27
1099,509	0,27
1099,922	0,26
1100,335	0,26
1100,748	0,25
1101,161	0,25
1101,574	0,24
1101,986	0,24
1102,399	0,24
1102,812	0,23
1103,225	0,23
1103,637	0,23
1104,05	0,22
1104,463	0,22
1104,875	0,22
1105,288	0,21
1105,7	0,21
1106,113	0,21
1106,525	0,2
1106,938	0,2
1107,35	0,19
1107,763	0,19
1108,175	0,19
1108,588	0,19
1109	0,18
1109,412	0,17
1109,824	0,18
1110,237	0,17
1110,649	0,17
1111,061	0,15
