Data from 18C-808nm-8A-cont_Absorbance__519__01948.txt Node

Date: Mon Jul 17 17:38:13 CEST 2023
User: Laser008
Spectrometer: MAYP115816
Trigger mode: 0
Integration Time (sec): 2,500000E-1
Scans to average: 10
Electric dark correction enabled: true
Nonlinearity correction enabled: true
Boxcar width: 5
XAxis mode: Wavelengths
Number of Pixels in Spectrum: 2068
>>>>>Begin Spectral Data<<<<<
198,914	-0,76
199,384	-0,52
199,855	-0,38
200,325	-0,28
200,796	-0,24
201,266	-0,18
201,737	-0,17
202,207	-0,16
202,677	-0,15
203,147	-0,13
203,618	-0,11
204,088	-0,08
204,558	-0,07
205,028	-0,07
205,498	-0,08
205,968	-0,08
206,439	-0,1
206,909	-0,09
207,379	-0,1
207,849	-0,1
208,319	-0,11
208,789	-0,12
209,258	-0,12
209,728	-0,13
210,198	-0,13
210,668	-0,13
211,138	-0,14
211,608	-0,14
212,077	-0,15
212,547	-0,14
213,017	-0,14
213,486	-0,14
213,956	-0,14
214,426	-0,15
214,895	-0,14
215,365	-0,15
215,834	-0,16
216,304	-0,16
216,773	-0,17
217,243	-0,18
217,712	-0,2
218,181	-0,2
218,651	-0,2
219,12	-0,2
219,589	-0,19
220,058	-0,19
220,528	-0,19
220,997	-0,2
221,466	-0,2
221,935	-0,2
222,404	-0,19
222,873	-0,18
223,342	-0,18
223,812	-0,18
224,281	-0,17
224,749	-0,17
225,218	-0,19
225,687	-0,19
226,156	-0,18
226,625	-0,16
227,094	-0,16
227,563	-0,16
228,031	-0,18
228,5	-0,18
228,969	-0,19
229,438	-0,19
229,906	-0,18
230,375	-0,17
230,844	-0,17
231,312	-0,17
231,781	-0,19
232,249	-0,17
232,718	-0,17
233,186	-0,15
233,655	-0,15
234,123	-0,14
234,591	-0,14
235,06	-0,14
235,528	-0,15
235,996	-0,14
236,465	-0,14
236,933	-0,13
237,401	-0,14
237,869	-0,13
238,337	-0,14
238,805	-0,13
239,274	-0,13
239,742	-0,12
240,21	-0,12
240,678	-0,12
241,146	-0,11
241,614	-0,12
242,081	-0,11
242,549	-0,11
243,017	-0,12
243,485	-0,12
243,953	-0,12
244,421	-0,12
244,888	-0,12
245,356	-0,12
245,824	-0,11
246,291	-0,12
246,759	-0,12
247,227	-0,12
247,694	-0,11
248,162	-0,1
248,629	-0,1
249,097	-0,1
249,564	-0,11
250,032	-0,12
250,499	-0,11
250,967	-0,12
251,434	-0,13
251,901	-0,12
252,369	-0,12
252,836	-0,13
253,303	-0,15
253,77	-0,15
254,237	-0,15
254,705	-0,16
255,172	-0,15
255,639	-0,14
256,106	-0,16
256,573	-0,15
257,04	-0,17
257,507	-0,18
257,974	-0,18
258,441	-0,15
258,908	-0,17
259,375	-0,17
259,841	-0,17
260,308	-0,18
260,775	-0,18
261,242	-0,17
261,709	-0,18
262,175	-0,19
262,642	-0,18
263,109	-0,18
263,575	-0,19
264,042	-0,17
264,508	-0,18
264,975	-0,2
265,441	-0,21
265,908	-0,21
266,374	-0,21
266,841	-0,22
267,307	-0,22
267,773	-0,21
268,24	-0,21
268,706	-0,21
269,172	-0,22
269,639	-0,23
270,105	-0,21
270,571	-0,21
271,037	-0,21
271,503	-0,22
271,969	-0,21
272,435	-0,21
272,902	-0,23
273,368	-0,25
273,834	-0,25
274,3	-0,25
274,765	-0,24
275,231	-0,25
275,697	-0,24
276,163	-0,23
276,629	-0,23
277,095	-0,24
277,56	-0,24
278,026	-0,25
278,492	-0,23
278,958	-0,23
279,423	-0,23
279,889	-0,22
280,354	-0,23
280,82	-0,22
281,286	-0,24
281,751	-0,24
282,217	-0,22
282,682	-0,21
283,147	-0,2
283,613	-0,22
284,078	-0,22
284,544	-0,23
285,009	-0,24
285,474	-0,23
285,939	-0,25
286,405	-0,23
286,87	-0,23
287,335	-0,23
287,8	-0,23
288,265	-0,21
288,73	-0,22
289,195	-0,25
289,66	-0,24
290,125	-0,23
290,59	-0,23
291,055	-0,22
291,52	-0,22
291,985	-0,22
292,45	-0,24
292,915	-0,24
293,38	-0,25
293,844	-0,23
294,309	-0,21
294,774	-0,19
295,239	-0,21
295,703	-0,22
296,168	-0,21
296,632	-0,21
297,097	-0,2
297,562	-0,19
298,026	-0,19
298,491	-0,18
298,955	-0,19
299,419	-0,19
299,884	-0,19
300,348	-0,17
300,813	-0,16
301,277	-0,17
301,741	-0,16
302,205	-0,16
302,67	-0,15
303,134	-0,15
303,598	-0,15
304,062	-0,14
304,526	-0,13
304,99	-0,15
305,454	-0,15
305,919	-0,14
306,383	-0,14
306,847	-0,14
307,31	-0,14
307,774	-0,16
308,238	-0,16
308,702	-0,15
309,166	-0,17
309,63	-0,16
310,094	-0,13
310,557	-0,13
311,021	-0,13
311,485	-0,14
311,948	-0,14
312,412	-0,13
312,876	-0,12
313,339	-0,13
313,803	-0,13
314,266	-0,13
314,73	-0,14
315,193	-0,15
315,657	-0,13
316,12	-0,13
316,584	-0,12
317,047	-0,11
317,51	-0,1
317,973	-0,09
318,437	-0,08
318,9	-0,06
319,363	-0,05
319,826	-0,04
320,29	-0,04
320,753	-0,04
321,216	-0,04
321,679	-0,04
322,142	-0,03
322,605	-0,04
323,068	-0,04
323,531	-0,05
323,994	-0,05
324,457	-0,04
324,92	-0,03
325,382	-0,03
325,845	-0,03
326,308	-0,03
326,771	-0,02
327,233	-0,01
327,696	-0,01
328,159	-0
328,622	0,01
329,084	0,01
329,547	0,02
330,009	0,02
330,472	0,03
330,934	0,03
331,397	0,04
331,859	0,04
332,322	0,04
332,784	0,04
333,246	0,04
333,709	0,04
334,171	0,04
334,633	0,04
335,096	0,04
335,558	0,04
336,02	0,04
336,482	0,04
336,944	0,06
337,406	0,06
337,868	0,07
338,331	0,07
338,793	0,09
339,255	0,09
339,717	0,09
340,178	0,1
340,64	0,11
341,102	0,12
341,564	0,13
342,026	0,14
342,488	0,15
342,949	0,16
343,411	0,19
343,873	0,22
344,335	0,25
344,796	0,3
345,258	0,34
345,719	0,39
346,181	0,44
346,643	0,49
347,104	0,52
347,566	0,56
348,027	0,59
348,488	0,62
348,95	0,64
349,411	0,67
349,873	0,69
350,334	0,72
350,795	0,74
351,256	0,75
351,718	0,76
352,179	0,77
352,64	0,77
353,101	0,78
353,562	0,78
354,023	0,78
354,484	0,79
354,945	0,79
355,406	0,79
355,867	0,8
356,328	0,8
356,789	0,8
357,25	0,81
357,711	0,81
358,172	0,81
358,633	0,81
359,093	0,81
359,554	0,82
360,015	0,82
360,476	0,82
360,936	0,82
361,397	0,82
361,858	0,82
362,318	0,82
362,779	0,83
363,239	0,83
363,7	0,83
364,16	0,83
364,621	0,83
365,081	0,83
365,541	0,83
366,002	0,83
366,462	0,83
366,922	0,82
367,383	0,82
367,843	0,82
368,303	0,82
368,763	0,82
369,223	0,83
369,684	0,83
370,144	0,83
370,604	0,83
371,064	0,83
371,524	0,83
371,984	0,83
372,444	0,83
372,904	0,83
373,363	0,82
373,823	0,82
374,283	0,82
374,743	0,82
375,203	0,82
375,663	0,82
376,122	0,82
376,582	0,82
377,042	0,82
377,501	0,82
377,961	0,82
378,42	0,82
378,88	0,82
379,34	0,82
379,799	0,82
380,259	0,82
380,718	0,82
381,177	0,82
381,637	0,82
382,096	0,82
382,555	0,82
383,015	0,82
383,474	0,82
383,933	0,82
384,393	0,82
384,852	0,81
385,311	0,81
385,77	0,81
386,229	0,81
386,688	0,81
387,147	0,81
387,606	0,81
388,065	0,81
388,524	0,81
388,983	0,81
389,442	0,81
389,901	0,81
390,36	0,81
390,819	0,81
391,277	0,81
391,736	0,81
392,195	0,81
392,654	0,81
393,112	0,81
393,571	0,81
394,03	0,81
394,488	0,81
394,947	0,81
395,405	0,81
395,864	0,81
396,322	0,81
396,781	0,81
397,239	0,81
397,698	0,8
398,156	0,8
398,614	0,8
399,073	0,8
399,531	0,8
399,989	0,8
400,447	0,8
400,905	0,8
401,364	0,8
401,822	0,8
402,28	0,8
402,738	0,8
403,196	0,8
403,654	0,8
404,112	0,8
404,57	0,8
405,028	0,8
405,486	0,8
405,944	0,8
406,402	0,8
406,859	0,8
407,317	0,8
407,775	0,8
408,233	0,8
408,691	0,8
409,148	0,8
409,606	0,8
410,064	0,8
410,521	0,8
410,979	0,8
411,436	0,8
411,894	0,8
412,351	0,8
412,809	0,8
413,266	0,8
413,724	0,8
414,181	0,8
414,638	0,79
415,096	0,79
415,553	0,79
416,01	0,79
416,467	0,79
416,925	0,79
417,382	0,79
417,839	0,79
418,296	0,79
418,753	0,79
419,21	0,79
419,667	0,79
420,124	0,79
420,581	0,79
421,038	0,79
421,495	0,79
421,952	0,79
422,409	0,79
422,866	0,79
423,322	0,79
423,779	0,79
424,236	0,79
424,693	0,79
425,149	0,79
425,606	0,79
426,063	0,79
426,519	0,79
426,976	0,79
427,433	0,79
427,889	0,79
428,346	0,79
428,802	0,79
429,258	0,79
429,715	0,79
430,171	0,79
430,628	0,79
431,084	0,79
431,54	0,79
431,997	0,79
432,453	0,79
432,909	0,79
433,365	0,79
433,821	0,79
434,277	0,78
434,734	0,78
435,19	0,78
435,646	0,78
436,102	0,78
436,558	0,78
437,014	0,78
437,47	0,78
437,925	0,78
438,381	0,79
438,837	0,79
439,293	0,79
439,749	0,79
440,205	0,79
440,66	0,79
441,116	0,79
441,572	0,79
442,027	0,79
442,483	0,79
442,939	0,79
443,394	0,79
443,85	0,79
444,305	0,79
444,761	0,79
445,216	0,79
445,672	0,79
446,127	0,79
446,582	0,79
447,038	0,79
447,493	0,79
447,948	0,79
448,403	0,79
448,859	0,79
449,314	0,79
449,769	0,79
450,224	0,79
450,679	0,79
451,134	0,8
451,589	0,8
452,044	0,8
452,499	0,8
452,954	0,8
453,409	0,8
453,864	0,8
454,319	0,8
454,774	0,8
455,229	0,8
455,684	0,8
456,138	0,8
456,593	0,8
457,048	0,8
457,503	0,8
457,957	0,8
458,412	0,8
458,866	0,8
459,321	0,8
459,776	0,8
460,23	0,8
460,685	0,8
461,139	0,8
461,593	0,8
462,048	0,8
462,502	0,81
462,957	0,81
463,411	0,81
463,865	0,81
464,319	0,81
464,774	0,81
465,228	0,81
465,682	0,81
466,136	0,81
466,59	0,81
467,044	0,81
467,499	0,82
467,953	0,82
468,407	0,82
468,861	0,82
469,315	0,82
469,768	0,82
470,222	0,82
470,676	0,82
471,13	0,82
471,584	0,82
472,038	0,82
472,491	0,83
472,945	0,83
473,399	0,83
473,852	0,83
474,306	0,83
474,76	0,83
475,213	0,83
475,667	0,83
476,12	0,84
476,574	0,84
477,027	0,84
477,481	0,84
477,934	0,84
478,388	0,84
478,841	0,85
479,294	0,85
479,748	0,85
480,201	0,85
480,654	0,85
481,107	0,86
481,561	0,86
482,014	0,86
482,467	0,86
482,92	0,86
483,373	0,86
483,826	0,87
484,279	0,87
484,732	0,87
485,185	0,87
485,638	0,88
486,091	0,88
486,544	0,88
486,997	0,88
487,449	0,89
487,902	0,89
488,355	0,89
488,808	0,89
489,26	0,9
489,713	0,9
490,166	0,9
490,618	0,9
491,071	0,91
491,523	0,91
491,976	0,91
492,429	0,92
492,881	0,92
493,333	0,92
493,786	0,93
494,238	0,93
494,691	0,94
495,143	0,94
495,595	0,94
496,048	0,95
496,5	0,95
496,952	0,96
497,404	0,96
497,856	0,96
498,309	0,97
498,761	0,97
499,213	0,98
499,665	0,98
500,117	0,98
500,569	0,99
501,021	0,99
501,473	1
501,925	1
502,377	1,01
502,828	1,01
503,28	1,01
503,732	1,02
504,184	1,02
504,636	1,03
505,087	1,03
505,539	1,03
505,991	1,04
506,442	1,04
506,894	1,05
507,345	1,05
507,797	1,06
508,249	1,06
508,7	1,07
509,151	1,07
509,603	1,08
510,054	1,08
510,506	1,08
510,957	1,09
511,408	1,09
511,86	1,1
512,311	1,1
512,762	1,1
513,213	1,11
513,665	1,11
514,116	1,11
514,567	1,12
515,018	1,12
515,469	1,12
515,92	1,13
516,371	1,13
516,822	1,13
517,273	1,14
517,724	1,14
518,175	1,14
518,626	1,15
519,076	1,15
519,527	1,15
519,978	1,15
520,429	1,16
520,88	1,16
521,33	1,16
521,781	1,16
522,232	1,16
522,682	1,17
523,133	1,17
523,583	1,17
524,034	1,17
524,484	1,17
524,935	1,17
525,385	1,17
525,836	1,17
526,286	1,17
526,736	1,18
527,187	1,17
527,637	1,17
528,087	1,17
528,538	1,17
528,988	1,17
529,438	1,17
529,888	1,17
530,338	1,17
530,788	1,17
531,238	1,17
531,688	1,16
532,139	1,16
532,589	1,16
533,038	1,16
533,488	1,16
533,938	1,15
534,388	1,15
534,838	1,15
535,288	1,15
535,738	1,14
536,187	1,14
536,637	1,13
537,087	1,13
537,537	1,13
537,986	1,12
538,436	1,12
538,885	1,11
539,335	1,1
539,785	1,1
540,234	1,09
540,684	1,09
541,133	1,08
541,582	1,08
542,032	1,07
542,481	1,07
542,931	1,06
543,38	1,06
543,829	1,05
544,278	1,04
544,728	1,04
545,177	1,03
545,626	1,03
546,075	1,02
546,524	1,02
546,973	1,01
547,422	1,01
547,871	1,01
548,32	1
548,769	1
549,218	0,99
549,667	0,99
550,116	0,99
550,565	0,98
551,014	0,98
551,463	0,97
551,911	0,97
552,36	0,96
552,809	0,95
553,258	0,95
553,706	0,94
554,155	0,94
554,603	0,94
555,052	0,93
555,501	0,92
555,949	0,92
556,398	0,91
556,846	0,91
557,294	0,9
557,743	0,9
558,191	0,89
558,64	0,89
559,088	0,88
559,536	0,87
559,985	0,87
560,433	0,86
560,881	0,86
561,329	0,85
561,777	0,85
562,225	0,84
562,674	0,84
563,122	0,84
563,57	0,83
564,018	0,83
564,466	0,82
564,914	0,82
565,362	0,81
565,809	0,81
566,257	0,8
566,705	0,8
567,153	0,79
567,601	0,79
568,048	0,78
568,496	0,78
568,944	0,77
569,392	0,77
569,839	0,77
570,287	0,76
570,734	0,76
571,182	0,75
571,63	0,75
572,077	0,75
572,525	0,74
572,972	0,74
573,419	0,73
573,867	0,73
574,314	0,73
574,761	0,72
575,209	0,72
575,656	0,71
576,103	0,71
576,551	0,71
576,998	0,7
577,445	0,7
577,892	0,7
578,339	0,69
578,786	0,69
579,233	0,68
579,68	0,68
580,127	0,68
580,574	0,68
581,021	0,67
581,468	0,67
581,915	0,67
582,362	0,66
582,809	0,66
583,255	0,66
583,702	0,65
584,149	0,65
584,596	0,65
585,042	0,65
585,489	0,64
585,936	0,64
586,382	0,64
586,829	0,64
587,275	0,63
587,722	0,63
588,168	0,63
588,615	0,63
589,061	0,62
589,508	0,62
589,954	0,62
590,4	0,62
590,847	0,61
591,293	0,61
591,739	0,61
592,185	0,61
592,632	0,61
593,078	0,6
593,524	0,6
593,97	0,6
594,416	0,6
594,862	0,6
595,308	0,6
595,754	0,6
596,2	0,59
596,646	0,59
597,092	0,59
597,538	0,59
597,984	0,58
598,43	0,58
598,876	0,58
599,321	0,58
599,767	0,58
600,213	0,58
600,659	0,58
601,104	0,57
601,55	0,57
601,995	0,57
602,441	0,57
602,887	0,57
603,332	0,56
603,778	0,56
604,223	0,56
604,668	0,56
605,114	0,56
605,559	0,56
606,005	0,56
606,45	0,56
606,895	0,56
607,341	0,55
607,786	0,55
608,231	0,55
608,676	0,55
609,121	0,54
609,566	0,53
610,012	0,53
610,457	0,52
610,902	0,52
611,347	0,52
611,792	0,52
612,237	0,51
612,682	0,51
613,127	0,51
613,571	0,51
614,016	0,51
614,461	0,52
614,906	0,52
615,351	0,52
615,795	0,52
616,24	0,52
616,685	0,52
617,129	0,52
617,574	0,52
618,019	0,52
618,463	0,52
618,908	0,52
619,352	0,52
619,797	0,52
620,241	0,52
620,686	0,52
621,13	0,52
621,574	0,52
622,019	0,51
622,463	0,51
622,907	0,51
623,352	0,51
623,796	0,51
624,24	0,51
624,684	0,51
625,128	0,51
625,572	0,51
626,016	0,51
626,461	0,51
626,905	0,51
627,349	0,51
627,793	0,51
628,236	0,51
628,68	0,51
629,124	0,5
629,568	0,5
630,012	0,5
630,456	0,5
630,9	0,5
631,343	0,5
631,787	0,5
632,231	0,5
632,674	0,5
633,118	0,5
633,562	0,5
634,005	0,5
634,449	0,5
634,892	0,5
635,336	0,5
635,779	0,5
636,223	0,5
636,666	0,5
637,109	0,5
637,553	0,5
637,996	0,5
638,439	0,49
638,883	0,49
639,326	0,49
639,769	0,49
640,212	0,49
640,655	0,49
641,099	0,49
641,542	0,49
641,985	0,49
642,428	0,49
642,871	0,49
643,314	0,49
643,757	0,48
644,2	0,48
644,643	0,48
645,085	0,48
645,528	0,48
645,971	0,48
646,414	0,48
646,857	0,48
647,299	0,48
647,742	0,48
648,185	0,48
648,627	0,48
649,07	0,48
649,513	0,48
649,955	0,48
650,398	0,48
650,84	0,48
651,283	0,48
651,725	0,48
652,168	0,48
652,61	0,48
653,052	0,48
653,495	0,48
653,937	0,39
654,379	0,33
654,821	0,34
655,264	0,34
655,706	0,34
656,148	0,34
656,59	0,34
657,032	0,34
657,474	0,34
657,916	0,34
658,358	0,33
658,8	0,39
659,242	0,47
659,684	0,47
660,126	0,47
660,568	0,47
661,01	0,47
661,452	0,47
661,894	0,47
662,335	0,47
662,777	0,47
663,219	0,47
663,661	0,47
664,102	0,47
664,544	0,47
664,985	0,47
665,427	0,47
665,869	0,47
666,31	0,47
666,752	0,47
667,193	0,47
667,634	0,47
668,076	0,47
668,517	0,47
668,959	0,47
669,4	0,47
669,841	0,47
670,282	0,47
670,724	0,47
671,165	0,47
671,606	0,47
672,047	0,47
672,488	0,47
672,929	0,47
673,37	0,47
673,811	0,47
674,252	0,46
674,693	0,46
675,134	0,46
675,575	0,46
676,016	0,46
676,457	0,46
676,898	0,46
677,339	0,46
677,78	0,46
678,22	0,46
678,661	0,46
679,102	0,46
679,542	0,46
679,983	0,46
680,424	0,46
680,864	0,46
681,305	0,46
681,745	0,46
682,186	0,46
682,626	0,46
683,067	0,46
683,507	0,46
683,948	0,46
684,388	0,46
684,828	0,46
685,269	0,46
685,709	0,46
686,149	0,46
686,589	0,46
687,029	0,46
687,47	0,45
687,91	0,45
688,35	0,45
688,79	0,45
689,23	0,45
689,67	0,45
690,11	0,45
690,55	0,45
690,99	0,45
691,43	0,45
691,87	0,45
692,31	0,45
692,749	0,45
693,189	0,45
693,629	0,44
694,069	0,44
694,508	0,44
694,948	0,44
695,388	0,44
695,827	0,44
696,267	0,44
696,706	0,45
697,146	0,45
697,586	0,45
698,025	0,45
698,464	0,45
698,904	0,45
699,343	0,45
699,783	0,45
700,222	0,45
700,661	0,45
701,101	0,45
701,54	0,45
701,979	0,45
702,418	0,45
702,857	0,45
703,297	0,45
703,736	0,45
704,175	0,45
704,614	0,45
705,053	0,45
705,492	0,45
705,931	0,45
706,37	0,45
706,809	0,45
707,248	0,45
707,687	0,44
708,125	0,44
708,564	0,44
709,003	0,44
709,442	0,44
709,88	0,44
710,319	0,44
710,758	0,44
711,196	0,44
711,635	0,44
712,074	0,44
712,512	0,44
712,951	0,44
713,389	0,44
713,828	0,44
714,266	0,44
714,705	0,44
715,143	0,44
715,581	0,44
716,02	0,44
716,458	0,44
716,896	0,44
717,334	0,44
717,773	0,44
718,211	0,44
718,649	0,44
719,087	0,44
719,525	0,44
719,963	0,44
720,401	0,44
720,839	0,44
721,277	0,44
721,715	0,44
722,153	0,44
722,591	0,44
723,029	0,44
723,467	0,44
723,905	0,44
724,342	0,44
724,78	0,44
725,218	0,44
725,656	0,44
726,093	0,44
726,531	0,44
726,969	0,44
727,406	0,44
727,844	0,44
728,281	0,44
728,719	0,44
729,156	0,44
729,594	0,44
730,031	0,43
730,469	0,43
730,906	0,43
731,343	0,43
731,781	0,43
732,218	0,43
732,655	0,43
733,092	0,43
733,53	0,43
733,967	0,43
734,404	0,43
734,841	0,43
735,278	0,43
735,715	0,43
736,152	0,42
736,589	0,42
737,026	0,42
737,463	0,42
737,9	0,42
738,337	0,42
738,774	0,42
739,211	0,42
739,647	0,42
740,084	0,43
740,521	0,43
740,958	0,43
741,394	0,43
741,831	0,43
742,268	0,43
742,704	0,43
743,141	0,43
743,577	0,43
744,014	0,43
744,45	0,43
744,887	0,42
745,323	0,42
745,76	0,42
746,196	0,42
746,632	0,42
747,069	0,42
747,505	0,42
747,941	0,42
748,378	0,42
748,814	0,42
749,25	0,42
749,686	0,42
750,122	0,42
750,558	0,42
750,994	0,43
751,43	0,43
751,866	0,43
752,302	0,43
752,738	0,43
753,174	0,43
753,61	0,43
754,046	0,43
754,482	0,43
754,918	0,43
755,354	0,43
755,789	0,43
756,225	0,42
756,661	0,42
757,096	0,42
757,532	0,42
757,968	0,42
758,403	0,41
758,839	0,41
759,274	0,41
759,71	0,4
760,145	0,4
760,581	0,39
761,016	0,39
761,452	0,39
761,887	0,38
762,322	0,38
762,758	0,37
763,193	0,37
763,628	0,36
764,063	0,36
764,499	0,35
764,934	0,34
765,369	0,34
765,804	0,33
766,239	0,32
766,674	0,32
767,109	0,31
767,544	0,3
767,979	0,29
768,414	0,28
768,849	0,27
769,284	0,26
769,719	0,25
770,154	0,24
770,588	0,23
771,023	0,22
771,458	0,21
771,893	0,2
772,327	0,19
772,762	0,18
773,197	0,16
773,631	0,15
774,066	0,15
774,5	0,14
774,935	0,13
775,369	0,12
775,804	0,1
776,238	0,09
776,673	0,08
777,107	0,07
777,541	0,07
777,976	0,06
778,41	0,05
778,844	0,04
779,279	0,03
779,713	0,02
780,147	0,01
780,581	0,01
781,015	-0
781,449	-0,01
781,883	-0,02
782,317	-0,03
782,751	-0,04
783,185	-0,05
783,619	-0,05
784,053	-0,06
784,487	-0,07
784,921	-0,07
785,355	-0,08
785,789	-0,09
786,223	-0,1
786,656	-0,11
787,09	-0,12
787,524	-0,13
787,957	-0,14
788,391	-0,17
788,825	-0,19
789,258	-0,2
789,692	-0,21
790,125	-0,23
790,559	-0,24
790,992	-0,27
791,426	-0,29
791,859	-0,3
792,293	-0,33
792,726	-0,34
793,159	-0,36
793,593	-0,38
794,026	-0,4
794,459	-0,43
794,892	-0,46
795,326	-0,48
795,759	-0,52
796,192	-0,56
796,625	-0,61
797,058	-0,63
797,491	-0,68
797,924	-0,71
798,357	-0,76
798,79	-0,8
799,223	-0,84
799,656	-0,9
800,089	-0,94
800,522	-0,98
800,955	-1,03
801,387	-1,08
801,82	-1,13
802,253	-1,2
802,686	-1,28
803,118	-1,33
803,551	-1,38
803,984	-1,43
804,416	-1,46
804,849	-1,49
805,281	-1,58
805,714	-1,92
806,146	-2,42
806,579	-2,69
807,011	-2,86
807,444	-2,95
807,876	-3,04
808,308	-3,07
808,741	-3,1
809,173	-3,15
809,605	-3,17
810,037	-3,25
810,47	-3,17
810,902	-2,97
811,334	-2,82
811,766	-2,66
812,198	-2,4
812,63	-1,97
813,062	-1,77
813,494	-1,68
813,926	-1,59
814,358	-1,54
814,79	-1,46
815,222	-1,4
815,654	-1,35
816,086	-1,29
816,518	-1,23
816,949	-1,18
817,381	-1,14
817,813	-1,12
818,245	-1,08
818,676	-1,04
819,108	-1,01
819,54	-0,99
819,971	-0,97
820,403	-0,92
820,834	-0,91
821,266	-0,87
821,697	-0,85
822,129	-0,84
822,56	-0,81
822,991	-0,79
823,423	-0,77
823,854	-0,76
824,286	-0,74
824,717	-0,73
825,148	-0,71
825,579	-0,71
826,01	-0,69
826,442	-0,69
826,873	-0,67
827,304	-0,64
827,735	-0,63
828,166	-0,64
828,597	-0,64
829,028	-0,63
829,459	-0,63
829,89	-0,64
830,321	-0,59
830,752	-0,6
831,183	-0,59
831,613	-0,58
832,044	-0,58
832,475	-0,57
832,906	-0,57
833,336	-0,57
833,767	-0,58
834,198	-0,57
834,628	-0,54
835,059	-0,57
835,49	-0,57
835,92	-0,55
836,351	-0,55
836,781	-0,56
837,212	-0,56
837,642	-0,57
838,072	-0,55
838,503	-0,56
838,933	-0,54
839,364	-0,55
839,794	-0,54
840,224	-0,53
840,654	-0,57
841,085	-0,57
841,515	-0,55
841,945	-0,55
842,375	-0,5
842,805	-0,49
843,235	-0,47
843,665	-0,49
844,095	-0,46
844,525	-0,48
844,955	-0,48
845,385	-0,46
845,815	-0,45
846,245	-0,48
846,675	-0,48
847,105	-0,51
847,534	-0,51
847,964	-0,5
848,394	-0,48
848,824	-0,52
849,253	-0,52
849,683	-0,51
850,112	-0,53
850,542	-0,56
850,972	-0,56
851,401	-0,54
851,831	-0,52
852,26	-0,52
852,69	-0,56
853,119	-0,55
853,548	-0,55
853,978	-0,55
854,407	-0,53
854,836	-0,53
855,266	-0,52
855,695	-0,54
856,124	-0,55
856,553	-0,56
856,983	-0,57
857,412	-0,56
857,841	-0,58
858,27	-0,59
858,699	-0,59
859,128	-0,63
859,557	-0,64
859,986	-0,65
860,415	-0,63
860,844	-0,6
861,273	-0,6
861,702	-0,61
862,13	-0,59
862,559	-0,62
862,988	-0,59
863,417	-0,58
863,845	-0,56
864,274	-0,57
864,703	-0,57
865,131	-0,57
865,56	-0,6
865,989	-0,62
866,417	-0,59
866,846	-0,6
867,274	-0,58
867,703	-0,6
868,131	-0,62
868,559	-0,62
868,988	-0,65
869,416	-0,63
869,844	-0,65
870,273	-0,66
870,701	-0,64
871,129	-0,68
871,557	-0,7
871,986	-0,71
872,414	-0,72
872,842	-0,68
873,27	-0,66
873,698	-0,64
874,126	-0,67
874,554	-0,66
874,982	-0,66
875,41	-0,68
875,838	-0,63
876,266	-0,61
876,694	-0,62
877,122	-0,62
877,549	-0,68
877,977	-0,65
878,405	-0,67
878,833	-0,64
879,26	-0,62
879,688	-0,62
880,116	-0,61
880,543	-0,59
880,971	-0,59
881,399	-0,61
881,826	-0,61
882,254	-0,58
882,681	-0,61
883,109	-0,58
883,536	-0,59
883,963	-0,61
884,391	-0,59
884,818	-0,57
885,245	-0,61
885,673	-0,62
886,1	-0,59
886,527	-0,59
886,954	-0,56
887,381	-0,58
887,809	-0,59
888,236	-0,6
888,663	-0,61
889,09	-0,65
889,517	-0,67
889,944	-0,66
890,371	-0,65
890,798	-0,66
891,225	-0,65
891,652	-0,69
892,078	-0,66
892,505	-0,69
892,932	-0,65
893,359	-0,66
893,786	-0,66
894,212	-0,63
894,639	-0,64
895,066	-0,67
895,492	-0,61
895,919	-0,61
896,346	-0,6
896,772	-0,61
897,199	-0,56
897,625	-0,59
898,052	-0,56
898,478	-0,55
898,904	-0,56
899,331	-0,56
899,757	-0,57
900,183	-0,59
900,61	-0,57
901,036	-0,58
901,462	-0,58
901,888	-0,58
902,315	-0,57
902,741	-0,62
903,167	-0,61
903,593	-0,64
904,019	-0,62
904,445	-0,58
904,871	-0,61
905,297	-0,64
905,723	-0,63
906,149	-0,62
906,575	-0,63
907,001	-0,62
907,427	-0,59
907,852	-0,59
908,278	-0,59
908,704	-0,58
909,13	-0,57
909,555	-0,57
909,981	-0,56
910,407	-0,56
910,832	-0,56
911,258	-0,56
911,684	-0,57
912,109	-0,57
912,535	-0,59
912,96	-0,54
913,386	-0,58
913,811	-0,57
914,236	-0,58
914,662	-0,56
915,087	-0,59
915,512	-0,59
915,938	-0,61
916,363	-0,6
916,788	-0,61
917,213	-0,6
917,639	-0,64
918,064	-0,62
918,489	-0,62
918,914	-0,63
919,339	-0,65
919,764	-0,61
920,189	-0,61
920,614	-0,63
921,039	-0,64
921,464	-0,6
921,889	-0,62
922,314	-0,63
922,738	-0,66
923,163	-0,68
923,588	-0,67
924,013	-0,66
924,437	-0,66
924,862	-0,67
925,287	-0,63
925,711	-0,63
926,136	-0,64
926,561	-0,63
926,985	-0,62
927,41	-0,59
927,834	-0,56
928,259	-0,53
928,683	-0,52
929,108	-0,49
929,532	-0,51
929,956	-0,5
930,381	-0,49
930,805	-0,5
931,229	-0,49
931,653	-0,47
932,078	-0,47
932,502	-0,48
932,926	-0,49
933,35	-0,49
933,774	-0,49
934,198	-0,46
934,622	-0,45
935,046	-0,45
935,47	-0,46
935,894	-0,45
936,318	-0,45
936,742	-0,45
937,166	-0,45
937,59	-0,45
938,014	-0,47
938,437	-0,47
938,861	-0,5
939,285	-0,52
939,709	-0,51
940,132	-0,51
940,556	-0,52
940,98	-0,51
941,403	-0,49
941,827	-0,5
942,25	-0,52
942,674	-0,51
943,097	-0,5
943,521	-0,5
943,944	-0,51
944,368	-0,5
944,791	-0,49
945,214	-0,52
945,638	-0,52
946,061	-0,57
946,484	-0,58
946,907	-0,56
947,331	-0,56
947,754	-0,6
948,177	-0,57
948,6	-0,57
949,023	-0,57
949,446	-0,57
949,869	-0,55
950,292	-0,55
950,715	-0,51
951,138	-0,49
951,561	-0,46
951,984	-0,46
952,407	-0,45
952,83	-0,43
953,252	-0,4
953,675	-0,4
954,098	-0,41
954,521	-0,39
954,943	-0,39
955,366	-0,4
955,789	-0,38
956,211	-0,4
956,634	-0,4
957,056	-0,38
957,479	-0,39
957,902	-0,41
958,324	-0,41
958,746	-0,38
959,169	-0,4
959,591	-0,4
960,014	-0,4
960,436	-0,4
960,858	-0,4
961,281	-0,4
961,703	-0,42
962,125	-0,41
962,547	-0,39
962,969	-0,4
963,391	-0,41
963,814	-0,42
964,236	-0,41
964,658	-0,38
965,08	-0,4
965,502	-0,39
965,924	-0,36
966,346	-0,35
966,768	-0,34
967,189	-0,36
967,611	-0,35
968,033	-0,34
968,455	-0,32
968,877	-0,33
969,298	-0,35
969,72	-0,34
970,142	-0,33
970,563	-0,34
970,985	-0,33
971,407	-0,32
971,828	-0,3
972,25	-0,3
972,671	-0,28
973,093	-0,28
973,514	-0,27
973,936	-0,25
974,357	-0,24
974,778	-0,24
975,2	-0,23
975,621	-0,23
976,042	-0,21
976,464	-0,2
976,885	-0,19
977,306	-0,18
977,727	-0,18
978,148	-0,16
978,57	-0,16
978,991	-0,14
979,412	-0,12
979,833	-0,11
980,254	-0,1
980,675	-0,11
981,096	-0,09
981,517	-0,08
981,937	-0,08
982,358	-0,06
982,779	-0,04
983,2	-0,04
983,621	-0,04
984,042	-0,03
984,462	-0,03
984,883	-0,01
985,304	0,01
985,724	0,01
986,145	0,03
986,565	0,05
986,986	0,06
987,407	0,07
987,827	0,09
988,248	0,11
988,668	0,12
989,088	0,14
989,509	0,15
989,929	0,16
990,35	0,18
990,77	0,18
991,19	0,19
991,61	0,21
992,031	0,21
992,451	0,23
992,871	0,24
993,291	0,25
993,711	0,25
994,131	0,26
994,551	0,27
994,971	0,28
995,391	0,29
995,811	0,3
996,231	0,3
996,651	0,31
997,071	0,32
997,491	0,32
997,911	0,33
998,331	0,34
998,75	0,35
999,17	0,35
999,59	0,36
1000,009	0,36
1000,429	0,37
1000,849	0,38
1001,268	0,38
1001,688	0,39
1002,107	0,39
1002,527	0,39
1002,946	0,4
1003,366	0,4
1003,785	0,4
1004,205	0,41
1004,624	0,41
1005,044	0,41
1005,463	0,41
1005,882	0,41
1006,301	0,42
1006,721	0,42
1007,14	0,42
1007,559	0,42
1007,978	0,42
1008,397	0,42
1008,816	0,42
1009,235	0,42
1009,655	0,42
1010,074	0,42
1010,492	0,42
1010,911	0,42
1011,33	0,42
1011,749	0,42
1012,168	0,42
1012,587	0,42
1013,006	0,42
1013,425	0,42
1013,843	0,42
1014,262	0,42
1014,681	0,42
1015,099	0,42
1015,518	0,42
1015,937	0,42
1016,355	0,42
1016,774	0,41
1017,192	0,42
1017,611	0,42
1018,029	0,41
1018,448	0,41
1018,866	0,41
1019,285	0,41
1019,703	0,41
1020,121	0,41
1020,54	0,41
1020,958	0,41
1021,376	0,41
1021,794	0,41
1022,213	0,41
1022,631	0,41
1023,049	0,41
1023,467	0,41
1023,885	0,41
1024,303	0,41
1024,721	0,41
1025,139	0,41
1025,557	0,41
1025,975	0,4
1026,393	0,4
1026,811	0,4
1027,229	0,4
1027,647	0,4
1028,065	0,4
1028,482	0,4
1028,9	0,4
1029,318	0,4
1029,735	0,4
1030,153	0,4
1030,571	0,4
1030,988	0,4
1031,406	0,4
1031,823	0,4
1032,241	0,4
1032,659	0,4
1033,076	0,4
1033,493	0,4
1033,911	0,4
1034,328	0,4
1034,746	0,4
1035,163	0,4
1035,58	0,4
1035,997	0,4
1036,415	0,4
1036,832	0,41
1037,249	0,41
1037,666	0,4
1038,083	0,4
1038,501	0,4
1038,918	0,4
1039,335	0,4
1039,752	0,4
1040,169	0,4
1040,586	0,4
1041,003	0,4
1041,419	0,4
1041,836	0,4
1042,253	0,4
1042,67	0,4
1043,087	0,4
1043,504	0,4
1043,92	0,4
1044,337	0,4
1044,754	0,4
1045,17	0,4
1045,587	0,4
1046,004	0,4
1046,42	0,4
1046,837	0,39
1047,253	0,39
1047,67	0,39
1048,086	0,39
1048,503	0,39
1048,919	0,39
1049,335	0,39
1049,752	0,39
1050,168	0,39
1050,584	0,39
1051,001	0,4
1051,417	0,4
1051,833	0,4
1052,249	0,4
1052,665	0,4
1053,081	0,4
1053,497	0,4
1053,914	0,4
1054,33	0,4
1054,746	0,41
1055,162	0,41
1055,578	0,41
1055,993	0,41
1056,409	0,41
1056,825	0,41
1057,241	0,41
1057,657	0,41
1058,073	0,41
1058,488	0,41
1058,904	0,41
1059,32	0,41
1059,736	0,41
1060,151	0,41
1060,567	0,41
1060,982	0,41
1061,398	0,41
1061,813	0,41
1062,229	0,41
1062,644	0,41
1063,06	0,41
1063,475	0,41
1063,891	0,41
1064,306	0,41
1064,721	0,4
1065,137	0,4
1065,552	0,4
1065,967	0,4
1066,382	0,4
1066,798	0,4
1067,213	0,4
1067,628	0,4
1068,043	0,4
1068,458	0,4
1068,873	0,4
1069,288	0,4
1069,703	0,4
1070,118	0,4
1070,533	0,4
1070,948	0,4
1071,363	0,4
1071,778	0,41
1072,193	0,41
1072,607	0,41
1073,022	0,41
1073,437	0,41
1073,852	0,41
1074,266	0,41
1074,681	0,41
1075,096	0,41
1075,51	0,41
1075,925	0,41
1076,339	0,41
1076,754	0,41
1077,168	0,41
1077,583	0,4
1077,997	0,4
1078,412	0,4
1078,826	0,4
1079,24	0,4
1079,655	0,4
1080,069	0,4
1080,483	0,4
1080,897	0,4
1081,312	0,4
1081,726	0,4
1082,14	0,4
1082,554	0,39
1082,968	0,39
1083,382	0,39
1083,796	0,39
1084,21	0,39
1084,624	0,39
1085,038	0,39
1085,452	0,39
1085,866	0,39
1086,28	0,38
1086,694	0,38
1087,108	0,38
1087,521	0,38
1087,935	0,38
1088,349	0,38
1088,763	0,37
1089,176	0,37
1089,59	0,37
1090,004	0,37
1090,417	0,36
1090,831	0,36
1091,244	0,36
1091,658	0,35
1092,071	0,35
1092,485	0,35
1092,898	0,34
1093,312	0,34
1093,725	0,34
1094,138	0,34
1094,552	0,34
1094,965	0,33
1095,378	0,33
1095,791	0,33
1096,205	0,33
1096,618	0,33
1097,031	0,32
1097,444	0,32
1097,857	0,31
1098,27	0,31
1098,683	0,31
1099,096	0,3
1099,509	0,3
1099,922	0,29
1100,335	0,29
1100,748	0,29
1101,161	0,28
1101,574	0,28
1101,986	0,27
1102,399	0,27
1102,812	0,27
1103,225	0,27
1103,637	0,26
1104,05	0,26
1104,463	0,26
1104,875	0,26
1105,288	0,25
1105,7	0,24
1106,113	0,24
1106,525	0,24
1106,938	0,23
1107,35	0,22
1107,763	0,22
1108,175	0,22
1108,588	0,22
1109	0,21
1109,412	0,21
1109,824	0,2
1110,237	0,21
1110,649	0,2
1111,061	0,21
