Data from 18C-808nm-8A-cont_Absorbance__648__02077.txt Node

Date: Mon Jul 17 17:43:35 CEST 2023
User: Laser008
Spectrometer: MAYP115816
Trigger mode: 0
Integration Time (sec): 2,500000E-1
Scans to average: 10
Electric dark correction enabled: true
Nonlinearity correction enabled: true
Boxcar width: 5
XAxis mode: Wavelengths
Number of Pixels in Spectrum: 2068
>>>>>Begin Spectral Data<<<<<
198,914	-0,66
199,384	-0,45
199,855	-0,34
200,325	-0,25
200,796	-0,22
201,266	-0,18
201,737	-0,17
202,207	-0,16
202,677	-0,15
203,147	-0,13
203,618	-0,11
204,088	-0,09
204,558	-0,08
205,028	-0,06
205,498	-0,07
205,968	-0,07
206,439	-0,09
206,909	-0,09
207,379	-0,08
207,849	-0,08
208,319	-0,09
208,789	-0,09
209,258	-0,09
209,728	-0,11
210,198	-0,11
210,668	-0,1
211,138	-0,1
211,608	-0,09
212,077	-0,09
212,547	-0,09
213,017	-0,09
213,486	-0,11
213,956	-0,12
214,426	-0,13
214,895	-0,12
215,365	-0,13
215,834	-0,14
216,304	-0,15
216,773	-0,15
217,243	-0,17
217,712	-0,17
218,181	-0,17
218,651	-0,17
219,12	-0,16
219,589	-0,16
220,058	-0,15
220,528	-0,16
220,997	-0,17
221,466	-0,17
221,935	-0,17
222,404	-0,17
222,873	-0,15
223,342	-0,16
223,812	-0,15
224,281	-0,16
224,749	-0,16
225,218	-0,18
225,687	-0,18
226,156	-0,18
226,625	-0,16
227,094	-0,16
227,563	-0,15
228,031	-0,17
228,5	-0,17
228,969	-0,18
229,438	-0,17
229,906	-0,15
230,375	-0,14
230,844	-0,13
231,312	-0,12
231,781	-0,13
232,249	-0,13
232,718	-0,13
233,186	-0,11
233,655	-0,12
234,123	-0,1
234,591	-0,11
235,06	-0,12
235,528	-0,13
235,996	-0,13
236,465	-0,13
236,933	-0,12
237,401	-0,11
237,869	-0,11
238,337	-0,12
238,805	-0,11
239,274	-0,1
239,742	-0,1
240,21	-0,11
240,678	-0,1
241,146	-0,09
241,614	-0,09
242,081	-0,09
242,549	-0,09
243,017	-0,09
243,485	-0,09
243,953	-0,09
244,421	-0,09
244,888	-0,09
245,356	-0,08
245,824	-0,08
246,291	-0,09
246,759	-0,09
247,227	-0,1
247,694	-0,09
248,162	-0,09
248,629	-0,08
249,097	-0,09
249,564	-0,1
250,032	-0,1
250,499	-0,11
250,967	-0,11
251,434	-0,12
251,901	-0,12
252,369	-0,11
252,836	-0,13
253,303	-0,14
253,77	-0,16
254,237	-0,15
254,705	-0,15
255,172	-0,14
255,639	-0,14
256,106	-0,15
256,573	-0,15
257,04	-0,15
257,507	-0,16
257,974	-0,17
258,441	-0,14
258,908	-0,14
259,375	-0,16
259,841	-0,17
260,308	-0,17
260,775	-0,17
261,242	-0,16
261,709	-0,16
262,175	-0,17
262,642	-0,17
263,109	-0,16
263,575	-0,17
264,042	-0,16
264,508	-0,16
264,975	-0,17
265,441	-0,17
265,908	-0,18
266,374	-0,17
266,841	-0,18
267,307	-0,18
267,773	-0,18
268,24	-0,18
268,706	-0,19
269,172	-0,2
269,639	-0,2
270,105	-0,17
270,571	-0,18
271,037	-0,18
271,503	-0,18
271,969	-0,17
272,435	-0,17
272,902	-0,18
273,368	-0,19
273,834	-0,18
274,3	-0,18
274,765	-0,19
275,231	-0,2
275,697	-0,2
276,163	-0,19
276,629	-0,2
277,095	-0,21
277,56	-0,2
278,026	-0,21
278,492	-0,2
278,958	-0,2
279,423	-0,2
279,889	-0,19
280,354	-0,2
280,82	-0,2
281,286	-0,22
281,751	-0,22
282,217	-0,21
282,682	-0,21
283,147	-0,2
283,613	-0,21
284,078	-0,21
284,544	-0,22
285,009	-0,22
285,474	-0,22
285,939	-0,23
286,405	-0,22
286,87	-0,21
287,335	-0,22
287,8	-0,22
288,265	-0,21
288,73	-0,23
289,195	-0,25
289,66	-0,24
290,125	-0,23
290,59	-0,22
291,055	-0,21
291,52	-0,21
291,985	-0,21
292,45	-0,22
292,915	-0,22
293,38	-0,21
293,844	-0,19
294,309	-0,16
294,774	-0,16
295,239	-0,18
295,703	-0,18
296,168	-0,17
296,632	-0,16
297,097	-0,15
297,562	-0,14
298,026	-0,15
298,491	-0,15
298,955	-0,15
299,419	-0,15
299,884	-0,14
300,348	-0,13
300,813	-0,12
301,277	-0,13
301,741	-0,13
302,205	-0,12
302,67	-0,12
303,134	-0,12
303,598	-0,12
304,062	-0,11
304,526	-0,11
304,99	-0,13
305,454	-0,12
305,919	-0,12
306,383	-0,12
306,847	-0,12
307,31	-0,13
307,774	-0,14
308,238	-0,13
308,702	-0,13
309,166	-0,15
309,63	-0,14
310,094	-0,12
310,557	-0,12
311,021	-0,12
311,485	-0,12
311,948	-0,11
312,412	-0,1
312,876	-0,09
313,339	-0,1
313,803	-0,1
314,266	-0,1
314,73	-0,1
315,193	-0,1
315,657	-0,09
316,12	-0,08
316,584	-0,07
317,047	-0,07
317,51	-0,06
317,973	-0,05
318,437	-0,05
318,9	-0,04
319,363	-0,03
319,826	-0,03
320,29	-0,03
320,753	-0,04
321,216	-0,04
321,679	-0,05
322,142	-0,04
322,605	-0,06
323,068	-0,06
323,531	-0,06
323,994	-0,05
324,457	-0,04
324,92	-0,03
325,382	-0,03
325,845	-0,02
326,308	-0,02
326,771	-0,01
327,233	-0,01
327,696	0,01
328,159	0,02
328,622	0,03
329,084	0,02
329,547	0,03
330,009	0,03
330,472	0,04
330,934	0,04
331,397	0,06
331,859	0,07
332,322	0,07
332,784	0,06
333,246	0,07
333,709	0,07
334,171	0,08
334,633	0,08
335,096	0,07
335,558	0,08
336,02	0,07
336,482	0,07
336,944	0,07
337,406	0,08
337,868	0,09
338,331	0,09
338,793	0,1
339,255	0,11
339,717	0,11
340,178	0,13
340,64	0,13
341,102	0,14
341,564	0,16
342,026	0,18
342,488	0,18
342,949	0,2
343,411	0,24
343,873	0,26
344,335	0,3
344,796	0,34
345,258	0,38
345,719	0,43
346,181	0,48
346,643	0,53
347,104	0,57
347,566	0,61
348,027	0,64
348,488	0,66
348,95	0,68
349,411	0,71
349,873	0,74
350,334	0,76
350,795	0,78
351,256	0,79
351,718	0,8
352,179	0,81
352,64	0,82
353,101	0,82
353,562	0,82
354,023	0,83
354,484	0,83
354,945	0,83
355,406	0,84
355,867	0,84
356,328	0,84
356,789	0,86
357,25	0,86
357,711	0,86
358,172	0,86
358,633	0,86
359,093	0,87
359,554	0,87
360,015	0,87
360,476	0,87
360,936	0,87
361,397	0,87
361,858	0,87
362,318	0,87
362,779	0,87
363,239	0,87
363,7	0,87
364,16	0,87
364,621	0,87
365,081	0,87
365,541	0,87
366,002	0,87
366,462	0,87
366,922	0,87
367,383	0,87
367,843	0,87
368,303	0,87
368,763	0,87
369,223	0,87
369,684	0,87
370,144	0,87
370,604	0,87
371,064	0,87
371,524	0,87
371,984	0,87
372,444	0,87
372,904	0,87
373,363	0,87
373,823	0,87
374,283	0,87
374,743	0,87
375,203	0,87
375,663	0,87
376,122	0,87
376,582	0,87
377,042	0,87
377,501	0,87
377,961	0,87
378,42	0,87
378,88	0,87
379,34	0,87
379,799	0,87
380,259	0,86
380,718	0,86
381,177	0,86
381,637	0,86
382,096	0,86
382,555	0,86
383,015	0,86
383,474	0,86
383,933	0,86
384,393	0,86
384,852	0,86
385,311	0,86
385,77	0,86
386,229	0,86
386,688	0,86
387,147	0,86
387,606	0,86
388,065	0,86
388,524	0,86
388,983	0,86
389,442	0,86
389,901	0,86
390,36	0,86
390,819	0,86
391,277	0,86
391,736	0,85
392,195	0,85
392,654	0,85
393,112	0,85
393,571	0,85
394,03	0,85
394,488	0,85
394,947	0,85
395,405	0,85
395,864	0,85
396,322	0,85
396,781	0,85
397,239	0,85
397,698	0,85
398,156	0,85
398,614	0,85
399,073	0,85
399,531	0,85
399,989	0,85
400,447	0,85
400,905	0,85
401,364	0,85
401,822	0,85
402,28	0,85
402,738	0,85
403,196	0,85
403,654	0,85
404,112	0,84
404,57	0,84
405,028	0,84
405,486	0,84
405,944	0,84
406,402	0,84
406,859	0,84
407,317	0,84
407,775	0,84
408,233	0,84
408,691	0,84
409,148	0,84
409,606	0,84
410,064	0,84
410,521	0,84
410,979	0,84
411,436	0,84
411,894	0,84
412,351	0,84
412,809	0,84
413,266	0,84
413,724	0,84
414,181	0,84
414,638	0,84
415,096	0,84
415,553	0,84
416,01	0,84
416,467	0,84
416,925	0,84
417,382	0,84
417,839	0,84
418,296	0,84
418,753	0,84
419,21	0,84
419,667	0,84
420,124	0,84
420,581	0,84
421,038	0,84
421,495	0,84
421,952	0,84
422,409	0,84
422,866	0,84
423,322	0,84
423,779	0,84
424,236	0,84
424,693	0,84
425,149	0,84
425,606	0,84
426,063	0,84
426,519	0,84
426,976	0,84
427,433	0,84
427,889	0,84
428,346	0,84
428,802	0,84
429,258	0,84
429,715	0,84
430,171	0,84
430,628	0,84
431,084	0,84
431,54	0,84
431,997	0,84
432,453	0,84
432,909	0,84
433,365	0,83
433,821	0,83
434,277	0,83
434,734	0,83
435,19	0,83
435,646	0,83
436,102	0,83
436,558	0,83
437,014	0,83
437,47	0,83
437,925	0,83
438,381	0,83
438,837	0,83
439,293	0,84
439,749	0,84
440,205	0,84
440,66	0,83
441,116	0,84
441,572	0,84
442,027	0,84
442,483	0,84
442,939	0,84
443,394	0,84
443,85	0,84
444,305	0,84
444,761	0,84
445,216	0,84
445,672	0,84
446,127	0,84
446,582	0,84
447,038	0,84
447,493	0,84
447,948	0,84
448,403	0,84
448,859	0,84
449,314	0,84
449,769	0,84
450,224	0,84
450,679	0,84
451,134	0,84
451,589	0,84
452,044	0,84
452,499	0,84
452,954	0,84
453,409	0,84
453,864	0,84
454,319	0,84
454,774	0,84
455,229	0,84
455,684	0,84
456,138	0,84
456,593	0,84
457,048	0,84
457,503	0,84
457,957	0,85
458,412	0,85
458,866	0,85
459,321	0,85
459,776	0,85
460,23	0,85
460,685	0,85
461,139	0,85
461,593	0,85
462,048	0,85
462,502	0,86
462,957	0,86
463,411	0,86
463,865	0,86
464,319	0,86
464,774	0,86
465,228	0,86
465,682	0,86
466,136	0,86
466,59	0,86
467,044	0,86
467,499	0,86
467,953	0,87
468,407	0,87
468,861	0,87
469,315	0,87
469,768	0,87
470,222	0,87
470,676	0,87
471,13	0,87
471,584	0,87
472,038	0,87
472,491	0,87
472,945	0,88
473,399	0,88
473,852	0,88
474,306	0,88
474,76	0,88
475,213	0,88
475,667	0,88
476,12	0,88
476,574	0,89
477,027	0,89
477,481	0,89
477,934	0,89
478,388	0,89
478,841	0,89
479,294	0,9
479,748	0,9
480,201	0,9
480,654	0,9
481,107	0,91
481,561	0,91
482,014	0,91
482,467	0,91
482,92	0,91
483,373	0,91
483,826	0,92
484,279	0,92
484,732	0,92
485,185	0,92
485,638	0,93
486,091	0,93
486,544	0,93
486,997	0,93
487,449	0,93
487,902	0,94
488,355	0,94
488,808	0,94
489,26	0,95
489,713	0,95
490,166	0,95
490,618	0,96
491,071	0,96
491,523	0,96
491,976	0,97
492,429	0,97
492,881	0,97
493,333	0,98
493,786	0,98
494,238	0,98
494,691	0,99
495,143	0,99
495,595	1
496,048	1
496,5	1
496,952	1,01
497,404	1,01
497,856	1,01
498,309	1,02
498,761	1,02
499,213	1,03
499,665	1,03
500,117	1,04
500,569	1,04
501,021	1,05
501,473	1,05
501,925	1,05
502,377	1,06
502,828	1,06
503,28	1,07
503,732	1,07
504,184	1,08
504,636	1,08
505,087	1,08
505,539	1,09
505,991	1,09
506,442	1,1
506,894	1,1
507,345	1,11
507,797	1,11
508,249	1,11
508,7	1,12
509,151	1,12
509,603	1,13
510,054	1,13
510,506	1,14
510,957	1,14
511,408	1,15
511,86	1,15
512,311	1,15
512,762	1,16
513,213	1,16
513,665	1,16
514,116	1,17
514,567	1,17
515,018	1,17
515,469	1,18
515,92	1,18
516,371	1,18
516,822	1,19
517,273	1,19
517,724	1,19
518,175	1,2
518,626	1,2
519,076	1,2
519,527	1,21
519,978	1,21
520,429	1,21
520,88	1,21
521,33	1,22
521,781	1,22
522,232	1,22
522,682	1,22
523,133	1,22
523,583	1,22
524,034	1,23
524,484	1,23
524,935	1,23
525,385	1,23
525,836	1,23
526,286	1,23
526,736	1,23
527,187	1,23
527,637	1,23
528,087	1,23
528,538	1,23
528,988	1,22
529,438	1,22
529,888	1,22
530,338	1,22
530,788	1,22
531,238	1,22
531,688	1,22
532,139	1,21
532,589	1,21
533,038	1,21
533,488	1,21
533,938	1,21
534,388	1,2
534,838	1,2
535,288	1,2
535,738	1,19
536,187	1,19
536,637	1,19
537,087	1,18
537,537	1,18
537,986	1,17
538,436	1,17
538,885	1,16
539,335	1,16
539,785	1,15
540,234	1,15
540,684	1,14
541,133	1,14
541,582	1,13
542,032	1,12
542,481	1,12
542,931	1,11
543,38	1,1
543,829	1,1
544,278	1,09
544,728	1,09
545,177	1,08
545,626	1,08
546,075	1,07
546,524	1,07
546,973	1,06
547,422	1,06
547,871	1,05
548,32	1,05
548,769	1,05
549,218	1,04
549,667	1,04
550,116	1,03
550,565	1,03
551,014	1,03
551,463	1,02
551,911	1,02
552,36	1,01
552,809	1,01
553,258	1
553,706	0,99
554,155	0,99
554,603	0,99
555,052	0,98
555,501	0,97
555,949	0,97
556,398	0,96
556,846	0,96
557,294	0,95
557,743	0,95
558,191	0,94
558,64	0,93
559,088	0,93
559,536	0,92
559,985	0,92
560,433	0,91
560,881	0,91
561,329	0,9
561,777	0,9
562,225	0,89
562,674	0,89
563,122	0,88
563,57	0,88
564,018	0,87
564,466	0,87
564,914	0,86
565,362	0,86
565,809	0,85
566,257	0,85
566,705	0,84
567,153	0,84
567,601	0,83
568,048	0,83
568,496	0,82
568,944	0,82
569,392	0,82
569,839	0,81
570,287	0,81
570,734	0,8
571,182	0,8
571,63	0,8
572,077	0,79
572,525	0,79
572,972	0,78
573,419	0,78
573,867	0,78
574,314	0,77
574,761	0,77
575,209	0,76
575,656	0,76
576,103	0,75
576,551	0,75
576,998	0,75
577,445	0,74
577,892	0,74
578,339	0,74
578,786	0,73
579,233	0,73
579,68	0,73
580,127	0,72
580,574	0,72
581,021	0,72
581,468	0,71
581,915	0,71
582,362	0,71
582,809	0,7
583,255	0,7
583,702	0,7
584,149	0,7
584,596	0,69
585,042	0,69
585,489	0,68
585,936	0,68
586,382	0,68
586,829	0,68
587,275	0,68
587,722	0,67
588,168	0,67
588,615	0,67
589,061	0,66
589,508	0,66
589,954	0,66
590,4	0,66
590,847	0,66
591,293	0,65
591,739	0,65
592,185	0,65
592,632	0,65
593,078	0,65
593,524	0,65
593,97	0,64
594,416	0,64
594,862	0,64
595,308	0,64
595,754	0,64
596,2	0,63
596,646	0,63
597,092	0,63
597,538	0,63
597,984	0,62
598,43	0,62
598,876	0,62
599,321	0,62
599,767	0,62
600,213	0,62
600,659	0,62
601,104	0,61
601,55	0,61
601,995	0,61
602,441	0,61
602,887	0,61
603,332	0,61
603,778	0,6
604,223	0,6
604,668	0,6
605,114	0,6
605,559	0,6
606,005	0,6
606,45	0,6
606,895	0,6
607,341	0,6
607,786	0,59
608,231	0,59
608,676	0,59
609,121	0,58
609,566	0,57
610,012	0,57
610,457	0,56
610,902	0,56
611,347	0,55
611,792	0,55
612,237	0,55
612,682	0,55
613,127	0,55
613,571	0,55
614,016	0,55
614,461	0,56
614,906	0,56
615,351	0,56
615,795	0,56
616,24	0,56
616,685	0,56
617,129	0,56
617,574	0,56
618,019	0,56
618,463	0,56
618,908	0,56
619,352	0,56
619,797	0,56
620,241	0,56
620,686	0,56
621,13	0,56
621,574	0,56
622,019	0,56
622,463	0,55
622,907	0,55
623,352	0,55
623,796	0,55
624,24	0,55
624,684	0,55
625,128	0,55
625,572	0,55
626,016	0,55
626,461	0,55
626,905	0,55
627,349	0,55
627,793	0,55
628,236	0,55
628,68	0,54
629,124	0,54
629,568	0,54
630,012	0,54
630,456	0,54
630,9	0,54
631,343	0,54
631,787	0,54
632,231	0,54
632,674	0,54
633,118	0,54
633,562	0,54
634,005	0,54
634,449	0,54
634,892	0,54
635,336	0,54
635,779	0,54
636,223	0,54
636,666	0,54
637,109	0,54
637,553	0,53
637,996	0,53
638,439	0,53
638,883	0,53
639,326	0,53
639,769	0,53
640,212	0,53
640,655	0,53
641,099	0,53
641,542	0,53
641,985	0,53
642,428	0,53
642,871	0,53
643,314	0,53
643,757	0,53
644,2	0,53
644,643	0,53
645,085	0,53
645,528	0,53
645,971	0,53
646,414	0,52
646,857	0,52
647,299	0,52
647,742	0,52
648,185	0,52
648,627	0,52
649,07	0,52
649,513	0,52
649,955	0,52
650,398	0,52
650,84	0,52
651,283	0,52
651,725	0,52
652,168	0,52
652,61	0,52
653,052	0,52
653,495	0,51
653,937	0,43
654,379	0,37
654,821	0,38
655,264	0,38
655,706	0,38
656,148	0,38
656,59	0,38
657,032	0,38
657,474	0,38
657,916	0,38
658,358	0,37
658,8	0,43
659,242	0,52
659,684	0,52
660,126	0,51
660,568	0,51
661,01	0,51
661,452	0,51
661,894	0,51
662,335	0,51
662,777	0,51
663,219	0,51
663,661	0,51
664,102	0,51
664,544	0,51
664,985	0,51
665,427	0,51
665,869	0,51
666,31	0,51
666,752	0,51
667,193	0,51
667,634	0,51
668,076	0,51
668,517	0,51
668,959	0,51
669,4	0,51
669,841	0,51
670,282	0,51
670,724	0,51
671,165	0,51
671,606	0,51
672,047	0,51
672,488	0,51
672,929	0,51
673,37	0,51
673,811	0,51
674,252	0,5
674,693	0,5
675,134	0,5
675,575	0,5
676,016	0,5
676,457	0,5
676,898	0,5
677,339	0,5
677,78	0,5
678,22	0,5
678,661	0,5
679,102	0,5
679,542	0,5
679,983	0,5
680,424	0,5
680,864	0,5
681,305	0,51
681,745	0,51
682,186	0,51
682,626	0,51
683,067	0,51
683,507	0,51
683,948	0,51
684,388	0,51
684,828	0,51
685,269	0,5
685,709	0,5
686,149	0,5
686,589	0,5
687,029	0,5
687,47	0,5
687,91	0,5
688,35	0,5
688,79	0,5
689,23	0,5
689,67	0,5
690,11	0,5
690,55	0,5
690,99	0,49
691,43	0,49
691,87	0,49
692,31	0,49
692,749	0,49
693,189	0,49
693,629	0,49
694,069	0,49
694,508	0,49
694,948	0,49
695,388	0,49
695,827	0,49
696,267	0,49
696,706	0,49
697,146	0,49
697,586	0,49
698,025	0,49
698,464	0,49
698,904	0,49
699,343	0,49
699,783	0,5
700,222	0,5
700,661	0,5
701,101	0,5
701,54	0,5
701,979	0,49
702,418	0,5
702,857	0,5
703,297	0,5
703,736	0,5
704,175	0,5
704,614	0,5
705,053	0,49
705,492	0,49
705,931	0,49
706,37	0,49
706,809	0,49
707,248	0,49
707,687	0,49
708,125	0,49
708,564	0,49
709,003	0,49
709,442	0,49
709,88	0,48
710,319	0,48
710,758	0,48
711,196	0,48
711,635	0,48
712,074	0,48
712,512	0,48
712,951	0,48
713,389	0,48
713,828	0,48
714,266	0,48
714,705	0,48
715,143	0,48
715,581	0,48
716,02	0,48
716,458	0,48
716,896	0,48
717,334	0,48
717,773	0,48
718,211	0,48
718,649	0,48
719,087	0,48
719,525	0,48
719,963	0,48
720,401	0,48
720,839	0,48
721,277	0,48
721,715	0,48
722,153	0,48
722,591	0,48
723,029	0,48
723,467	0,48
723,905	0,48
724,342	0,48
724,78	0,48
725,218	0,48
725,656	0,48
726,093	0,48
726,531	0,48
726,969	0,48
727,406	0,48
727,844	0,48
728,281	0,48
728,719	0,48
729,156	0,48
729,594	0,48
730,031	0,48
730,469	0,48
730,906	0,47
731,343	0,47
731,781	0,47
732,218	0,47
732,655	0,47
733,092	0,47
733,53	0,47
733,967	0,47
734,404	0,47
734,841	0,47
735,278	0,47
735,715	0,47
736,152	0,47
736,589	0,47
737,026	0,47
737,463	0,47
737,9	0,47
738,337	0,47
738,774	0,47
739,211	0,47
739,647	0,47
740,084	0,47
740,521	0,47
740,958	0,47
741,394	0,47
741,831	0,47
742,268	0,47
742,704	0,47
743,141	0,47
743,577	0,47
744,014	0,47
744,45	0,47
744,887	0,47
745,323	0,47
745,76	0,47
746,196	0,47
746,632	0,46
747,069	0,46
747,505	0,46
747,941	0,46
748,378	0,46
748,814	0,46
749,25	0,46
749,686	0,47
750,122	0,47
750,558	0,47
750,994	0,47
751,43	0,47
751,866	0,47
752,302	0,47
752,738	0,47
753,174	0,47
753,61	0,47
754,046	0,47
754,482	0,46
754,918	0,46
755,354	0,46
755,789	0,46
756,225	0,46
756,661	0,46
757,096	0,46
757,532	0,46
757,968	0,46
758,403	0,45
758,839	0,45
759,274	0,45
759,71	0,44
760,145	0,44
760,581	0,43
761,016	0,43
761,452	0,42
761,887	0,42
762,322	0,41
762,758	0,41
763,193	0,4
763,628	0,4
764,063	0,39
764,499	0,38
764,934	0,38
765,369	0,37
765,804	0,36
766,239	0,35
766,674	0,35
767,109	0,34
767,544	0,33
767,979	0,32
768,414	0,31
768,849	0,3
769,284	0,3
769,719	0,29
770,154	0,28
770,588	0,27
771,023	0,25
771,458	0,24
771,893	0,23
772,327	0,21
772,762	0,2
773,197	0,19
773,631	0,18
774,066	0,17
774,5	0,16
774,935	0,15
775,369	0,14
775,804	0,13
776,238	0,12
776,673	0,11
777,107	0,1
777,541	0,09
777,976	0,08
778,41	0,08
778,844	0,06
779,279	0,06
779,713	0,05
780,147	0,03
780,581	0,03
781,015	0,02
781,449	0,01
781,883	0
782,317	-0,02
782,751	-0,02
783,185	-0,03
783,619	-0,04
784,053	-0,05
784,487	-0,06
784,921	-0,06
785,355	-0,07
785,789	-0,08
786,223	-0,09
786,656	-0,1
787,09	-0,11
787,524	-0,12
787,957	-0,13
788,391	-0,15
788,825	-0,17
789,258	-0,19
789,692	-0,2
790,125	-0,22
790,559	-0,24
790,992	-0,26
791,426	-0,28
791,859	-0,29
792,293	-0,32
792,726	-0,34
793,159	-0,36
793,593	-0,37
794,026	-0,39
794,459	-0,42
794,892	-0,44
795,326	-0,47
795,759	-0,5
796,192	-0,55
796,625	-0,59
797,058	-0,62
797,491	-0,66
797,924	-0,7
798,357	-0,75
798,79	-0,79
799,223	-0,83
799,656	-0,88
800,089	-0,93
800,522	-0,97
800,955	-1,01
801,387	-1,07
801,82	-1,12
802,253	-1,19
802,686	-1,27
803,118	-1,32
803,551	-1,37
803,984	-1,42
804,416	-1,45
804,849	-1,48
805,281	-1,58
805,714	-1,93
806,146	-2,4
806,579	-2,68
807,011	-2,85
807,444	-2,95
807,876	-3,04
808,308	-3,08
808,741	-3,11
809,173	-3,16
809,605	-3,18
810,037	-3,26
810,47	-3,18
810,902	-2,99
811,334	-2,84
811,766	-2,69
812,198	-2,45
812,63	-2,01
813,062	-1,78
813,494	-1,68
813,926	-1,59
814,358	-1,54
814,79	-1,46
815,222	-1,4
815,654	-1,35
816,086	-1,29
816,518	-1,23
816,949	-1,18
817,381	-1,14
817,813	-1,12
818,245	-1,08
818,676	-1,04
819,108	-1,01
819,54	-0,99
819,971	-0,97
820,403	-0,92
820,834	-0,91
821,266	-0,86
821,697	-0,84
822,129	-0,83
822,56	-0,8
822,991	-0,78
823,423	-0,75
823,854	-0,75
824,286	-0,72
824,717	-0,71
825,148	-0,69
825,579	-0,68
826,01	-0,67
826,442	-0,66
826,873	-0,65
827,304	-0,62
827,735	-0,61
828,166	-0,61
828,597	-0,6
829,028	-0,59
829,459	-0,6
829,89	-0,6
830,321	-0,56
830,752	-0,57
831,183	-0,56
831,613	-0,55
832,044	-0,55
832,475	-0,54
832,906	-0,56
833,336	-0,56
833,767	-0,56
834,198	-0,55
834,628	-0,53
835,059	-0,55
835,49	-0,55
835,92	-0,52
836,351	-0,52
836,781	-0,53
837,212	-0,53
837,642	-0,53
838,072	-0,51
838,503	-0,52
838,933	-0,5
839,364	-0,51
839,794	-0,5
840,224	-0,49
840,654	-0,54
841,085	-0,54
841,515	-0,52
841,945	-0,52
842,375	-0,48
842,805	-0,48
843,235	-0,46
843,665	-0,47
844,095	-0,46
844,525	-0,48
844,955	-0,48
845,385	-0,45
845,815	-0,44
846,245	-0,45
846,675	-0,47
847,105	-0,48
847,534	-0,48
847,964	-0,46
848,394	-0,46
848,824	-0,49
849,253	-0,48
849,683	-0,48
850,112	-0,5
850,542	-0,53
850,972	-0,54
851,401	-0,51
851,831	-0,49
852,26	-0,5
852,69	-0,54
853,119	-0,53
853,548	-0,54
853,978	-0,54
854,407	-0,52
854,836	-0,52
855,266	-0,51
855,695	-0,52
856,124	-0,53
856,553	-0,55
856,983	-0,56
857,412	-0,55
857,841	-0,56
858,27	-0,57
858,699	-0,58
859,128	-0,61
859,557	-0,62
859,986	-0,63
860,415	-0,61
860,844	-0,59
861,273	-0,59
861,702	-0,6
862,13	-0,58
862,559	-0,59
862,988	-0,57
863,417	-0,55
863,845	-0,54
864,274	-0,55
864,703	-0,55
865,131	-0,55
865,56	-0,56
865,989	-0,59
866,417	-0,55
866,846	-0,56
867,274	-0,56
867,703	-0,58
868,131	-0,59
868,559	-0,59
868,988	-0,61
869,416	-0,6
869,844	-0,61
870,273	-0,63
870,701	-0,61
871,129	-0,65
871,557	-0,67
871,986	-0,67
872,414	-0,69
872,842	-0,66
873,27	-0,64
873,698	-0,61
874,126	-0,65
874,554	-0,63
874,982	-0,62
875,41	-0,65
875,838	-0,6
876,266	-0,58
876,694	-0,58
877,122	-0,56
877,549	-0,63
877,977	-0,6
878,405	-0,63
878,833	-0,59
879,26	-0,59
879,688	-0,59
880,116	-0,57
880,543	-0,56
880,971	-0,55
881,399	-0,58
881,826	-0,59
882,254	-0,57
882,681	-0,6
883,109	-0,56
883,536	-0,58
883,963	-0,6
884,391	-0,58
884,818	-0,56
885,245	-0,6
885,673	-0,61
886,1	-0,58
886,527	-0,58
886,954	-0,54
887,381	-0,55
887,809	-0,57
888,236	-0,58
888,663	-0,58
889,09	-0,63
889,517	-0,66
889,944	-0,65
890,371	-0,65
890,798	-0,65
891,225	-0,65
891,652	-0,68
892,078	-0,66
892,505	-0,69
892,932	-0,65
893,359	-0,65
893,786	-0,65
894,212	-0,61
894,639	-0,62
895,066	-0,64
895,492	-0,58
895,919	-0,58
896,346	-0,57
896,772	-0,57
897,199	-0,53
897,625	-0,56
898,052	-0,53
898,478	-0,51
898,904	-0,53
899,331	-0,52
899,757	-0,53
900,183	-0,55
900,61	-0,53
901,036	-0,53
901,462	-0,53
901,888	-0,53
902,315	-0,52
902,741	-0,56
903,167	-0,55
903,593	-0,57
904,019	-0,55
904,445	-0,52
904,871	-0,54
905,297	-0,57
905,723	-0,57
906,149	-0,55
906,575	-0,57
907,001	-0,57
907,427	-0,54
907,852	-0,54
908,278	-0,54
908,704	-0,52
909,13	-0,52
909,555	-0,52
909,981	-0,5
910,407	-0,51
910,832	-0,5
911,258	-0,5
911,684	-0,51
912,109	-0,51
912,535	-0,53
912,96	-0,49
913,386	-0,53
913,811	-0,54
914,236	-0,56
914,662	-0,55
915,087	-0,58
915,512	-0,58
915,938	-0,6
916,363	-0,59
916,788	-0,6
917,213	-0,58
917,639	-0,63
918,064	-0,6
918,489	-0,6
918,914	-0,6
919,339	-0,62
919,764	-0,59
920,189	-0,6
920,614	-0,62
921,039	-0,62
921,464	-0,58
921,889	-0,61
922,314	-0,62
922,738	-0,65
923,163	-0,66
923,588	-0,65
924,013	-0,64
924,437	-0,64
924,862	-0,64
925,287	-0,6
925,711	-0,6
926,136	-0,62
926,561	-0,61
926,985	-0,6
927,41	-0,56
927,834	-0,54
928,259	-0,52
928,683	-0,51
929,108	-0,48
929,532	-0,49
929,956	-0,48
930,381	-0,49
930,805	-0,48
931,229	-0,47
931,653	-0,45
932,078	-0,45
932,502	-0,46
932,926	-0,46
933,35	-0,46
933,774	-0,45
934,198	-0,43
934,622	-0,43
935,046	-0,43
935,47	-0,44
935,894	-0,43
936,318	-0,43
936,742	-0,43
937,166	-0,43
937,59	-0,43
938,014	-0,45
938,437	-0,46
938,861	-0,49
939,285	-0,49
939,709	-0,48
940,132	-0,48
940,556	-0,49
940,98	-0,48
941,403	-0,47
941,827	-0,47
942,25	-0,48
942,674	-0,46
943,097	-0,46
943,521	-0,46
943,944	-0,47
944,368	-0,46
944,791	-0,45
945,214	-0,47
945,638	-0,47
946,061	-0,5
946,484	-0,51
946,907	-0,5
947,331	-0,5
947,754	-0,53
948,177	-0,51
948,6	-0,5
949,023	-0,51
949,446	-0,51
949,869	-0,49
950,292	-0,49
950,715	-0,46
951,138	-0,45
951,561	-0,43
951,984	-0,44
952,407	-0,43
952,83	-0,42
953,252	-0,39
953,675	-0,38
954,098	-0,39
954,521	-0,38
954,943	-0,37
955,366	-0,37
955,789	-0,35
956,211	-0,37
956,634	-0,37
957,056	-0,35
957,479	-0,35
957,902	-0,37
958,324	-0,37
958,746	-0,35
959,169	-0,37
959,591	-0,37
960,014	-0,38
960,436	-0,38
960,858	-0,38
961,281	-0,37
961,703	-0,38
962,125	-0,39
962,547	-0,37
962,969	-0,37
963,391	-0,38
963,814	-0,38
964,236	-0,38
964,658	-0,34
965,08	-0,35
965,502	-0,34
965,924	-0,32
966,346	-0,32
966,768	-0,31
967,189	-0,34
967,611	-0,34
968,033	-0,33
968,455	-0,31
968,877	-0,32
969,298	-0,34
969,72	-0,34
970,142	-0,34
970,563	-0,35
970,985	-0,33
971,407	-0,31
971,828	-0,29
972,25	-0,27
972,671	-0,27
973,093	-0,27
973,514	-0,25
973,936	-0,23
974,357	-0,21
974,778	-0,21
975,2	-0,2
975,621	-0,2
976,042	-0,18
976,464	-0,17
976,885	-0,16
977,306	-0,15
977,727	-0,15
978,148	-0,14
978,57	-0,13
978,991	-0,11
979,412	-0,1
979,833	-0,09
980,254	-0,08
980,675	-0,08
981,096	-0,08
981,517	-0,06
981,937	-0,06
982,358	-0,03
982,779	-0,01
983,2	-0,01
983,621	-0,01
984,042	0,01
984,462	0,02
984,883	0,04
985,304	0,06
985,724	0,08
986,145	0,09
986,565	0,11
986,986	0,11
987,407	0,13
987,827	0,14
988,248	0,16
988,668	0,17
989,088	0,19
989,509	0,2
989,929	0,21
990,35	0,22
990,77	0,23
991,19	0,24
991,61	0,26
992,031	0,27
992,451	0,27
992,871	0,28
993,291	0,29
993,711	0,3
994,131	0,31
994,551	0,31
994,971	0,32
995,391	0,33
995,811	0,34
996,231	0,34
996,651	0,34
997,071	0,35
997,491	0,36
997,911	0,37
998,331	0,38
998,75	0,39
999,17	0,39
999,59	0,4
1000,009	0,41
1000,429	0,41
1000,849	0,42
1001,268	0,43
1001,688	0,43
1002,107	0,43
1002,527	0,44
1002,946	0,44
1003,366	0,44
1003,785	0,45
1004,205	0,45
1004,624	0,45
1005,044	0,46
1005,463	0,46
1005,882	0,46
1006,301	0,46
1006,721	0,47
1007,14	0,47
1007,559	0,47
1007,978	0,47
1008,397	0,47
1008,816	0,47
1009,235	0,47
1009,655	0,47
1010,074	0,47
1010,492	0,47
1010,911	0,47
1011,33	0,47
1011,749	0,47
1012,168	0,46
1012,587	0,46
1013,006	0,46
1013,425	0,46
1013,843	0,46
1014,262	0,46
1014,681	0,46
1015,099	0,46
1015,518	0,46
1015,937	0,46
1016,355	0,46
1016,774	0,46
1017,192	0,46
1017,611	0,46
1018,029	0,46
1018,448	0,46
1018,866	0,46
1019,285	0,46
1019,703	0,46
1020,121	0,46
1020,54	0,46
1020,958	0,46
1021,376	0,46
1021,794	0,46
1022,213	0,46
1022,631	0,46
1023,049	0,46
1023,467	0,46
1023,885	0,46
1024,303	0,46
1024,721	0,45
1025,139	0,45
1025,557	0,45
1025,975	0,45
1026,393	0,45
1026,811	0,45
1027,229	0,45
1027,647	0,45
1028,065	0,45
1028,482	0,44
1028,9	0,44
1029,318	0,44
1029,735	0,44
1030,153	0,44
1030,571	0,44
1030,988	0,44
1031,406	0,44
1031,823	0,44
1032,241	0,44
1032,659	0,44
1033,076	0,44
1033,493	0,44
1033,911	0,44
1034,328	0,44
1034,746	0,45
1035,163	0,45
1035,58	0,45
1035,997	0,45
1036,415	0,45
1036,832	0,45
1037,249	0,45
1037,666	0,45
1038,083	0,45
1038,501	0,44
1038,918	0,44
1039,335	0,45
1039,752	0,45
1040,169	0,45
1040,586	0,45
1041,003	0,44
1041,419	0,44
1041,836	0,45
1042,253	0,45
1042,67	0,45
1043,087	0,44
1043,504	0,44
1043,92	0,44
1044,337	0,44
1044,754	0,44
1045,17	0,44
1045,587	0,44
1046,004	0,44
1046,42	0,44
1046,837	0,44
1047,253	0,44
1047,67	0,44
1048,086	0,44
1048,503	0,44
1048,919	0,44
1049,335	0,44
1049,752	0,44
1050,168	0,44
1050,584	0,44
1051,001	0,44
1051,417	0,44
1051,833	0,44
1052,249	0,44
1052,665	0,44
1053,081	0,45
1053,497	0,45
1053,914	0,45
1054,33	0,45
1054,746	0,45
1055,162	0,45
1055,578	0,45
1055,993	0,45
1056,409	0,46
1056,825	0,46
1057,241	0,46
1057,657	0,46
1058,073	0,46
1058,488	0,46
1058,904	0,46
1059,32	0,46
1059,736	0,46
1060,151	0,46
1060,567	0,46
1060,982	0,46
1061,398	0,46
1061,813	0,46
1062,229	0,46
1062,644	0,46
1063,06	0,45
1063,475	0,45
1063,891	0,45
1064,306	0,45
1064,721	0,45
1065,137	0,45
1065,552	0,45
1065,967	0,45
1066,382	0,45
1066,798	0,45
1067,213	0,45
1067,628	0,45
1068,043	0,45
1068,458	0,45
1068,873	0,45
1069,288	0,45
1069,703	0,45
1070,118	0,45
1070,533	0,45
1070,948	0,45
1071,363	0,45
1071,778	0,46
1072,193	0,46
1072,607	0,46
1073,022	0,46
1073,437	0,46
1073,852	0,46
1074,266	0,46
1074,681	0,46
1075,096	0,46
1075,51	0,46
1075,925	0,46
1076,339	0,46
1076,754	0,45
1077,168	0,45
1077,583	0,45
1077,997	0,45
1078,412	0,45
1078,826	0,45
1079,24	0,45
1079,655	0,45
1080,069	0,45
1080,483	0,44
1080,897	0,44
1081,312	0,44
1081,726	0,44
1082,14	0,44
1082,554	0,44
1082,968	0,44
1083,382	0,44
1083,796	0,43
1084,21	0,43
1084,624	0,43
1085,038	0,43
1085,452	0,43
1085,866	0,43
1086,28	0,43
1086,694	0,43
1087,108	0,43
1087,521	0,42
1087,935	0,42
1088,349	0,42
1088,763	0,42
1089,176	0,41
1089,59	0,41
1090,004	0,41
1090,417	0,4
1090,831	0,4
1091,244	0,4
1091,658	0,39
1092,071	0,39
1092,485	0,39
1092,898	0,38
1093,312	0,38
1093,725	0,38
1094,138	0,38
1094,552	0,38
1094,965	0,37
1095,378	0,37
1095,791	0,37
1096,205	0,36
1096,618	0,36
1097,031	0,36
1097,444	0,35
1097,857	0,35
1098,27	0,35
1098,683	0,34
1099,096	0,34
1099,509	0,34
1099,922	0,33
1100,335	0,33
1100,748	0,32
1101,161	0,31
1101,574	0,31
1101,986	0,31
1102,399	0,31
1102,812	0,3
1103,225	0,3
1103,637	0,3
1104,05	0,29
1104,463	0,29
1104,875	0,29
1105,288	0,29
1105,7	0,28
1106,113	0,28
1106,525	0,27
1106,938	0,27
1107,35	0,26
1107,763	0,26
1108,175	0,26
1108,588	0,26
1109	0,26
1109,412	0,25
1109,824	0,26
1110,237	0,26
1110,649	0,26
1111,061	0,26
