Data from 18C-808nm-8A-cont_Absorbance__514__01943.txt Node

Date: Mon Jul 17 17:38:00 CEST 2023
User: Laser008
Spectrometer: MAYP115816
Trigger mode: 0
Integration Time (sec): 2,500000E-1
Scans to average: 10
Electric dark correction enabled: true
Nonlinearity correction enabled: true
Boxcar width: 5
XAxis mode: Wavelengths
Number of Pixels in Spectrum: 2068
>>>>>Begin Spectral Data<<<<<
198,914	-0,73
199,384	-0,5
199,855	-0,38
200,325	-0,28
200,796	-0,24
201,266	-0,19
201,737	-0,18
202,207	-0,17
202,677	-0,16
203,147	-0,15
203,618	-0,11
204,088	-0,09
204,558	-0,07
205,028	-0,06
205,498	-0,07
205,968	-0,06
206,439	-0,08
206,909	-0,07
207,379	-0,07
207,849	-0,08
208,319	-0,08
208,789	-0,09
209,258	-0,09
209,728	-0,11
210,198	-0,11
210,668	-0,11
211,138	-0,11
211,608	-0,11
212,077	-0,12
212,547	-0,11
213,017	-0,12
213,486	-0,12
213,956	-0,12
214,426	-0,13
214,895	-0,12
215,365	-0,13
215,834	-0,14
216,304	-0,15
216,773	-0,15
217,243	-0,15
217,712	-0,17
218,181	-0,17
218,651	-0,17
219,12	-0,17
219,589	-0,17
220,058	-0,16
220,528	-0,18
220,997	-0,18
221,466	-0,19
221,935	-0,2
222,404	-0,2
222,873	-0,18
223,342	-0,18
223,812	-0,17
224,281	-0,17
224,749	-0,18
225,218	-0,19
225,687	-0,19
226,156	-0,17
226,625	-0,16
227,094	-0,15
227,563	-0,16
228,031	-0,17
228,5	-0,17
228,969	-0,18
229,438	-0,17
229,906	-0,16
230,375	-0,15
230,844	-0,15
231,312	-0,16
231,781	-0,17
232,249	-0,16
232,718	-0,16
233,186	-0,14
233,655	-0,14
234,123	-0,13
234,591	-0,14
235,06	-0,14
235,528	-0,14
235,996	-0,13
236,465	-0,12
236,933	-0,12
237,401	-0,12
237,869	-0,11
238,337	-0,11
238,805	-0,1
239,274	-0,1
239,742	-0,1
240,21	-0,09
240,678	-0,09
241,146	-0,08
241,614	-0,09
242,081	-0,08
242,549	-0,08
243,017	-0,09
243,485	-0,09
243,953	-0,1
244,421	-0,09
244,888	-0,09
245,356	-0,1
245,824	-0,1
246,291	-0,11
246,759	-0,12
247,227	-0,12
247,694	-0,11
248,162	-0,11
248,629	-0,09
249,097	-0,1
249,564	-0,11
250,032	-0,12
250,499	-0,11
250,967	-0,11
251,434	-0,12
251,901	-0,11
252,369	-0,11
252,836	-0,12
253,303	-0,13
253,77	-0,15
254,237	-0,13
254,705	-0,14
255,172	-0,14
255,639	-0,14
256,106	-0,15
256,573	-0,16
257,04	-0,16
257,507	-0,17
257,974	-0,17
258,441	-0,15
258,908	-0,16
259,375	-0,17
259,841	-0,17
260,308	-0,17
260,775	-0,17
261,242	-0,16
261,709	-0,16
262,175	-0,18
262,642	-0,17
263,109	-0,17
263,575	-0,19
264,042	-0,17
264,508	-0,17
264,975	-0,18
265,441	-0,19
265,908	-0,2
266,374	-0,19
266,841	-0,19
267,307	-0,19
267,773	-0,19
268,24	-0,19
268,706	-0,19
269,172	-0,2
269,639	-0,22
270,105	-0,2
270,571	-0,21
271,037	-0,2
271,503	-0,21
271,969	-0,2
272,435	-0,2
272,902	-0,21
273,368	-0,22
273,834	-0,21
274,3	-0,22
274,765	-0,22
275,231	-0,23
275,697	-0,21
276,163	-0,21
276,629	-0,21
277,095	-0,23
277,56	-0,22
278,026	-0,22
278,492	-0,2
278,958	-0,2
279,423	-0,19
279,889	-0,2
280,354	-0,2
280,82	-0,2
281,286	-0,21
281,751	-0,22
282,217	-0,21
282,682	-0,21
283,147	-0,22
283,613	-0,22
284,078	-0,22
284,544	-0,23
285,009	-0,23
285,474	-0,22
285,939	-0,24
286,405	-0,23
286,87	-0,23
287,335	-0,22
287,8	-0,22
288,265	-0,21
288,73	-0,22
289,195	-0,24
289,66	-0,24
290,125	-0,22
290,59	-0,23
291,055	-0,22
291,52	-0,22
291,985	-0,22
292,45	-0,23
292,915	-0,23
293,38	-0,23
293,844	-0,22
294,309	-0,2
294,774	-0,19
295,239	-0,21
295,703	-0,21
296,168	-0,2
296,632	-0,2
297,097	-0,18
297,562	-0,17
298,026	-0,17
298,491	-0,18
298,955	-0,17
299,419	-0,17
299,884	-0,16
300,348	-0,15
300,813	-0,14
301,277	-0,15
301,741	-0,15
302,205	-0,15
302,67	-0,14
303,134	-0,14
303,598	-0,13
304,062	-0,12
304,526	-0,12
304,99	-0,12
305,454	-0,13
305,919	-0,12
306,383	-0,12
306,847	-0,11
307,31	-0,12
307,774	-0,13
308,238	-0,13
308,702	-0,13
309,166	-0,14
309,63	-0,15
310,094	-0,12
310,557	-0,12
311,021	-0,11
311,485	-0,12
311,948	-0,12
312,412	-0,11
312,876	-0,1
313,339	-0,11
313,803	-0,11
314,266	-0,09
314,73	-0,09
315,193	-0,09
315,657	-0,09
316,12	-0,08
316,584	-0,07
317,047	-0,07
317,51	-0,06
317,973	-0,05
318,437	-0,04
318,9	-0,03
319,363	-0,02
319,826	-0,02
320,29	-0,03
320,753	-0,04
321,216	-0,04
321,679	-0,04
322,142	-0,04
322,605	-0,06
323,068	-0,06
323,531	-0,06
323,994	-0,06
324,457	-0,05
324,92	-0,04
325,382	-0,04
325,845	-0,03
326,308	-0,03
326,771	-0,02
327,233	-0,01
327,696	0
328,159	0
328,622	0,02
329,084	0,02
329,547	0,02
330,009	0,02
330,472	0,04
330,934	0,04
331,397	0,04
331,859	0,04
332,322	0,04
332,784	0,05
333,246	0,06
333,709	0,05
334,171	0,05
334,633	0,05
335,096	0,05
335,558	0,05
336,02	0,05
336,482	0,05
336,944	0,07
337,406	0,07
337,868	0,08
338,331	0,09
338,793	0,1
339,255	0,11
339,717	0,12
340,178	0,13
340,64	0,14
341,102	0,15
341,564	0,16
342,026	0,17
342,488	0,18
342,949	0,2
343,411	0,22
343,873	0,25
344,335	0,28
344,796	0,32
345,258	0,37
345,719	0,41
346,181	0,47
346,643	0,52
347,104	0,56
347,566	0,6
348,027	0,63
348,488	0,66
348,95	0,68
349,411	0,71
349,873	0,74
350,334	0,77
350,795	0,79
351,256	0,8
351,718	0,81
352,179	0,82
352,64	0,82
353,101	0,83
353,562	0,83
354,023	0,83
354,484	0,84
354,945	0,84
355,406	0,85
355,867	0,85
356,328	0,85
356,789	0,86
357,25	0,86
357,711	0,86
358,172	0,87
358,633	0,87
359,093	0,87
359,554	0,87
360,015	0,87
360,476	0,87
360,936	0,88
361,397	0,88
361,858	0,88
362,318	0,88
362,779	0,88
363,239	0,88
363,7	0,88
364,16	0,88
364,621	0,88
365,081	0,88
365,541	0,88
366,002	0,88
366,462	0,88
366,922	0,88
367,383	0,88
367,843	0,88
368,303	0,88
368,763	0,88
369,223	0,88
369,684	0,88
370,144	0,88
370,604	0,88
371,064	0,88
371,524	0,88
371,984	0,88
372,444	0,88
372,904	0,88
373,363	0,88
373,823	0,88
374,283	0,88
374,743	0,88
375,203	0,88
375,663	0,88
376,122	0,88
376,582	0,88
377,042	0,88
377,501	0,88
377,961	0,88
378,42	0,88
378,88	0,88
379,34	0,88
379,799	0,88
380,259	0,88
380,718	0,88
381,177	0,88
381,637	0,88
382,096	0,88
382,555	0,88
383,015	0,87
383,474	0,87
383,933	0,87
384,393	0,87
384,852	0,87
385,311	0,87
385,77	0,87
386,229	0,87
386,688	0,87
387,147	0,87
387,606	0,87
388,065	0,87
388,524	0,87
388,983	0,87
389,442	0,87
389,901	0,87
390,36	0,87
390,819	0,87
391,277	0,87
391,736	0,87
392,195	0,87
392,654	0,87
393,112	0,87
393,571	0,87
394,03	0,87
394,488	0,87
394,947	0,87
395,405	0,87
395,864	0,87
396,322	0,86
396,781	0,86
397,239	0,86
397,698	0,86
398,156	0,86
398,614	0,86
399,073	0,86
399,531	0,86
399,989	0,86
400,447	0,86
400,905	0,86
401,364	0,86
401,822	0,86
402,28	0,86
402,738	0,86
403,196	0,86
403,654	0,86
404,112	0,86
404,57	0,86
405,028	0,86
405,486	0,86
405,944	0,86
406,402	0,86
406,859	0,86
407,317	0,86
407,775	0,86
408,233	0,86
408,691	0,86
409,148	0,86
409,606	0,86
410,064	0,86
410,521	0,86
410,979	0,86
411,436	0,86
411,894	0,86
412,351	0,86
412,809	0,86
413,266	0,86
413,724	0,86
414,181	0,85
414,638	0,85
415,096	0,85
415,553	0,85
416,01	0,85
416,467	0,85
416,925	0,85
417,382	0,85
417,839	0,85
418,296	0,85
418,753	0,85
419,21	0,85
419,667	0,85
420,124	0,85
420,581	0,85
421,038	0,85
421,495	0,85
421,952	0,85
422,409	0,85
422,866	0,85
423,322	0,85
423,779	0,85
424,236	0,85
424,693	0,85
425,149	0,85
425,606	0,85
426,063	0,85
426,519	0,85
426,976	0,85
427,433	0,85
427,889	0,85
428,346	0,85
428,802	0,85
429,258	0,85
429,715	0,85
430,171	0,85
430,628	0,85
431,084	0,85
431,54	0,85
431,997	0,85
432,453	0,85
432,909	0,85
433,365	0,85
433,821	0,85
434,277	0,85
434,734	0,85
435,19	0,85
435,646	0,85
436,102	0,85
436,558	0,85
437,014	0,85
437,47	0,85
437,925	0,85
438,381	0,85
438,837	0,85
439,293	0,85
439,749	0,85
440,205	0,85
440,66	0,85
441,116	0,85
441,572	0,85
442,027	0,85
442,483	0,85
442,939	0,85
443,394	0,85
443,85	0,85
444,305	0,85
444,761	0,85
445,216	0,85
445,672	0,85
446,127	0,85
446,582	0,85
447,038	0,85
447,493	0,85
447,948	0,85
448,403	0,85
448,859	0,85
449,314	0,86
449,769	0,86
450,224	0,86
450,679	0,86
451,134	0,86
451,589	0,86
452,044	0,86
452,499	0,86
452,954	0,86
453,409	0,86
453,864	0,86
454,319	0,86
454,774	0,86
455,229	0,86
455,684	0,86
456,138	0,86
456,593	0,86
457,048	0,86
457,503	0,86
457,957	0,86
458,412	0,86
458,866	0,86
459,321	0,86
459,776	0,86
460,23	0,86
460,685	0,86
461,139	0,86
461,593	0,87
462,048	0,87
462,502	0,87
462,957	0,87
463,411	0,87
463,865	0,87
464,319	0,87
464,774	0,87
465,228	0,87
465,682	0,87
466,136	0,87
466,59	0,88
467,044	0,88
467,499	0,88
467,953	0,88
468,407	0,88
468,861	0,88
469,315	0,88
469,768	0,88
470,222	0,88
470,676	0,88
471,13	0,88
471,584	0,89
472,038	0,89
472,491	0,89
472,945	0,89
473,399	0,89
473,852	0,89
474,306	0,89
474,76	0,89
475,213	0,9
475,667	0,9
476,12	0,9
476,574	0,9
477,027	0,9
477,481	0,9
477,934	0,91
478,388	0,91
478,841	0,91
479,294	0,91
479,748	0,91
480,201	0,91
480,654	0,92
481,107	0,92
481,561	0,92
482,014	0,92
482,467	0,92
482,92	0,92
483,373	0,93
483,826	0,93
484,279	0,93
484,732	0,93
485,185	0,94
485,638	0,94
486,091	0,94
486,544	0,94
486,997	0,94
487,449	0,95
487,902	0,95
488,355	0,95
488,808	0,96
489,26	0,96
489,713	0,96
490,166	0,96
490,618	0,97
491,071	0,97
491,523	0,97
491,976	0,98
492,429	0,98
492,881	0,98
493,333	0,99
493,786	0,99
494,238	0,99
494,691	1
495,143	1
495,595	1,01
496,048	1,01
496,5	1,01
496,952	1,02
497,404	1,02
497,856	1,02
498,309	1,03
498,761	1,03
499,213	1,04
499,665	1,04
500,117	1,05
500,569	1,05
501,021	1,06
501,473	1,06
501,925	1,06
502,377	1,07
502,828	1,07
503,28	1,08
503,732	1,08
504,184	1,08
504,636	1,09
505,087	1,09
505,539	1,1
505,991	1,1
506,442	1,1
506,894	1,11
507,345	1,11
507,797	1,12
508,249	1,12
508,7	1,13
509,151	1,13
509,603	1,14
510,054	1,14
510,506	1,15
510,957	1,15
511,408	1,15
511,86	1,16
512,311	1,16
512,762	1,16
513,213	1,17
513,665	1,17
514,116	1,18
514,567	1,18
515,018	1,18
515,469	1,18
515,92	1,19
516,371	1,19
516,822	1,2
517,273	1,2
517,724	1,2
518,175	1,21
518,626	1,21
519,076	1,21
519,527	1,21
519,978	1,22
520,429	1,22
520,88	1,22
521,33	1,22
521,781	1,22
522,232	1,23
522,682	1,23
523,133	1,23
523,583	1,23
524,034	1,23
524,484	1,23
524,935	1,23
525,385	1,23
525,836	1,24
526,286	1,23
526,736	1,24
527,187	1,24
527,637	1,23
528,087	1,23
528,538	1,23
528,988	1,23
529,438	1,23
529,888	1,23
530,338	1,23
530,788	1,23
531,238	1,23
531,688	1,22
532,139	1,22
532,589	1,22
533,038	1,22
533,488	1,22
533,938	1,22
534,388	1,21
534,838	1,21
535,288	1,21
535,738	1,2
536,187	1,2
536,637	1,19
537,087	1,19
537,537	1,19
537,986	1,18
538,436	1,18
538,885	1,17
539,335	1,16
539,785	1,16
540,234	1,15
540,684	1,15
541,133	1,14
541,582	1,14
542,032	1,13
542,481	1,13
542,931	1,12
543,38	1,11
543,829	1,11
544,278	1,1
544,728	1,1
545,177	1,09
545,626	1,09
546,075	1,08
546,524	1,08
546,973	1,08
547,422	1,07
547,871	1,07
548,32	1,06
548,769	1,06
549,218	1,06
549,667	1,05
550,116	1,05
550,565	1,04
551,014	1,04
551,463	1,03
551,911	1,03
552,36	1,02
552,809	1,02
553,258	1,01
553,706	1,01
554,155	1
554,603	1
555,052	0,99
555,501	0,99
555,949	0,98
556,398	0,98
556,846	0,97
557,294	0,97
557,743	0,96
558,191	0,96
558,64	0,95
559,088	0,95
559,536	0,94
559,985	0,93
560,433	0,93
560,881	0,92
561,329	0,92
561,777	0,91
562,225	0,91
562,674	0,91
563,122	0,9
563,57	0,9
564,018	0,89
564,466	0,89
564,914	0,88
565,362	0,88
565,809	0,87
566,257	0,87
566,705	0,86
567,153	0,86
567,601	0,85
568,048	0,85
568,496	0,84
568,944	0,84
569,392	0,83
569,839	0,83
570,287	0,83
570,734	0,82
571,182	0,82
571,63	0,82
572,077	0,81
572,525	0,81
572,972	0,8
573,419	0,8
573,867	0,8
574,314	0,79
574,761	0,79
575,209	0,78
575,656	0,78
576,103	0,78
576,551	0,77
576,998	0,77
577,445	0,77
577,892	0,76
578,339	0,76
578,786	0,76
579,233	0,75
579,68	0,75
580,127	0,75
580,574	0,74
581,021	0,74
581,468	0,74
581,915	0,73
582,362	0,73
582,809	0,73
583,255	0,72
583,702	0,72
584,149	0,72
584,596	0,72
585,042	0,71
585,489	0,71
585,936	0,71
586,382	0,7
586,829	0,7
587,275	0,7
587,722	0,7
588,168	0,7
588,615	0,69
589,061	0,69
589,508	0,69
589,954	0,69
590,4	0,68
590,847	0,68
591,293	0,68
591,739	0,67
592,185	0,67
592,632	0,67
593,078	0,67
593,524	0,67
593,97	0,67
594,416	0,67
594,862	0,66
595,308	0,66
595,754	0,66
596,2	0,66
596,646	0,66
597,092	0,65
597,538	0,65
597,984	0,65
598,43	0,65
598,876	0,65
599,321	0,65
599,767	0,65
600,213	0,64
600,659	0,64
601,104	0,64
601,55	0,64
601,995	0,64
602,441	0,64
602,887	0,63
603,332	0,63
603,778	0,63
604,223	0,63
604,668	0,63
605,114	0,63
605,559	0,63
606,005	0,63
606,45	0,63
606,895	0,62
607,341	0,62
607,786	0,62
608,231	0,62
608,676	0,61
609,121	0,61
609,566	0,6
610,012	0,59
610,457	0,59
610,902	0,58
611,347	0,58
611,792	0,58
612,237	0,58
612,682	0,57
613,127	0,57
613,571	0,58
614,016	0,58
614,461	0,58
614,906	0,59
615,351	0,59
615,795	0,59
616,24	0,59
616,685	0,59
617,129	0,59
617,574	0,59
618,019	0,59
618,463	0,59
618,908	0,59
619,352	0,59
619,797	0,59
620,241	0,59
620,686	0,59
621,13	0,58
621,574	0,58
622,019	0,58
622,463	0,58
622,907	0,58
623,352	0,58
623,796	0,58
624,24	0,58
624,684	0,58
625,128	0,58
625,572	0,57
626,016	0,58
626,461	0,58
626,905	0,58
627,349	0,57
627,793	0,57
628,236	0,57
628,68	0,57
629,124	0,57
629,568	0,57
630,012	0,57
630,456	0,57
630,9	0,57
631,343	0,57
631,787	0,57
632,231	0,57
632,674	0,57
633,118	0,57
633,562	0,57
634,005	0,57
634,449	0,57
634,892	0,57
635,336	0,57
635,779	0,57
636,223	0,57
636,666	0,57
637,109	0,57
637,553	0,56
637,996	0,56
638,439	0,56
638,883	0,56
639,326	0,56
639,769	0,56
640,212	0,56
640,655	0,56
641,099	0,56
641,542	0,56
641,985	0,56
642,428	0,56
642,871	0,55
643,314	0,55
643,757	0,55
644,2	0,55
644,643	0,55
645,085	0,55
645,528	0,55
645,971	0,55
646,414	0,55
646,857	0,55
647,299	0,55
647,742	0,55
648,185	0,55
648,627	0,55
649,07	0,55
649,513	0,55
649,955	0,55
650,398	0,55
650,84	0,55
651,283	0,55
651,725	0,55
652,168	0,55
652,61	0,55
653,052	0,55
653,495	0,55
653,937	0,46
654,379	0,4
654,821	0,41
655,264	0,41
655,706	0,41
656,148	0,41
656,59	0,41
657,032	0,41
657,474	0,41
657,916	0,41
658,358	0,4
658,8	0,46
659,242	0,54
659,684	0,54
660,126	0,54
660,568	0,54
661,01	0,54
661,452	0,54
661,894	0,54
662,335	0,54
662,777	0,54
663,219	0,54
663,661	0,54
664,102	0,54
664,544	0,54
664,985	0,54
665,427	0,54
665,869	0,54
666,31	0,54
666,752	0,54
667,193	0,54
667,634	0,54
668,076	0,54
668,517	0,54
668,959	0,54
669,4	0,54
669,841	0,54
670,282	0,54
670,724	0,54
671,165	0,54
671,606	0,54
672,047	0,54
672,488	0,54
672,929	0,54
673,37	0,54
673,811	0,54
674,252	0,53
674,693	0,53
675,134	0,53
675,575	0,53
676,016	0,53
676,457	0,53
676,898	0,53
677,339	0,53
677,78	0,53
678,22	0,53
678,661	0,53
679,102	0,53
679,542	0,53
679,983	0,53
680,424	0,53
680,864	0,53
681,305	0,53
681,745	0,53
682,186	0,53
682,626	0,53
683,067	0,53
683,507	0,53
683,948	0,53
684,388	0,53
684,828	0,53
685,269	0,53
685,709	0,53
686,149	0,53
686,589	0,53
687,029	0,53
687,47	0,53
687,91	0,53
688,35	0,53
688,79	0,52
689,23	0,52
689,67	0,52
690,11	0,52
690,55	0,52
690,99	0,52
691,43	0,52
691,87	0,52
692,31	0,52
692,749	0,52
693,189	0,52
693,629	0,51
694,069	0,51
694,508	0,51
694,948	0,51
695,388	0,51
695,827	0,51
696,267	0,51
696,706	0,52
697,146	0,52
697,586	0,52
698,025	0,52
698,464	0,52
698,904	0,52
699,343	0,52
699,783	0,52
700,222	0,52
700,661	0,52
701,101	0,52
701,54	0,52
701,979	0,52
702,418	0,52
702,857	0,52
703,297	0,52
703,736	0,52
704,175	0,52
704,614	0,52
705,053	0,52
705,492	0,52
705,931	0,52
706,37	0,52
706,809	0,52
707,248	0,52
707,687	0,51
708,125	0,51
708,564	0,51
709,003	0,51
709,442	0,51
709,88	0,51
710,319	0,51
710,758	0,51
711,196	0,51
711,635	0,51
712,074	0,51
712,512	0,51
712,951	0,51
713,389	0,51
713,828	0,51
714,266	0,51
714,705	0,51
715,143	0,51
715,581	0,51
716,02	0,51
716,458	0,51
716,896	0,51
717,334	0,51
717,773	0,51
718,211	0,51
718,649	0,51
719,087	0,51
719,525	0,51
719,963	0,51
720,401	0,51
720,839	0,51
721,277	0,51
721,715	0,51
722,153	0,51
722,591	0,51
723,029	0,51
723,467	0,51
723,905	0,51
724,342	0,51
724,78	0,51
725,218	0,51
725,656	0,51
726,093	0,51
726,531	0,51
726,969	0,51
727,406	0,51
727,844	0,51
728,281	0,51
728,719	0,51
729,156	0,51
729,594	0,5
730,031	0,5
730,469	0,5
730,906	0,5
731,343	0,5
731,781	0,5
732,218	0,5
732,655	0,5
733,092	0,5
733,53	0,5
733,967	0,5
734,404	0,49
734,841	0,49
735,278	0,49
735,715	0,49
736,152	0,49
736,589	0,49
737,026	0,49
737,463	0,49
737,9	0,49
738,337	0,49
738,774	0,49
739,211	0,49
739,647	0,49
740,084	0,49
740,521	0,49
740,958	0,5
741,394	0,5
741,831	0,5
742,268	0,5
742,704	0,5
743,141	0,5
743,577	0,49
744,014	0,49
744,45	0,49
744,887	0,49
745,323	0,49
745,76	0,49
746,196	0,49
746,632	0,49
747,069	0,49
747,505	0,49
747,941	0,49
748,378	0,49
748,814	0,49
749,25	0,49
749,686	0,49
750,122	0,49
750,558	0,49
750,994	0,49
751,43	0,49
751,866	0,49
752,302	0,49
752,738	0,49
753,174	0,49
753,61	0,49
754,046	0,49
754,482	0,49
754,918	0,49
755,354	0,49
755,789	0,49
756,225	0,49
756,661	0,48
757,096	0,48
757,532	0,48
757,968	0,48
758,403	0,47
758,839	0,47
759,274	0,47
759,71	0,46
760,145	0,46
760,581	0,45
761,016	0,45
761,452	0,44
761,887	0,44
762,322	0,43
762,758	0,43
763,193	0,42
763,628	0,42
764,063	0,41
764,499	0,4
764,934	0,39
765,369	0,39
765,804	0,38
766,239	0,37
766,674	0,36
767,109	0,35
767,544	0,34
767,979	0,33
768,414	0,32
768,849	0,31
769,284	0,3
769,719	0,29
770,154	0,28
770,588	0,27
771,023	0,26
771,458	0,25
771,893	0,24
772,327	0,22
772,762	0,21
773,197	0,2
773,631	0,19
774,066	0,18
774,5	0,17
774,935	0,16
775,369	0,15
775,804	0,14
776,238	0,12
776,673	0,11
777,107	0,1
777,541	0,1
777,976	0,08
778,41	0,08
778,844	0,06
779,279	0,06
779,713	0,05
780,147	0,03
780,581	0,03
781,015	0,02
781,449	0,01
781,883	0
782,317	-0,01
782,751	-0,02
783,185	-0,03
783,619	-0,04
784,053	-0,05
784,487	-0,06
784,921	-0,06
785,355	-0,07
785,789	-0,08
786,223	-0,09
786,656	-0,1
787,09	-0,12
787,524	-0,12
787,957	-0,14
788,391	-0,16
788,825	-0,17
789,258	-0,19
789,692	-0,21
790,125	-0,22
790,559	-0,24
790,992	-0,26
791,426	-0,28
791,859	-0,29
792,293	-0,32
792,726	-0,34
793,159	-0,36
793,593	-0,38
794,026	-0,4
794,459	-0,43
794,892	-0,45
795,326	-0,48
795,759	-0,52
796,192	-0,56
796,625	-0,61
797,058	-0,63
797,491	-0,68
797,924	-0,71
798,357	-0,76
798,79	-0,8
799,223	-0,85
799,656	-0,9
800,089	-0,95
800,522	-0,99
800,955	-1,03
801,387	-1,09
801,82	-1,14
802,253	-1,2
802,686	-1,28
803,118	-1,34
803,551	-1,39
803,984	-1,43
804,416	-1,47
804,849	-1,5
805,281	-1,58
805,714	-1,93
806,146	-2,42
806,579	-2,69
807,011	-2,86
807,444	-2,95
807,876	-3,04
808,308	-3,08
808,741	-3,1
809,173	-3,16
809,605	-3,18
810,037	-3,26
810,47	-3,18
810,902	-2,98
811,334	-2,83
811,766	-2,67
812,198	-2,43
812,63	-2
813,062	-1,79
813,494	-1,69
813,926	-1,6
814,358	-1,55
814,79	-1,47
815,222	-1,41
815,654	-1,36
816,086	-1,3
816,518	-1,24
816,949	-1,19
817,381	-1,15
817,813	-1,13
818,245	-1,09
818,676	-1,05
819,108	-1,02
819,54	-1
819,971	-0,98
820,403	-0,93
820,834	-0,92
821,266	-0,88
821,697	-0,85
822,129	-0,84
822,56	-0,81
822,991	-0,79
823,423	-0,76
823,854	-0,75
824,286	-0,73
824,717	-0,72
825,148	-0,71
825,579	-0,7
826,01	-0,68
826,442	-0,67
826,873	-0,65
827,304	-0,62
827,735	-0,62
828,166	-0,63
828,597	-0,63
829,028	-0,62
829,459	-0,62
829,89	-0,62
830,321	-0,58
830,752	-0,59
831,183	-0,58
831,613	-0,58
832,044	-0,58
832,475	-0,57
832,906	-0,58
833,336	-0,59
833,767	-0,59
834,198	-0,58
834,628	-0,56
835,059	-0,59
835,49	-0,6
835,92	-0,56
836,351	-0,56
836,781	-0,56
837,212	-0,57
837,642	-0,57
838,072	-0,55
838,503	-0,57
838,933	-0,54
839,364	-0,55
839,794	-0,53
840,224	-0,52
840,654	-0,57
841,085	-0,58
841,515	-0,55
841,945	-0,56
842,375	-0,51
842,805	-0,5
843,235	-0,48
843,665	-0,5
844,095	-0,49
844,525	-0,51
844,955	-0,52
845,385	-0,5
845,815	-0,48
846,245	-0,49
846,675	-0,5
847,105	-0,52
847,534	-0,52
847,964	-0,5
848,394	-0,49
848,824	-0,52
849,253	-0,52
849,683	-0,52
850,112	-0,53
850,542	-0,56
850,972	-0,57
851,401	-0,54
851,831	-0,53
852,26	-0,53
852,69	-0,57
853,119	-0,56
853,548	-0,56
853,978	-0,56
854,407	-0,54
854,836	-0,54
855,266	-0,52
855,695	-0,53
856,124	-0,55
856,553	-0,56
856,983	-0,58
857,412	-0,56
857,841	-0,57
858,27	-0,58
858,699	-0,58
859,128	-0,61
859,557	-0,62
859,986	-0,63
860,415	-0,62
860,844	-0,59
861,273	-0,58
861,702	-0,59
862,13	-0,57
862,559	-0,59
862,988	-0,56
863,417	-0,56
863,845	-0,55
864,274	-0,56
864,703	-0,56
865,131	-0,56
865,56	-0,58
865,989	-0,61
866,417	-0,58
866,846	-0,59
867,274	-0,57
867,703	-0,6
868,131	-0,61
868,559	-0,61
868,988	-0,62
869,416	-0,61
869,844	-0,62
870,273	-0,64
870,701	-0,61
871,129	-0,64
871,557	-0,67
871,986	-0,68
872,414	-0,69
872,842	-0,67
873,27	-0,65
873,698	-0,62
874,126	-0,66
874,554	-0,65
874,982	-0,64
875,41	-0,67
875,838	-0,62
876,266	-0,6
876,694	-0,6
877,122	-0,59
877,549	-0,64
877,977	-0,61
878,405	-0,63
878,833	-0,59
879,26	-0,57
879,688	-0,57
880,116	-0,55
880,543	-0,54
880,971	-0,52
881,399	-0,54
881,826	-0,54
882,254	-0,53
882,681	-0,57
883,109	-0,54
883,536	-0,56
883,963	-0,58
884,391	-0,56
884,818	-0,55
885,245	-0,59
885,673	-0,62
886,1	-0,6
886,527	-0,59
886,954	-0,56
887,381	-0,58
887,809	-0,59
888,236	-0,6
888,663	-0,61
889,09	-0,65
889,517	-0,66
889,944	-0,65
890,371	-0,63
890,798	-0,64
891,225	-0,65
891,652	-0,67
892,078	-0,63
892,505	-0,66
892,932	-0,61
893,359	-0,62
893,786	-0,62
894,212	-0,6
894,639	-0,61
895,066	-0,64
895,492	-0,58
895,919	-0,58
896,346	-0,59
896,772	-0,59
897,199	-0,56
897,625	-0,58
898,052	-0,55
898,478	-0,53
898,904	-0,55
899,331	-0,55
899,757	-0,56
900,183	-0,58
900,61	-0,56
901,036	-0,56
901,462	-0,55
901,888	-0,54
902,315	-0,53
902,741	-0,58
903,167	-0,57
903,593	-0,59
904,019	-0,57
904,445	-0,55
904,871	-0,58
905,297	-0,59
905,723	-0,59
906,149	-0,59
906,575	-0,59
907,001	-0,59
907,427	-0,56
907,852	-0,55
908,278	-0,56
908,704	-0,54
909,13	-0,53
909,555	-0,52
909,981	-0,51
910,407	-0,52
910,832	-0,52
911,258	-0,53
911,684	-0,53
912,109	-0,54
912,535	-0,55
912,96	-0,51
913,386	-0,55
913,811	-0,55
914,236	-0,57
914,662	-0,55
915,087	-0,59
915,512	-0,59
915,938	-0,6
916,363	-0,6
916,788	-0,61
917,213	-0,6
917,639	-0,66
918,064	-0,63
918,489	-0,63
918,914	-0,63
919,339	-0,64
919,764	-0,61
920,189	-0,62
920,614	-0,64
921,039	-0,64
921,464	-0,6
921,889	-0,63
922,314	-0,63
922,738	-0,66
923,163	-0,68
923,588	-0,67
924,013	-0,66
924,437	-0,66
924,862	-0,66
925,287	-0,64
925,711	-0,64
926,136	-0,65
926,561	-0,64
926,985	-0,63
927,41	-0,59
927,834	-0,57
928,259	-0,54
928,683	-0,52
929,108	-0,49
929,532	-0,51
929,956	-0,49
930,381	-0,49
930,805	-0,49
931,229	-0,48
931,653	-0,46
932,078	-0,46
932,502	-0,48
932,926	-0,48
933,35	-0,49
933,774	-0,49
934,198	-0,47
934,622	-0,46
935,046	-0,46
935,47	-0,47
935,894	-0,47
936,318	-0,46
936,742	-0,46
937,166	-0,47
937,59	-0,46
938,014	-0,48
938,437	-0,48
938,861	-0,5
939,285	-0,5
939,709	-0,49
940,132	-0,49
940,556	-0,49
940,98	-0,49
941,403	-0,48
941,827	-0,48
942,25	-0,5
942,674	-0,48
943,097	-0,48
943,521	-0,48
943,944	-0,49
944,368	-0,48
944,791	-0,47
945,214	-0,49
945,638	-0,5
946,061	-0,54
946,484	-0,54
946,907	-0,52
947,331	-0,52
947,754	-0,55
948,177	-0,53
948,6	-0,52
949,023	-0,52
949,446	-0,52
949,869	-0,5
950,292	-0,5
950,715	-0,46
951,138	-0,44
951,561	-0,43
951,984	-0,44
952,407	-0,43
952,83	-0,41
953,252	-0,38
953,675	-0,38
954,098	-0,38
954,521	-0,37
954,943	-0,36
955,366	-0,37
955,789	-0,35
956,211	-0,37
956,634	-0,37
957,056	-0,35
957,479	-0,36
957,902	-0,38
958,324	-0,39
958,746	-0,36
959,169	-0,39
959,591	-0,39
960,014	-0,4
960,436	-0,4
960,858	-0,39
961,281	-0,39
961,703	-0,41
962,125	-0,4
962,547	-0,39
962,969	-0,39
963,391	-0,4
963,814	-0,4
964,236	-0,39
964,658	-0,36
965,08	-0,36
965,502	-0,36
965,924	-0,34
966,346	-0,33
966,768	-0,32
967,189	-0,34
967,611	-0,33
968,033	-0,33
968,455	-0,31
968,877	-0,33
969,298	-0,34
969,72	-0,35
970,142	-0,34
970,563	-0,34
970,985	-0,33
971,407	-0,33
971,828	-0,31
972,25	-0,3
972,671	-0,29
973,093	-0,28
973,514	-0,27
973,936	-0,25
974,357	-0,23
974,778	-0,23
975,2	-0,23
975,621	-0,22
976,042	-0,2
976,464	-0,19
976,885	-0,18
977,306	-0,17
977,727	-0,16
978,148	-0,14
978,57	-0,13
978,991	-0,11
979,412	-0,1
979,833	-0,09
980,254	-0,08
980,675	-0,07
981,096	-0,06
981,517	-0,06
981,937	-0,05
982,358	-0,03
982,779	-0,02
983,2	-0,02
983,621	-0,01
984,042	0,01
984,462	0,02
984,883	0,04
985,304	0,06
985,724	0,07
986,145	0,08
986,565	0,1
986,986	0,11
987,407	0,12
987,827	0,14
988,248	0,16
988,668	0,18
989,088	0,19
989,509	0,2
989,929	0,21
990,35	0,23
990,77	0,24
991,19	0,25
991,61	0,26
992,031	0,27
992,451	0,28
992,871	0,29
993,291	0,3
993,711	0,31
994,131	0,31
994,551	0,32
994,971	0,33
995,391	0,34
995,811	0,35
996,231	0,35
996,651	0,36
997,071	0,37
997,491	0,38
997,911	0,38
998,331	0,39
998,75	0,4
999,17	0,41
999,59	0,41
1000,009	0,42
1000,429	0,43
1000,849	0,43
1001,268	0,44
1001,688	0,45
1002,107	0,45
1002,527	0,46
1002,946	0,46
1003,366	0,46
1003,785	0,47
1004,205	0,47
1004,624	0,47
1005,044	0,48
1005,463	0,48
1005,882	0,48
1006,301	0,48
1006,721	0,49
1007,14	0,49
1007,559	0,49
1007,978	0,49
1008,397	0,49
1008,816	0,49
1009,235	0,49
1009,655	0,49
1010,074	0,49
1010,492	0,49
1010,911	0,49
1011,33	0,49
1011,749	0,49
1012,168	0,49
1012,587	0,49
1013,006	0,49
1013,425	0,49
1013,843	0,49
1014,262	0,48
1014,681	0,48
1015,099	0,48
1015,518	0,48
1015,937	0,48
1016,355	0,48
1016,774	0,48
1017,192	0,48
1017,611	0,48
1018,029	0,48
1018,448	0,48
1018,866	0,48
1019,285	0,48
1019,703	0,48
1020,121	0,48
1020,54	0,48
1020,958	0,48
1021,376	0,48
1021,794	0,48
1022,213	0,48
1022,631	0,48
1023,049	0,47
1023,467	0,47
1023,885	0,47
1024,303	0,47
1024,721	0,47
1025,139	0,47
1025,557	0,47
1025,975	0,47
1026,393	0,47
1026,811	0,47
1027,229	0,46
1027,647	0,46
1028,065	0,46
1028,482	0,46
1028,9	0,46
1029,318	0,46
1029,735	0,46
1030,153	0,46
1030,571	0,46
1030,988	0,46
1031,406	0,46
1031,823	0,46
1032,241	0,46
1032,659	0,47
1033,076	0,47
1033,493	0,47
1033,911	0,47
1034,328	0,47
1034,746	0,47
1035,163	0,47
1035,58	0,47
1035,997	0,47
1036,415	0,47
1036,832	0,47
1037,249	0,47
1037,666	0,47
1038,083	0,47
1038,501	0,47
1038,918	0,47
1039,335	0,47
1039,752	0,46
1040,169	0,46
1040,586	0,46
1041,003	0,46
1041,419	0,47
1041,836	0,46
1042,253	0,46
1042,67	0,46
1043,087	0,46
1043,504	0,47
1043,92	0,46
1044,337	0,46
1044,754	0,46
1045,17	0,46
1045,587	0,46
1046,004	0,46
1046,42	0,46
1046,837	0,46
1047,253	0,46
1047,67	0,46
1048,086	0,46
1048,503	0,46
1048,919	0,46
1049,335	0,46
1049,752	0,46
1050,168	0,46
1050,584	0,46
1051,001	0,46
1051,417	0,46
1051,833	0,46
1052,249	0,46
1052,665	0,46
1053,081	0,47
1053,497	0,47
1053,914	0,47
1054,33	0,47
1054,746	0,47
1055,162	0,47
1055,578	0,47
1055,993	0,48
1056,409	0,48
1056,825	0,48
1057,241	0,48
1057,657	0,48
1058,073	0,48
1058,488	0,48
1058,904	0,48
1059,32	0,48
1059,736	0,48
1060,151	0,48
1060,567	0,48
1060,982	0,48
1061,398	0,48
1061,813	0,48
1062,229	0,48
1062,644	0,47
1063,06	0,47
1063,475	0,47
1063,891	0,47
1064,306	0,47
1064,721	0,47
1065,137	0,47
1065,552	0,47
1065,967	0,47
1066,382	0,47
1066,798	0,47
1067,213	0,47
1067,628	0,47
1068,043	0,47
1068,458	0,47
1068,873	0,47
1069,288	0,47
1069,703	0,47
1070,118	0,47
1070,533	0,47
1070,948	0,47
1071,363	0,47
1071,778	0,47
1072,193	0,47
1072,607	0,47
1073,022	0,47
1073,437	0,47
1073,852	0,47
1074,266	0,47
1074,681	0,47
1075,096	0,47
1075,51	0,47
1075,925	0,47
1076,339	0,47
1076,754	0,47
1077,168	0,47
1077,583	0,47
1077,997	0,47
1078,412	0,47
1078,826	0,46
1079,24	0,46
1079,655	0,46
1080,069	0,46
1080,483	0,46
1080,897	0,46
1081,312	0,46
1081,726	0,46
1082,14	0,46
1082,554	0,46
1082,968	0,46
1083,382	0,46
1083,796	0,45
1084,21	0,45
1084,624	0,45
1085,038	0,45
1085,452	0,45
1085,866	0,45
1086,28	0,45
1086,694	0,44
1087,108	0,44
1087,521	0,44
1087,935	0,44
1088,349	0,44
1088,763	0,43
1089,176	0,43
1089,59	0,43
1090,004	0,42
1090,417	0,42
1090,831	0,42
1091,244	0,41
1091,658	0,41
1092,071	0,41
1092,485	0,4
1092,898	0,4
1093,312	0,4
1093,725	0,4
1094,138	0,4
1094,552	0,39
1094,965	0,39
1095,378	0,39
1095,791	0,39
1096,205	0,38
1096,618	0,38
1097,031	0,37
1097,444	0,37
1097,857	0,37
1098,27	0,36
1098,683	0,36
1099,096	0,35
1099,509	0,35
1099,922	0,35
1100,335	0,34
1100,748	0,33
1101,161	0,33
1101,574	0,33
1101,986	0,32
1102,399	0,32
1102,812	0,32
1103,225	0,31
1103,637	0,3
1104,05	0,3
1104,463	0,3
1104,875	0,3
1105,288	0,3
1105,7	0,3
1106,113	0,29
1106,525	0,29
1106,938	0,28
1107,35	0,28
1107,763	0,28
1108,175	0,28
1108,588	0,27
1109	0,26
1109,412	0,26
1109,824	0,26
1110,237	0,25
1110,649	0,25
1111,061	0,24
