Data from 18C-808nm-8A-cont_Absorbance__582__02011.txt Node

Date: Mon Jul 17 17:40:50 CEST 2023
User: Laser008
Spectrometer: MAYP115816
Trigger mode: 0
Integration Time (sec): 2,500000E-1
Scans to average: 10
Electric dark correction enabled: true
Nonlinearity correction enabled: true
Boxcar width: 5
XAxis mode: Wavelengths
Number of Pixels in Spectrum: 2068
>>>>>Begin Spectral Data<<<<<
198,914	-0,73
199,384	-0,5
199,855	-0,37
200,325	-0,28
200,796	-0,24
201,266	-0,19
201,737	-0,17
202,207	-0,16
202,677	-0,15
203,147	-0,14
203,618	-0,11
204,088	-0,09
204,558	-0,08
205,028	-0,07
205,498	-0,08
205,968	-0,09
206,439	-0,11
206,909	-0,11
207,379	-0,11
207,849	-0,11
208,319	-0,12
208,789	-0,13
209,258	-0,12
209,728	-0,14
210,198	-0,14
210,668	-0,14
211,138	-0,13
211,608	-0,12
212,077	-0,13
212,547	-0,11
213,017	-0,12
213,486	-0,11
213,956	-0,11
214,426	-0,12
214,895	-0,12
215,365	-0,13
215,834	-0,13
216,304	-0,14
216,773	-0,14
217,243	-0,16
217,712	-0,18
218,181	-0,18
218,651	-0,18
219,12	-0,18
219,589	-0,17
220,058	-0,17
220,528	-0,18
220,997	-0,18
221,466	-0,2
221,935	-0,21
222,404	-0,21
222,873	-0,2
223,342	-0,19
223,812	-0,19
224,281	-0,19
224,749	-0,2
225,218	-0,21
225,687	-0,21
226,156	-0,21
226,625	-0,19
227,094	-0,18
227,563	-0,18
228,031	-0,2
228,5	-0,2
228,969	-0,21
229,438	-0,2
229,906	-0,19
230,375	-0,18
230,844	-0,17
231,312	-0,17
231,781	-0,18
232,249	-0,17
232,718	-0,17
233,186	-0,16
233,655	-0,15
234,123	-0,15
234,591	-0,16
235,06	-0,16
235,528	-0,16
235,996	-0,15
236,465	-0,15
236,933	-0,14
237,401	-0,14
237,869	-0,13
238,337	-0,13
238,805	-0,12
239,274	-0,12
239,742	-0,12
240,21	-0,12
240,678	-0,11
241,146	-0,1
241,614	-0,1
242,081	-0,1
242,549	-0,1
243,017	-0,11
243,485	-0,11
243,953	-0,11
244,421	-0,11
244,888	-0,1
245,356	-0,1
245,824	-0,11
246,291	-0,11
246,759	-0,12
247,227	-0,12
247,694	-0,1
248,162	-0,09
248,629	-0,09
249,097	-0,09
249,564	-0,1
250,032	-0,11
250,499	-0,1
250,967	-0,1
251,434	-0,11
251,901	-0,11
252,369	-0,11
252,836	-0,13
253,303	-0,14
253,77	-0,16
254,237	-0,15
254,705	-0,16
255,172	-0,15
255,639	-0,15
256,106	-0,16
256,573	-0,17
257,04	-0,16
257,507	-0,17
257,974	-0,18
258,441	-0,16
258,908	-0,16
259,375	-0,18
259,841	-0,19
260,308	-0,19
260,775	-0,19
261,242	-0,18
261,709	-0,19
262,175	-0,2
262,642	-0,2
263,109	-0,19
263,575	-0,19
264,042	-0,18
264,508	-0,18
264,975	-0,19
265,441	-0,2
265,908	-0,21
266,374	-0,2
266,841	-0,2
267,307	-0,2
267,773	-0,19
268,24	-0,2
268,706	-0,2
269,172	-0,21
269,639	-0,23
270,105	-0,21
270,571	-0,22
271,037	-0,21
271,503	-0,22
271,969	-0,22
272,435	-0,22
272,902	-0,24
273,368	-0,25
273,834	-0,24
274,3	-0,24
274,765	-0,24
275,231	-0,24
275,697	-0,22
276,163	-0,22
276,629	-0,22
277,095	-0,22
277,56	-0,21
278,026	-0,21
278,492	-0,19
278,958	-0,19
279,423	-0,19
279,889	-0,19
280,354	-0,19
280,82	-0,2
281,286	-0,22
281,751	-0,22
282,217	-0,21
282,682	-0,21
283,147	-0,22
283,613	-0,23
284,078	-0,23
284,544	-0,25
285,009	-0,26
285,474	-0,25
285,939	-0,26
286,405	-0,25
286,87	-0,24
287,335	-0,24
287,8	-0,23
288,265	-0,22
288,73	-0,23
289,195	-0,25
289,66	-0,24
290,125	-0,22
290,59	-0,22
291,055	-0,21
291,52	-0,21
291,985	-0,22
292,45	-0,23
292,915	-0,23
293,38	-0,22
293,844	-0,21
294,309	-0,19
294,774	-0,18
295,239	-0,2
295,703	-0,2
296,168	-0,2
296,632	-0,2
297,097	-0,18
297,562	-0,17
298,026	-0,17
298,491	-0,18
298,955	-0,18
299,419	-0,17
299,884	-0,17
300,348	-0,16
300,813	-0,15
301,277	-0,15
301,741	-0,15
302,205	-0,15
302,67	-0,14
303,134	-0,14
303,598	-0,14
304,062	-0,13
304,526	-0,13
304,99	-0,14
305,454	-0,13
305,919	-0,13
306,383	-0,13
306,847	-0,12
307,31	-0,13
307,774	-0,13
308,238	-0,13
308,702	-0,13
309,166	-0,15
309,63	-0,15
310,094	-0,13
310,557	-0,13
311,021	-0,12
311,485	-0,13
311,948	-0,13
312,412	-0,12
312,876	-0,12
313,339	-0,12
313,803	-0,13
314,266	-0,12
314,73	-0,13
315,193	-0,13
315,657	-0,12
316,12	-0,13
316,584	-0,12
317,047	-0,12
317,51	-0,1
317,973	-0,1
318,437	-0,1
318,9	-0,08
319,363	-0,07
319,826	-0,06
320,29	-0,06
320,753	-0,06
321,216	-0,05
321,679	-0,05
322,142	-0,05
322,605	-0,06
323,068	-0,05
323,531	-0,05
323,994	-0,04
324,457	-0,04
324,92	-0,03
325,382	-0,03
325,845	-0,03
326,308	-0,02
326,771	-0,01
327,233	-0
327,696	0,01
328,159	0,02
328,622	0,02
329,084	0,01
329,547	0,02
330,009	0,02
330,472	0,03
330,934	0,04
331,397	0,05
331,859	0,05
332,322	0,05
332,784	0,05
333,246	0,06
333,709	0,05
334,171	0,06
334,633	0,07
335,096	0,06
335,558	0,06
336,02	0,05
336,482	0,05
336,944	0,05
337,406	0,06
337,868	0,07
338,331	0,07
338,793	0,09
339,255	0,09
339,717	0,1
340,178	0,11
340,64	0,12
341,102	0,13
341,564	0,15
342,026	0,16
342,488	0,17
342,949	0,18
343,411	0,21
343,873	0,23
344,335	0,26
344,796	0,3
345,258	0,35
345,719	0,4
346,181	0,44
346,643	0,48
347,104	0,52
347,566	0,55
348,027	0,59
348,488	0,61
348,95	0,63
349,411	0,66
349,873	0,68
350,334	0,71
350,795	0,72
351,256	0,74
351,718	0,75
352,179	0,75
352,64	0,76
353,101	0,76
353,562	0,77
354,023	0,77
354,484	0,77
354,945	0,78
355,406	0,78
355,867	0,78
356,328	0,79
356,789	0,79
357,25	0,79
357,711	0,79
358,172	0,8
358,633	0,8
359,093	0,8
359,554	0,8
360,015	0,8
360,476	0,8
360,936	0,8
361,397	0,81
361,858	0,81
362,318	0,81
362,779	0,81
363,239	0,81
363,7	0,81
364,16	0,81
364,621	0,81
365,081	0,81
365,541	0,81
366,002	0,81
366,462	0,81
366,922	0,81
367,383	0,81
367,843	0,81
368,303	0,81
368,763	0,81
369,223	0,81
369,684	0,81
370,144	0,81
370,604	0,81
371,064	0,81
371,524	0,81
371,984	0,81
372,444	0,81
372,904	0,81
373,363	0,81
373,823	0,81
374,283	0,81
374,743	0,81
375,203	0,81
375,663	0,81
376,122	0,81
376,582	0,81
377,042	0,81
377,501	0,81
377,961	0,81
378,42	0,8
378,88	0,8
379,34	0,8
379,799	0,8
380,259	0,8
380,718	0,8
381,177	0,8
381,637	0,8
382,096	0,8
382,555	0,8
383,015	0,8
383,474	0,8
383,933	0,8
384,393	0,8
384,852	0,8
385,311	0,8
385,77	0,8
386,229	0,8
386,688	0,8
387,147	0,8
387,606	0,8
388,065	0,79
388,524	0,79
388,983	0,79
389,442	0,79
389,901	0,79
390,36	0,79
390,819	0,79
391,277	0,79
391,736	0,79
392,195	0,79
392,654	0,79
393,112	0,79
393,571	0,79
394,03	0,79
394,488	0,79
394,947	0,79
395,405	0,79
395,864	0,79
396,322	0,79
396,781	0,79
397,239	0,79
397,698	0,79
398,156	0,79
398,614	0,79
399,073	0,79
399,531	0,79
399,989	0,79
400,447	0,79
400,905	0,79
401,364	0,78
401,822	0,78
402,28	0,78
402,738	0,78
403,196	0,78
403,654	0,78
404,112	0,78
404,57	0,78
405,028	0,78
405,486	0,78
405,944	0,78
406,402	0,78
406,859	0,78
407,317	0,78
407,775	0,78
408,233	0,78
408,691	0,78
409,148	0,78
409,606	0,78
410,064	0,78
410,521	0,78
410,979	0,78
411,436	0,78
411,894	0,78
412,351	0,78
412,809	0,78
413,266	0,78
413,724	0,78
414,181	0,78
414,638	0,78
415,096	0,78
415,553	0,77
416,01	0,77
416,467	0,77
416,925	0,77
417,382	0,77
417,839	0,77
418,296	0,77
418,753	0,77
419,21	0,77
419,667	0,77
420,124	0,77
420,581	0,77
421,038	0,77
421,495	0,77
421,952	0,77
422,409	0,77
422,866	0,77
423,322	0,77
423,779	0,77
424,236	0,77
424,693	0,77
425,149	0,77
425,606	0,77
426,063	0,77
426,519	0,77
426,976	0,77
427,433	0,77
427,889	0,77
428,346	0,77
428,802	0,77
429,258	0,77
429,715	0,77
430,171	0,77
430,628	0,77
431,084	0,77
431,54	0,77
431,997	0,77
432,453	0,77
432,909	0,77
433,365	0,77
433,821	0,77
434,277	0,77
434,734	0,77
435,19	0,77
435,646	0,77
436,102	0,77
436,558	0,77
437,014	0,77
437,47	0,77
437,925	0,77
438,381	0,77
438,837	0,77
439,293	0,77
439,749	0,77
440,205	0,77
440,66	0,77
441,116	0,77
441,572	0,77
442,027	0,77
442,483	0,77
442,939	0,77
443,394	0,77
443,85	0,77
444,305	0,77
444,761	0,77
445,216	0,77
445,672	0,77
446,127	0,77
446,582	0,77
447,038	0,77
447,493	0,77
447,948	0,77
448,403	0,77
448,859	0,77
449,314	0,77
449,769	0,77
450,224	0,77
450,679	0,77
451,134	0,78
451,589	0,78
452,044	0,78
452,499	0,78
452,954	0,78
453,409	0,78
453,864	0,78
454,319	0,78
454,774	0,78
455,229	0,78
455,684	0,78
456,138	0,78
456,593	0,78
457,048	0,78
457,503	0,78
457,957	0,78
458,412	0,78
458,866	0,78
459,321	0,78
459,776	0,78
460,23	0,78
460,685	0,78
461,139	0,78
461,593	0,79
462,048	0,79
462,502	0,79
462,957	0,79
463,411	0,79
463,865	0,79
464,319	0,79
464,774	0,79
465,228	0,79
465,682	0,79
466,136	0,79
466,59	0,79
467,044	0,8
467,499	0,8
467,953	0,8
468,407	0,8
468,861	0,8
469,315	0,8
469,768	0,8
470,222	0,8
470,676	0,8
471,13	0,8
471,584	0,8
472,038	0,81
472,491	0,81
472,945	0,81
473,399	0,81
473,852	0,81
474,306	0,81
474,76	0,81
475,213	0,81
475,667	0,81
476,12	0,82
476,574	0,82
477,027	0,82
477,481	0,82
477,934	0,82
478,388	0,82
478,841	0,83
479,294	0,83
479,748	0,83
480,201	0,83
480,654	0,84
481,107	0,84
481,561	0,84
482,014	0,84
482,467	0,84
482,92	0,84
483,373	0,85
483,826	0,85
484,279	0,85
484,732	0,85
485,185	0,86
485,638	0,86
486,091	0,86
486,544	0,86
486,997	0,86
487,449	0,87
487,902	0,87
488,355	0,87
488,808	0,88
489,26	0,88
489,713	0,88
490,166	0,88
490,618	0,89
491,071	0,89
491,523	0,89
491,976	0,9
492,429	0,9
492,881	0,9
493,333	0,91
493,786	0,91
494,238	0,91
494,691	0,92
495,143	0,92
495,595	0,93
496,048	0,93
496,5	0,93
496,952	0,94
497,404	0,94
497,856	0,95
498,309	0,95
498,761	0,95
499,213	0,96
499,665	0,96
500,117	0,97
500,569	0,97
501,021	0,98
501,473	0,98
501,925	0,99
502,377	0,99
502,828	0,99
503,28	1
503,732	1
504,184	1,01
504,636	1,01
505,087	1,01
505,539	1,02
505,991	1,02
506,442	1,03
506,894	1,03
507,345	1,04
507,797	1,04
508,249	1,04
508,7	1,05
509,151	1,05
509,603	1,06
510,054	1,06
510,506	1,07
510,957	1,07
511,408	1,08
511,86	1,08
512,311	1,09
512,762	1,09
513,213	1,09
513,665	1,1
514,116	1,1
514,567	1,1
515,018	1,11
515,469	1,11
515,92	1,11
516,371	1,12
516,822	1,12
517,273	1,12
517,724	1,13
518,175	1,13
518,626	1,13
519,076	1,14
519,527	1,14
519,978	1,14
520,429	1,14
520,88	1,14
521,33	1,15
521,781	1,15
522,232	1,15
522,682	1,15
523,133	1,15
523,583	1,16
524,034	1,16
524,484	1,16
524,935	1,16
525,385	1,16
525,836	1,16
526,286	1,16
526,736	1,16
527,187	1,16
527,637	1,16
528,087	1,16
528,538	1,16
528,988	1,16
529,438	1,16
529,888	1,16
530,338	1,15
530,788	1,15
531,238	1,15
531,688	1,15
532,139	1,15
532,589	1,15
533,038	1,14
533,488	1,14
533,938	1,14
534,388	1,14
534,838	1,13
535,288	1,13
535,738	1,13
536,187	1,12
536,637	1,12
537,087	1,11
537,537	1,11
537,986	1,11
538,436	1,1
538,885	1,1
539,335	1,09
539,785	1,08
540,234	1,08
540,684	1,07
541,133	1,07
541,582	1,06
542,032	1,06
542,481	1,05
542,931	1,05
543,38	1,04
543,829	1,03
544,278	1,03
544,728	1,02
545,177	1,02
545,626	1,01
546,075	1,01
546,524	1
546,973	1
547,422	0,99
547,871	0,99
548,32	0,98
548,769	0,98
549,218	0,98
549,667	0,97
550,116	0,97
550,565	0,96
551,014	0,96
551,463	0,95
551,911	0,95
552,36	0,94
552,809	0,94
553,258	0,93
553,706	0,93
554,155	0,92
554,603	0,92
555,052	0,91
555,501	0,91
555,949	0,9
556,398	0,89
556,846	0,89
557,294	0,88
557,743	0,88
558,191	0,87
558,64	0,87
559,088	0,86
559,536	0,85
559,985	0,85
560,433	0,84
560,881	0,84
561,329	0,83
561,777	0,83
562,225	0,82
562,674	0,82
563,122	0,81
563,57	0,81
564,018	0,8
564,466	0,8
564,914	0,79
565,362	0,79
565,809	0,78
566,257	0,78
566,705	0,77
567,153	0,77
567,601	0,76
568,048	0,76
568,496	0,75
568,944	0,75
569,392	0,75
569,839	0,74
570,287	0,74
570,734	0,73
571,182	0,73
571,63	0,73
572,077	0,72
572,525	0,72
572,972	0,71
573,419	0,71
573,867	0,71
574,314	0,7
574,761	0,7
575,209	0,69
575,656	0,69
576,103	0,68
576,551	0,68
576,998	0,68
577,445	0,68
577,892	0,67
578,339	0,67
578,786	0,66
579,233	0,66
579,68	0,66
580,127	0,65
580,574	0,65
581,021	0,65
581,468	0,64
581,915	0,64
582,362	0,64
582,809	0,63
583,255	0,63
583,702	0,63
584,149	0,63
584,596	0,62
585,042	0,62
585,489	0,62
585,936	0,61
586,382	0,61
586,829	0,61
587,275	0,61
587,722	0,6
588,168	0,6
588,615	0,6
589,061	0,6
589,508	0,59
589,954	0,59
590,4	0,59
590,847	0,59
591,293	0,58
591,739	0,58
592,185	0,58
592,632	0,58
593,078	0,58
593,524	0,58
593,97	0,58
594,416	0,57
594,862	0,57
595,308	0,57
595,754	0,57
596,2	0,57
596,646	0,56
597,092	0,56
597,538	0,56
597,984	0,56
598,43	0,56
598,876	0,55
599,321	0,55
599,767	0,55
600,213	0,55
600,659	0,55
601,104	0,55
601,55	0,54
601,995	0,54
602,441	0,54
602,887	0,54
603,332	0,54
603,778	0,54
604,223	0,53
604,668	0,53
605,114	0,53
605,559	0,53
606,005	0,53
606,45	0,53
606,895	0,53
607,341	0,53
607,786	0,52
608,231	0,52
608,676	0,52
609,121	0,51
609,566	0,51
610,012	0,5
610,457	0,5
610,902	0,49
611,347	0,49
611,792	0,49
612,237	0,49
612,682	0,48
613,127	0,48
613,571	0,48
614,016	0,49
614,461	0,49
614,906	0,49
615,351	0,49
615,795	0,49
616,24	0,49
616,685	0,49
617,129	0,49
617,574	0,49
618,019	0,49
618,463	0,49
618,908	0,49
619,352	0,49
619,797	0,49
620,241	0,49
620,686	0,49
621,13	0,49
621,574	0,49
622,019	0,49
622,463	0,48
622,907	0,48
623,352	0,48
623,796	0,48
624,24	0,48
624,684	0,48
625,128	0,48
625,572	0,48
626,016	0,48
626,461	0,48
626,905	0,48
627,349	0,48
627,793	0,48
628,236	0,48
628,68	0,48
629,124	0,48
629,568	0,48
630,012	0,47
630,456	0,47
630,9	0,47
631,343	0,47
631,787	0,47
632,231	0,47
632,674	0,47
633,118	0,47
633,562	0,47
634,005	0,47
634,449	0,47
634,892	0,47
635,336	0,47
635,779	0,47
636,223	0,47
636,666	0,47
637,109	0,47
637,553	0,46
637,996	0,46
638,439	0,46
638,883	0,46
639,326	0,46
639,769	0,46
640,212	0,46
640,655	0,46
641,099	0,46
641,542	0,46
641,985	0,46
642,428	0,46
642,871	0,46
643,314	0,46
643,757	0,46
644,2	0,46
644,643	0,46
645,085	0,45
645,528	0,45
645,971	0,45
646,414	0,45
646,857	0,45
647,299	0,45
647,742	0,45
648,185	0,45
648,627	0,45
649,07	0,45
649,513	0,45
649,955	0,45
650,398	0,45
650,84	0,45
651,283	0,45
651,725	0,45
652,168	0,45
652,61	0,45
653,052	0,45
653,495	0,45
653,937	0,36
654,379	0,3
654,821	0,31
655,264	0,31
655,706	0,31
656,148	0,31
656,59	0,31
657,032	0,31
657,474	0,31
657,916	0,31
658,358	0,3
658,8	0,36
659,242	0,44
659,684	0,44
660,126	0,44
660,568	0,44
661,01	0,44
661,452	0,44
661,894	0,44
662,335	0,44
662,777	0,44
663,219	0,44
663,661	0,44
664,102	0,44
664,544	0,44
664,985	0,44
665,427	0,44
665,869	0,44
666,31	0,44
666,752	0,44
667,193	0,44
667,634	0,44
668,076	0,44
668,517	0,44
668,959	0,44
669,4	0,44
669,841	0,44
670,282	0,44
670,724	0,44
671,165	0,44
671,606	0,44
672,047	0,44
672,488	0,44
672,929	0,44
673,37	0,44
673,811	0,44
674,252	0,43
674,693	0,43
675,134	0,43
675,575	0,43
676,016	0,43
676,457	0,43
676,898	0,43
677,339	0,43
677,78	0,43
678,22	0,43
678,661	0,43
679,102	0,43
679,542	0,43
679,983	0,43
680,424	0,43
680,864	0,43
681,305	0,43
681,745	0,43
682,186	0,43
682,626	0,44
683,067	0,44
683,507	0,43
683,948	0,43
684,388	0,43
684,828	0,43
685,269	0,43
685,709	0,43
686,149	0,43
686,589	0,43
687,029	0,43
687,47	0,43
687,91	0,42
688,35	0,42
688,79	0,42
689,23	0,42
689,67	0,42
690,11	0,42
690,55	0,42
690,99	0,42
691,43	0,42
691,87	0,42
692,31	0,42
692,749	0,42
693,189	0,42
693,629	0,42
694,069	0,41
694,508	0,41
694,948	0,41
695,388	0,41
695,827	0,41
696,267	0,42
696,706	0,42
697,146	0,42
697,586	0,42
698,025	0,42
698,464	0,42
698,904	0,42
699,343	0,42
699,783	0,42
700,222	0,42
700,661	0,42
701,101	0,42
701,54	0,42
701,979	0,42
702,418	0,42
702,857	0,42
703,297	0,42
703,736	0,42
704,175	0,42
704,614	0,42
705,053	0,42
705,492	0,42
705,931	0,42
706,37	0,42
706,809	0,42
707,248	0,42
707,687	0,42
708,125	0,42
708,564	0,42
709,003	0,42
709,442	0,41
709,88	0,41
710,319	0,41
710,758	0,41
711,196	0,41
711,635	0,41
712,074	0,41
712,512	0,41
712,951	0,41
713,389	0,41
713,828	0,41
714,266	0,41
714,705	0,41
715,143	0,41
715,581	0,41
716,02	0,41
716,458	0,41
716,896	0,41
717,334	0,41
717,773	0,41
718,211	0,41
718,649	0,41
719,087	0,41
719,525	0,41
719,963	0,41
720,401	0,41
720,839	0,41
721,277	0,41
721,715	0,41
722,153	0,41
722,591	0,41
723,029	0,41
723,467	0,41
723,905	0,41
724,342	0,41
724,78	0,41
725,218	0,41
725,656	0,41
726,093	0,41
726,531	0,41
726,969	0,41
727,406	0,41
727,844	0,41
728,281	0,41
728,719	0,41
729,156	0,41
729,594	0,41
730,031	0,41
730,469	0,4
730,906	0,4
731,343	0,4
731,781	0,4
732,218	0,4
732,655	0,4
733,092	0,4
733,53	0,4
733,967	0,4
734,404	0,4
734,841	0,4
735,278	0,4
735,715	0,4
736,152	0,4
736,589	0,4
737,026	0,4
737,463	0,4
737,9	0,4
738,337	0,4
738,774	0,4
739,211	0,4
739,647	0,4
740,084	0,4
740,521	0,4
740,958	0,4
741,394	0,4
741,831	0,4
742,268	0,4
742,704	0,4
743,141	0,4
743,577	0,4
744,014	0,4
744,45	0,4
744,887	0,4
745,323	0,4
745,76	0,4
746,196	0,39
746,632	0,39
747,069	0,39
747,505	0,39
747,941	0,39
748,378	0,39
748,814	0,39
749,25	0,39
749,686	0,4
750,122	0,4
750,558	0,4
750,994	0,4
751,43	0,4
751,866	0,4
752,302	0,4
752,738	0,4
753,174	0,4
753,61	0,4
754,046	0,4
754,482	0,4
754,918	0,4
755,354	0,4
755,789	0,4
756,225	0,4
756,661	0,4
757,096	0,4
757,532	0,39
757,968	0,39
758,403	0,39
758,839	0,39
759,274	0,38
759,71	0,38
760,145	0,38
760,581	0,37
761,016	0,37
761,452	0,36
761,887	0,36
762,322	0,35
762,758	0,35
763,193	0,35
763,628	0,34
764,063	0,33
764,499	0,33
764,934	0,32
765,369	0,32
765,804	0,31
766,239	0,3
766,674	0,3
767,109	0,29
767,544	0,28
767,979	0,27
768,414	0,27
768,849	0,26
769,284	0,25
769,719	0,24
770,154	0,23
770,588	0,22
771,023	0,21
771,458	0,2
771,893	0,19
772,327	0,18
772,762	0,16
773,197	0,15
773,631	0,14
774,066	0,14
774,5	0,13
774,935	0,12
775,369	0,11
775,804	0,1
776,238	0,1
776,673	0,09
777,107	0,08
777,541	0,08
777,976	0,07
778,41	0,06
778,844	0,05
779,279	0,04
779,713	0,03
780,147	0,01
780,581	0,01
781,015	-0
781,449	-0,01
781,883	-0,02
782,317	-0,03
782,751	-0,04
783,185	-0,05
783,619	-0,06
784,053	-0,07
784,487	-0,07
784,921	-0,07
785,355	-0,08
785,789	-0,09
786,223	-0,1
786,656	-0,11
787,09	-0,12
787,524	-0,13
787,957	-0,15
788,391	-0,17
788,825	-0,19
789,258	-0,21
789,692	-0,22
790,125	-0,24
790,559	-0,25
790,992	-0,27
791,426	-0,29
791,859	-0,3
792,293	-0,33
792,726	-0,34
793,159	-0,35
793,593	-0,37
794,026	-0,38
794,459	-0,41
794,892	-0,44
795,326	-0,46
795,759	-0,5
796,192	-0,54
796,625	-0,58
797,058	-0,61
797,491	-0,65
797,924	-0,68
798,357	-0,73
798,79	-0,78
799,223	-0,82
799,656	-0,87
800,089	-0,91
800,522	-0,96
800,955	-1
801,387	-1,05
801,82	-1,11
802,253	-1,17
802,686	-1,25
803,118	-1,3
803,551	-1,35
803,984	-1,4
804,416	-1,43
804,849	-1,45
805,281	-1,55
805,714	-1,88
806,146	-2,36
806,579	-2,65
807,011	-2,83
807,444	-2,93
807,876	-3,03
808,308	-3,06
808,741	-3,09
809,173	-3,14
809,605	-3,17
810,037	-3,24
810,47	-3,17
810,902	-2,99
811,334	-2,84
811,766	-2,68
812,198	-2,44
812,63	-2
813,062	-1,77
813,494	-1,67
813,926	-1,58
814,358	-1,53
814,79	-1,45
815,222	-1,39
815,654	-1,34
816,086	-1,28
816,518	-1,22
816,949	-1,17
817,381	-1,13
817,813	-1,11
818,245	-1,07
818,676	-1,03
819,108	-1
819,54	-0,98
819,971	-0,96
820,403	-0,91
820,834	-0,9
821,266	-0,86
821,697	-0,84
822,129	-0,82
822,56	-0,8
822,991	-0,78
823,423	-0,75
823,854	-0,74
824,286	-0,72
824,717	-0,71
825,148	-0,69
825,579	-0,69
826,01	-0,67
826,442	-0,67
826,873	-0,65
827,304	-0,61
827,735	-0,61
828,166	-0,62
828,597	-0,62
829,028	-0,61
829,459	-0,62
829,89	-0,62
830,321	-0,57
830,752	-0,58
831,183	-0,57
831,613	-0,57
832,044	-0,56
832,475	-0,55
832,906	-0,56
833,336	-0,56
833,767	-0,57
834,198	-0,56
834,628	-0,54
835,059	-0,57
835,49	-0,58
835,92	-0,55
836,351	-0,54
836,781	-0,55
837,212	-0,56
837,642	-0,56
838,072	-0,55
838,503	-0,55
838,933	-0,53
839,364	-0,54
839,794	-0,52
840,224	-0,5
840,654	-0,55
841,085	-0,56
841,515	-0,53
841,945	-0,54
842,375	-0,49
842,805	-0,48
843,235	-0,47
843,665	-0,48
844,095	-0,47
844,525	-0,49
844,955	-0,5
845,385	-0,48
845,815	-0,47
846,245	-0,49
846,675	-0,5
847,105	-0,52
847,534	-0,52
847,964	-0,51
848,394	-0,5
848,824	-0,53
849,253	-0,52
849,683	-0,52
850,112	-0,53
850,542	-0,55
850,972	-0,56
851,401	-0,53
851,831	-0,51
852,26	-0,52
852,69	-0,55
853,119	-0,54
853,548	-0,54
853,978	-0,55
854,407	-0,53
854,836	-0,54
855,266	-0,53
855,695	-0,54
856,124	-0,56
856,553	-0,56
856,983	-0,58
857,412	-0,57
857,841	-0,58
858,27	-0,59
858,699	-0,59
859,128	-0,62
859,557	-0,62
859,986	-0,64
860,415	-0,62
860,844	-0,59
861,273	-0,59
861,702	-0,6
862,13	-0,59
862,559	-0,6
862,988	-0,58
863,417	-0,57
863,845	-0,56
864,274	-0,56
864,703	-0,55
865,131	-0,56
865,56	-0,57
865,989	-0,6
866,417	-0,57
866,846	-0,57
867,274	-0,57
867,703	-0,58
868,131	-0,6
868,559	-0,6
868,988	-0,63
869,416	-0,62
869,844	-0,63
870,273	-0,65
870,701	-0,62
871,129	-0,65
871,557	-0,68
871,986	-0,66
872,414	-0,68
872,842	-0,65
873,27	-0,64
873,698	-0,61
874,126	-0,65
874,554	-0,64
874,982	-0,64
875,41	-0,67
875,838	-0,62
876,266	-0,6
876,694	-0,61
877,122	-0,6
877,549	-0,65
877,977	-0,62
878,405	-0,64
878,833	-0,61
879,26	-0,6
879,688	-0,59
880,116	-0,57
880,543	-0,56
880,971	-0,55
881,399	-0,57
881,826	-0,58
882,254	-0,57
882,681	-0,6
883,109	-0,56
883,536	-0,57
883,963	-0,59
884,391	-0,58
884,818	-0,56
885,245	-0,59
885,673	-0,61
886,1	-0,59
886,527	-0,58
886,954	-0,54
887,381	-0,56
887,809	-0,58
888,236	-0,6
888,663	-0,6
889,09	-0,64
889,517	-0,66
889,944	-0,66
890,371	-0,64
890,798	-0,65
891,225	-0,64
891,652	-0,68
892,078	-0,66
892,505	-0,68
892,932	-0,63
893,359	-0,63
893,786	-0,62
894,212	-0,6
894,639	-0,62
895,066	-0,64
895,492	-0,58
895,919	-0,59
896,346	-0,58
896,772	-0,58
897,199	-0,55
897,625	-0,58
898,052	-0,54
898,478	-0,53
898,904	-0,55
899,331	-0,53
899,757	-0,55
900,183	-0,57
900,61	-0,55
901,036	-0,55
901,462	-0,55
901,888	-0,55
902,315	-0,53
902,741	-0,58
903,167	-0,57
903,593	-0,59
904,019	-0,58
904,445	-0,56
904,871	-0,59
905,297	-0,61
905,723	-0,61
906,149	-0,6
906,575	-0,61
907,001	-0,62
907,427	-0,59
907,852	-0,58
908,278	-0,58
908,704	-0,56
909,13	-0,55
909,555	-0,54
909,981	-0,54
910,407	-0,53
910,832	-0,53
911,258	-0,53
911,684	-0,53
912,109	-0,54
912,535	-0,56
912,96	-0,52
913,386	-0,56
913,811	-0,56
914,236	-0,57
914,662	-0,55
915,087	-0,58
915,512	-0,58
915,938	-0,61
916,363	-0,6
916,788	-0,61
917,213	-0,58
917,639	-0,63
918,064	-0,6
918,489	-0,61
918,914	-0,6
919,339	-0,62
919,764	-0,59
920,189	-0,59
920,614	-0,61
921,039	-0,6
921,464	-0,56
921,889	-0,59
922,314	-0,6
922,738	-0,64
923,163	-0,66
923,588	-0,65
924,013	-0,64
924,437	-0,65
924,862	-0,66
925,287	-0,62
925,711	-0,63
926,136	-0,64
926,561	-0,62
926,985	-0,61
927,41	-0,58
927,834	-0,55
928,259	-0,53
928,683	-0,52
929,108	-0,49
929,532	-0,5
929,956	-0,5
930,381	-0,49
930,805	-0,5
931,229	-0,49
931,653	-0,48
932,078	-0,47
932,502	-0,48
932,926	-0,49
933,35	-0,49
933,774	-0,49
934,198	-0,47
934,622	-0,46
935,046	-0,47
935,47	-0,47
935,894	-0,46
936,318	-0,46
936,742	-0,46
937,166	-0,46
937,59	-0,45
938,014	-0,47
938,437	-0,48
938,861	-0,51
939,285	-0,52
939,709	-0,51
940,132	-0,5
940,556	-0,51
940,98	-0,51
941,403	-0,5
941,827	-0,49
942,25	-0,51
942,674	-0,49
943,097	-0,49
943,521	-0,48
943,944	-0,5
944,368	-0,49
944,791	-0,48
945,214	-0,5
945,638	-0,51
946,061	-0,54
946,484	-0,55
946,907	-0,53
947,331	-0,53
947,754	-0,58
948,177	-0,55
948,6	-0,54
949,023	-0,54
949,446	-0,54
949,869	-0,52
950,292	-0,51
950,715	-0,48
951,138	-0,46
951,561	-0,44
951,984	-0,44
952,407	-0,42
952,83	-0,4
953,252	-0,36
953,675	-0,35
954,098	-0,37
954,521	-0,35
954,943	-0,35
955,366	-0,36
955,789	-0,35
956,211	-0,37
956,634	-0,38
957,056	-0,36
957,479	-0,37
957,902	-0,4
958,324	-0,41
958,746	-0,39
959,169	-0,41
959,591	-0,41
960,014	-0,41
960,436	-0,4
960,858	-0,4
961,281	-0,4
961,703	-0,41
962,125	-0,41
962,547	-0,39
962,969	-0,39
963,391	-0,4
963,814	-0,41
964,236	-0,4
964,658	-0,38
965,08	-0,4
965,502	-0,39
965,924	-0,36
966,346	-0,35
966,768	-0,34
967,189	-0,35
967,611	-0,34
968,033	-0,34
968,455	-0,31
968,877	-0,32
969,298	-0,33
969,72	-0,33
970,142	-0,32
970,563	-0,33
970,985	-0,32
971,407	-0,31
971,828	-0,29
972,25	-0,29
972,671	-0,27
973,093	-0,27
973,514	-0,27
973,936	-0,25
974,357	-0,23
974,778	-0,23
975,2	-0,23
975,621	-0,23
976,042	-0,22
976,464	-0,2
976,885	-0,2
977,306	-0,19
977,727	-0,19
978,148	-0,18
978,57	-0,16
978,991	-0,15
979,412	-0,13
979,833	-0,13
980,254	-0,12
980,675	-0,12
981,096	-0,12
981,517	-0,09
981,937	-0,09
982,358	-0,07
982,779	-0,05
983,2	-0,05
983,621	-0,04
984,042	-0,03
984,462	-0,01
984,883	0,01
985,304	0,02
985,724	0,04
986,145	0,04
986,565	0,06
986,986	0,07
987,407	0,08
987,827	0,1
988,248	0,11
988,668	0,12
989,088	0,13
989,509	0,14
989,929	0,16
990,35	0,17
990,77	0,18
991,19	0,19
991,61	0,2
992,031	0,21
992,451	0,22
992,871	0,22
993,291	0,24
993,711	0,25
994,131	0,25
994,551	0,26
994,971	0,26
995,391	0,27
995,811	0,27
996,231	0,28
996,651	0,28
997,071	0,29
997,491	0,3
997,911	0,31
998,331	0,32
998,75	0,32
999,17	0,33
999,59	0,34
1000,009	0,34
1000,429	0,35
1000,849	0,35
1001,268	0,36
1001,688	0,36
1002,107	0,36
1002,527	0,37
1002,946	0,37
1003,366	0,37
1003,785	0,38
1004,205	0,38
1004,624	0,38
1005,044	0,39
1005,463	0,39
1005,882	0,39
1006,301	0,39
1006,721	0,39
1007,14	0,4
1007,559	0,4
1007,978	0,4
1008,397	0,4
1008,816	0,4
1009,235	0,4
1009,655	0,4
1010,074	0,4
1010,492	0,4
1010,911	0,4
1011,33	0,39
1011,749	0,39
1012,168	0,39
1012,587	0,39
1013,006	0,39
1013,425	0,39
1013,843	0,39
1014,262	0,39
1014,681	0,39
1015,099	0,39
1015,518	0,39
1015,937	0,39
1016,355	0,39
1016,774	0,39
1017,192	0,39
1017,611	0,39
1018,029	0,39
1018,448	0,39
1018,866	0,39
1019,285	0,39
1019,703	0,39
1020,121	0,39
1020,54	0,39
1020,958	0,39
1021,376	0,39
1021,794	0,39
1022,213	0,39
1022,631	0,39
1023,049	0,39
1023,467	0,39
1023,885	0,39
1024,303	0,38
1024,721	0,38
1025,139	0,38
1025,557	0,38
1025,975	0,38
1026,393	0,38
1026,811	0,38
1027,229	0,38
1027,647	0,38
1028,065	0,38
1028,482	0,38
1028,9	0,38
1029,318	0,38
1029,735	0,37
1030,153	0,37
1030,571	0,37
1030,988	0,38
1031,406	0,38
1031,823	0,37
1032,241	0,37
1032,659	0,37
1033,076	0,38
1033,493	0,38
1033,911	0,38
1034,328	0,38
1034,746	0,38
1035,163	0,38
1035,58	0,38
1035,997	0,38
1036,415	0,38
1036,832	0,38
1037,249	0,38
1037,666	0,38
1038,083	0,38
1038,501	0,38
1038,918	0,38
1039,335	0,38
1039,752	0,38
1040,169	0,38
1040,586	0,38
1041,003	0,38
1041,419	0,38
1041,836	0,38
1042,253	0,38
1042,67	0,38
1043,087	0,38
1043,504	0,38
1043,92	0,37
1044,337	0,37
1044,754	0,37
1045,17	0,37
1045,587	0,37
1046,004	0,37
1046,42	0,37
1046,837	0,37
1047,253	0,37
1047,67	0,37
1048,086	0,37
1048,503	0,37
1048,919	0,37
1049,335	0,37
1049,752	0,37
1050,168	0,37
1050,584	0,37
1051,001	0,37
1051,417	0,37
1051,833	0,37
1052,249	0,37
1052,665	0,37
1053,081	0,38
1053,497	0,38
1053,914	0,38
1054,33	0,38
1054,746	0,38
1055,162	0,38
1055,578	0,38
1055,993	0,38
1056,409	0,38
1056,825	0,38
1057,241	0,38
1057,657	0,38
1058,073	0,38
1058,488	0,38
1058,904	0,38
1059,32	0,38
1059,736	0,38
1060,151	0,38
1060,567	0,38
1060,982	0,38
1061,398	0,38
1061,813	0,38
1062,229	0,38
1062,644	0,38
1063,06	0,38
1063,475	0,38
1063,891	0,38
1064,306	0,38
1064,721	0,38
1065,137	0,38
1065,552	0,38
1065,967	0,38
1066,382	0,38
1066,798	0,38
1067,213	0,38
1067,628	0,38
1068,043	0,38
1068,458	0,38
1068,873	0,38
1069,288	0,38
1069,703	0,38
1070,118	0,38
1070,533	0,38
1070,948	0,38
1071,363	0,38
1071,778	0,38
1072,193	0,38
1072,607	0,38
1073,022	0,38
1073,437	0,38
1073,852	0,39
1074,266	0,39
1074,681	0,39
1075,096	0,39
1075,51	0,38
1075,925	0,39
1076,339	0,39
1076,754	0,38
1077,168	0,38
1077,583	0,38
1077,997	0,38
1078,412	0,38
1078,826	0,38
1079,24	0,38
1079,655	0,38
1080,069	0,38
1080,483	0,37
1080,897	0,37
1081,312	0,37
1081,726	0,37
1082,14	0,37
1082,554	0,37
1082,968	0,37
1083,382	0,37
1083,796	0,37
1084,21	0,37
1084,624	0,37
1085,038	0,36
1085,452	0,36
1085,866	0,36
1086,28	0,36
1086,694	0,36
1087,108	0,36
1087,521	0,36
1087,935	0,36
1088,349	0,36
1088,763	0,35
1089,176	0,35
1089,59	0,35
1090,004	0,35
1090,417	0,34
1090,831	0,34
1091,244	0,34
1091,658	0,33
1092,071	0,33
1092,485	0,33
1092,898	0,32
1093,312	0,32
1093,725	0,32
1094,138	0,32
1094,552	0,32
1094,965	0,32
1095,378	0,31
1095,791	0,31
1096,205	0,31
1096,618	0,31
1097,031	0,31
1097,444	0,3
1097,857	0,3
1098,27	0,29
1098,683	0,29
1099,096	0,29
1099,509	0,29
1099,922	0,28
1100,335	0,28
1100,748	0,27
1101,161	0,27
1101,574	0,26
1101,986	0,26
1102,399	0,26
1102,812	0,25
1103,225	0,25
1103,637	0,25
1104,05	0,24
1104,463	0,24
1104,875	0,24
1105,288	0,24
1105,7	0,23
1106,113	0,22
1106,525	0,22
1106,938	0,21
1107,35	0,21
1107,763	0,21
1108,175	0,2
1108,588	0,2
1109	0,19
1109,412	0,19
1109,824	0,19
1110,237	0,18
1110,649	0,19
1111,061	0,18
