Data from 18C-808nm-8A-cont_Absorbance__337__01766.txt Node

Date: Mon Jul 17 17:30:38 CEST 2023
User: Laser008
Spectrometer: MAYP115816
Trigger mode: 0
Integration Time (sec): 2,500000E-1
Scans to average: 10
Electric dark correction enabled: true
Nonlinearity correction enabled: true
Boxcar width: 5
XAxis mode: Wavelengths
Number of Pixels in Spectrum: 2068
>>>>>Begin Spectral Data<<<<<
198,914	-0,72
199,384	-0,49
199,855	-0,36
200,325	-0,29
200,796	-0,26
201,266	-0,21
201,737	-0,19
202,207	-0,17
202,677	-0,17
203,147	-0,16
203,618	-0,13
204,088	-0,12
204,558	-0,11
205,028	-0,1
205,498	-0,11
205,968	-0,1
206,439	-0,12
206,909	-0,11
207,379	-0,13
207,849	-0,12
208,319	-0,13
208,789	-0,14
209,258	-0,13
209,728	-0,14
210,198	-0,14
210,668	-0,14
211,138	-0,13
211,608	-0,13
212,077	-0,14
212,547	-0,13
213,017	-0,13
213,486	-0,13
213,956	-0,14
214,426	-0,15
214,895	-0,14
215,365	-0,15
215,834	-0,15
216,304	-0,16
216,773	-0,16
217,243	-0,17
217,712	-0,18
218,181	-0,18
218,651	-0,18
219,12	-0,17
219,589	-0,17
220,058	-0,16
220,528	-0,17
220,997	-0,18
221,466	-0,19
221,935	-0,19
222,404	-0,19
222,873	-0,18
223,342	-0,18
223,812	-0,18
224,281	-0,18
224,749	-0,19
225,218	-0,21
225,687	-0,21
226,156	-0,2
226,625	-0,18
227,094	-0,18
227,563	-0,18
228,031	-0,2
228,5	-0,21
228,969	-0,22
229,438	-0,21
229,906	-0,2
230,375	-0,18
230,844	-0,18
231,312	-0,18
231,781	-0,19
232,249	-0,18
232,718	-0,18
233,186	-0,16
233,655	-0,16
234,123	-0,16
234,591	-0,16
235,06	-0,16
235,528	-0,16
235,996	-0,15
236,465	-0,15
236,933	-0,15
237,401	-0,15
237,869	-0,14
238,337	-0,14
238,805	-0,12
239,274	-0,11
239,742	-0,11
240,21	-0,11
240,678	-0,11
241,146	-0,11
241,614	-0,11
242,081	-0,1
242,549	-0,1
243,017	-0,11
243,485	-0,11
243,953	-0,11
244,421	-0,11
244,888	-0,11
245,356	-0,11
245,824	-0,11
246,291	-0,11
246,759	-0,12
247,227	-0,12
247,694	-0,11
248,162	-0,1
248,629	-0,1
249,097	-0,1
249,564	-0,11
250,032	-0,12
250,499	-0,12
250,967	-0,12
251,434	-0,13
251,901	-0,12
252,369	-0,12
252,836	-0,13
253,303	-0,15
253,77	-0,15
254,237	-0,15
254,705	-0,15
255,172	-0,14
255,639	-0,14
256,106	-0,15
256,573	-0,15
257,04	-0,16
257,507	-0,17
257,974	-0,17
258,441	-0,15
258,908	-0,16
259,375	-0,17
259,841	-0,18
260,308	-0,19
260,775	-0,19
261,242	-0,19
261,709	-0,19
262,175	-0,2
262,642	-0,2
263,109	-0,19
263,575	-0,21
264,042	-0,19
264,508	-0,19
264,975	-0,21
265,441	-0,22
265,908	-0,22
266,374	-0,21
266,841	-0,22
267,307	-0,22
267,773	-0,2
268,24	-0,21
268,706	-0,21
269,172	-0,21
269,639	-0,23
270,105	-0,2
270,571	-0,2
271,037	-0,21
271,503	-0,22
271,969	-0,21
272,435	-0,22
272,902	-0,23
273,368	-0,25
273,834	-0,25
274,3	-0,26
274,765	-0,25
275,231	-0,26
275,697	-0,25
276,163	-0,25
276,629	-0,24
277,095	-0,24
277,56	-0,24
278,026	-0,25
278,492	-0,23
278,958	-0,22
279,423	-0,22
279,889	-0,21
280,354	-0,22
280,82	-0,21
281,286	-0,23
281,751	-0,24
282,217	-0,23
282,682	-0,23
283,147	-0,23
283,613	-0,23
284,078	-0,23
284,544	-0,24
285,009	-0,25
285,474	-0,24
285,939	-0,26
286,405	-0,25
286,87	-0,24
287,335	-0,24
287,8	-0,23
288,265	-0,22
288,73	-0,23
289,195	-0,25
289,66	-0,25
290,125	-0,23
290,59	-0,24
291,055	-0,23
291,52	-0,23
291,985	-0,23
292,45	-0,25
292,915	-0,25
293,38	-0,25
293,844	-0,23
294,309	-0,22
294,774	-0,21
295,239	-0,22
295,703	-0,22
296,168	-0,21
296,632	-0,22
297,097	-0,2
297,562	-0,19
298,026	-0,2
298,491	-0,19
298,955	-0,18
299,419	-0,19
299,884	-0,19
300,348	-0,18
300,813	-0,16
301,277	-0,16
301,741	-0,16
302,205	-0,17
302,67	-0,16
303,134	-0,15
303,598	-0,15
304,062	-0,15
304,526	-0,15
304,99	-0,16
305,454	-0,16
305,919	-0,16
306,383	-0,16
306,847	-0,15
307,31	-0,16
307,774	-0,17
308,238	-0,16
308,702	-0,16
309,166	-0,17
309,63	-0,17
310,094	-0,14
310,557	-0,14
311,021	-0,14
311,485	-0,14
311,948	-0,13
312,412	-0,12
312,876	-0,12
313,339	-0,12
313,803	-0,12
314,266	-0,12
314,73	-0,12
315,193	-0,13
315,657	-0,12
316,12	-0,11
316,584	-0,1
317,047	-0,1
317,51	-0,09
317,973	-0,09
318,437	-0,09
318,9	-0,08
319,363	-0,07
319,826	-0,06
320,29	-0,06
320,753	-0,06
321,216	-0,06
321,679	-0,06
322,142	-0,06
322,605	-0,08
323,068	-0,08
323,531	-0,07
323,994	-0,06
324,457	-0,06
324,92	-0,05
325,382	-0,06
325,845	-0,05
326,308	-0,04
326,771	-0,03
327,233	-0,02
327,696	-0,01
328,159	-0
328,622	0,01
329,084	0
329,547	0,01
330,009	0,02
330,472	0,04
330,934	0,04
331,397	0,04
331,859	0,05
332,322	0,05
332,784	0,06
333,246	0,06
333,709	0,06
334,171	0,06
334,633	0,06
335,096	0,06
335,558	0,05
336,02	0,05
336,482	0,05
336,944	0,07
337,406	0,08
337,868	0,07
338,331	0,08
338,793	0,09
339,255	0,1
339,717	0,11
340,178	0,12
340,64	0,14
341,102	0,15
341,564	0,16
342,026	0,16
342,488	0,18
342,949	0,19
343,411	0,22
343,873	0,25
344,335	0,27
344,796	0,31
345,258	0,36
345,719	0,4
346,181	0,44
346,643	0,49
347,104	0,52
347,566	0,55
348,027	0,58
348,488	0,6
348,95	0,62
349,411	0,65
349,873	0,67
350,334	0,69
350,795	0,71
351,256	0,72
351,718	0,73
352,179	0,74
352,64	0,74
353,101	0,74
353,562	0,75
354,023	0,75
354,484	0,75
354,945	0,76
355,406	0,76
355,867	0,76
356,328	0,76
356,789	0,76
357,25	0,77
357,711	0,77
358,172	0,77
358,633	0,77
359,093	0,77
359,554	0,78
360,015	0,78
360,476	0,78
360,936	0,78
361,397	0,78
361,858	0,78
362,318	0,78
362,779	0,79
363,239	0,79
363,7	0,79
364,16	0,79
364,621	0,79
365,081	0,79
365,541	0,79
366,002	0,79
366,462	0,79
366,922	0,79
367,383	0,79
367,843	0,79
368,303	0,79
368,763	0,79
369,223	0,79
369,684	0,79
370,144	0,79
370,604	0,79
371,064	0,79
371,524	0,79
371,984	0,79
372,444	0,79
372,904	0,79
373,363	0,78
373,823	0,78
374,283	0,78
374,743	0,78
375,203	0,78
375,663	0,78
376,122	0,78
376,582	0,78
377,042	0,78
377,501	0,78
377,961	0,78
378,42	0,78
378,88	0,78
379,34	0,78
379,799	0,78
380,259	0,78
380,718	0,78
381,177	0,78
381,637	0,78
382,096	0,78
382,555	0,78
383,015	0,78
383,474	0,78
383,933	0,78
384,393	0,78
384,852	0,78
385,311	0,78
385,77	0,78
386,229	0,78
386,688	0,78
387,147	0,78
387,606	0,78
388,065	0,78
388,524	0,77
388,983	0,77
389,442	0,77
389,901	0,77
390,36	0,77
390,819	0,77
391,277	0,77
391,736	0,77
392,195	0,77
392,654	0,77
393,112	0,77
393,571	0,77
394,03	0,77
394,488	0,77
394,947	0,77
395,405	0,77
395,864	0,77
396,322	0,77
396,781	0,77
397,239	0,77
397,698	0,77
398,156	0,77
398,614	0,77
399,073	0,77
399,531	0,77
399,989	0,77
400,447	0,77
400,905	0,77
401,364	0,77
401,822	0,77
402,28	0,76
402,738	0,76
403,196	0,76
403,654	0,76
404,112	0,76
404,57	0,76
405,028	0,76
405,486	0,76
405,944	0,76
406,402	0,76
406,859	0,76
407,317	0,76
407,775	0,76
408,233	0,76
408,691	0,76
409,148	0,76
409,606	0,76
410,064	0,76
410,521	0,76
410,979	0,76
411,436	0,76
411,894	0,76
412,351	0,76
412,809	0,76
413,266	0,76
413,724	0,76
414,181	0,76
414,638	0,76
415,096	0,76
415,553	0,76
416,01	0,76
416,467	0,76
416,925	0,76
417,382	0,76
417,839	0,76
418,296	0,76
418,753	0,76
419,21	0,76
419,667	0,76
420,124	0,76
420,581	0,76
421,038	0,76
421,495	0,75
421,952	0,76
422,409	0,76
422,866	0,76
423,322	0,76
423,779	0,76
424,236	0,76
424,693	0,76
425,149	0,76
425,606	0,76
426,063	0,76
426,519	0,76
426,976	0,76
427,433	0,76
427,889	0,76
428,346	0,75
428,802	0,75
429,258	0,75
429,715	0,75
430,171	0,75
430,628	0,75
431,084	0,75
431,54	0,75
431,997	0,75
432,453	0,75
432,909	0,75
433,365	0,75
433,821	0,75
434,277	0,75
434,734	0,75
435,19	0,75
435,646	0,75
436,102	0,75
436,558	0,75
437,014	0,75
437,47	0,75
437,925	0,75
438,381	0,75
438,837	0,75
439,293	0,75
439,749	0,75
440,205	0,75
440,66	0,75
441,116	0,75
441,572	0,75
442,027	0,75
442,483	0,75
442,939	0,75
443,394	0,75
443,85	0,76
444,305	0,76
444,761	0,76
445,216	0,76
445,672	0,76
446,127	0,76
446,582	0,76
447,038	0,76
447,493	0,76
447,948	0,76
448,403	0,76
448,859	0,76
449,314	0,76
449,769	0,76
450,224	0,76
450,679	0,76
451,134	0,76
451,589	0,76
452,044	0,76
452,499	0,76
452,954	0,76
453,409	0,76
453,864	0,76
454,319	0,76
454,774	0,76
455,229	0,76
455,684	0,76
456,138	0,76
456,593	0,76
457,048	0,76
457,503	0,76
457,957	0,76
458,412	0,76
458,866	0,76
459,321	0,76
459,776	0,76
460,23	0,76
460,685	0,76
461,139	0,77
461,593	0,77
462,048	0,77
462,502	0,77
462,957	0,77
463,411	0,77
463,865	0,77
464,319	0,77
464,774	0,77
465,228	0,77
465,682	0,77
466,136	0,77
466,59	0,78
467,044	0,78
467,499	0,78
467,953	0,78
468,407	0,78
468,861	0,78
469,315	0,78
469,768	0,78
470,222	0,78
470,676	0,78
471,13	0,78
471,584	0,78
472,038	0,79
472,491	0,79
472,945	0,79
473,399	0,79
473,852	0,79
474,306	0,79
474,76	0,79
475,213	0,79
475,667	0,79
476,12	0,8
476,574	0,8
477,027	0,8
477,481	0,8
477,934	0,8
478,388	0,8
478,841	0,81
479,294	0,81
479,748	0,81
480,201	0,81
480,654	0,81
481,107	0,81
481,561	0,82
482,014	0,82
482,467	0,82
482,92	0,82
483,373	0,82
483,826	0,82
484,279	0,83
484,732	0,83
485,185	0,83
485,638	0,83
486,091	0,83
486,544	0,84
486,997	0,84
487,449	0,84
487,902	0,84
488,355	0,85
488,808	0,85
489,26	0,85
489,713	0,85
490,166	0,86
490,618	0,86
491,071	0,86
491,523	0,86
491,976	0,87
492,429	0,87
492,881	0,87
493,333	0,88
493,786	0,88
494,238	0,88
494,691	0,89
495,143	0,89
495,595	0,89
496,048	0,9
496,5	0,9
496,952	0,9
497,404	0,91
497,856	0,91
498,309	0,91
498,761	0,92
499,213	0,92
499,665	0,93
500,117	0,93
500,569	0,93
501,021	0,94
501,473	0,94
501,925	0,95
502,377	0,95
502,828	0,95
503,28	0,96
503,732	0,96
504,184	0,96
504,636	0,97
505,087	0,97
505,539	0,98
505,991	0,98
506,442	0,98
506,894	0,99
507,345	0,99
507,797	1
508,249	1
508,7	1
509,151	1,01
509,603	1,01
510,054	1,01
510,506	1,02
510,957	1,02
511,408	1,03
511,86	1,03
512,311	1,03
512,762	1,04
513,213	1,04
513,665	1,04
514,116	1,05
514,567	1,05
515,018	1,05
515,469	1,06
515,92	1,06
516,371	1,06
516,822	1,07
517,273	1,07
517,724	1,07
518,175	1,07
518,626	1,08
519,076	1,08
519,527	1,08
519,978	1,09
520,429	1,09
520,88	1,09
521,33	1,09
521,781	1,09
522,232	1,1
522,682	1,1
523,133	1,1
523,583	1,1
524,034	1,1
524,484	1,1
524,935	1,1
525,385	1,1
525,836	1,1
526,286	1,1
526,736	1,1
527,187	1,1
527,637	1,1
528,087	1,1
528,538	1,1
528,988	1,1
529,438	1,1
529,888	1,1
530,338	1,1
530,788	1,1
531,238	1,1
531,688	1,09
532,139	1,09
532,589	1,09
533,038	1,09
533,488	1,09
533,938	1,09
534,388	1,08
534,838	1,08
535,288	1,08
535,738	1,07
536,187	1,07
536,637	1,07
537,087	1,06
537,537	1,06
537,986	1,06
538,436	1,05
538,885	1,05
539,335	1,04
539,785	1,04
540,234	1,03
540,684	1,03
541,133	1,02
541,582	1,02
542,032	1,02
542,481	1,01
542,931	1,01
543,38	1
543,829	0,99
544,278	0,99
544,728	0,99
545,177	0,98
545,626	0,98
546,075	0,97
546,524	0,97
546,973	0,97
547,422	0,96
547,871	0,96
548,32	0,95
548,769	0,95
549,218	0,95
549,667	0,94
550,116	0,94
550,565	0,94
551,014	0,93
551,463	0,93
551,911	0,92
552,36	0,92
552,809	0,91
553,258	0,91
553,706	0,9
554,155	0,9
554,603	0,9
555,052	0,89
555,501	0,89
555,949	0,88
556,398	0,88
556,846	0,87
557,294	0,87
557,743	0,86
558,191	0,86
558,64	0,85
559,088	0,85
559,536	0,84
559,985	0,84
560,433	0,83
560,881	0,83
561,329	0,82
561,777	0,82
562,225	0,81
562,674	0,81
563,122	0,81
563,57	0,8
564,018	0,8
564,466	0,79
564,914	0,79
565,362	0,79
565,809	0,78
566,257	0,78
566,705	0,77
567,153	0,77
567,601	0,76
568,048	0,76
568,496	0,76
568,944	0,75
569,392	0,75
569,839	0,75
570,287	0,74
570,734	0,74
571,182	0,74
571,63	0,73
572,077	0,73
572,525	0,73
572,972	0,72
573,419	0,72
573,867	0,72
574,314	0,71
574,761	0,71
575,209	0,7
575,656	0,7
576,103	0,7
576,551	0,69
576,998	0,69
577,445	0,69
577,892	0,69
578,339	0,68
578,786	0,68
579,233	0,68
579,68	0,67
580,127	0,67
580,574	0,67
581,021	0,66
581,468	0,66
581,915	0,66
582,362	0,66
582,809	0,65
583,255	0,65
583,702	0,65
584,149	0,65
584,596	0,65
585,042	0,64
585,489	0,64
585,936	0,64
586,382	0,64
586,829	0,63
587,275	0,63
587,722	0,63
588,168	0,63
588,615	0,62
589,061	0,62
589,508	0,62
589,954	0,62
590,4	0,62
590,847	0,61
591,293	0,61
591,739	0,61
592,185	0,61
592,632	0,61
593,078	0,61
593,524	0,6
593,97	0,6
594,416	0,6
594,862	0,6
595,308	0,6
595,754	0,6
596,2	0,6
596,646	0,59
597,092	0,59
597,538	0,59
597,984	0,59
598,43	0,59
598,876	0,59
599,321	0,58
599,767	0,58
600,213	0,58
600,659	0,58
601,104	0,58
601,55	0,58
601,995	0,58
602,441	0,57
602,887	0,57
603,332	0,57
603,778	0,57
604,223	0,57
604,668	0,57
605,114	0,57
605,559	0,57
606,005	0,57
606,45	0,56
606,895	0,56
607,341	0,56
607,786	0,56
608,231	0,56
608,676	0,55
609,121	0,55
609,566	0,54
610,012	0,54
610,457	0,53
610,902	0,53
611,347	0,53
611,792	0,53
612,237	0,53
612,682	0,52
613,127	0,52
613,571	0,52
614,016	0,53
614,461	0,53
614,906	0,53
615,351	0,53
615,795	0,53
616,24	0,53
616,685	0,53
617,129	0,53
617,574	0,53
618,019	0,53
618,463	0,53
618,908	0,53
619,352	0,53
619,797	0,53
620,241	0,53
620,686	0,53
621,13	0,53
621,574	0,53
622,019	0,53
622,463	0,52
622,907	0,52
623,352	0,52
623,796	0,52
624,24	0,52
624,684	0,52
625,128	0,52
625,572	0,52
626,016	0,52
626,461	0,52
626,905	0,52
627,349	0,52
627,793	0,52
628,236	0,52
628,68	0,52
629,124	0,52
629,568	0,52
630,012	0,52
630,456	0,52
630,9	0,52
631,343	0,52
631,787	0,52
632,231	0,52
632,674	0,52
633,118	0,52
633,562	0,52
634,005	0,52
634,449	0,52
634,892	0,52
635,336	0,51
635,779	0,51
636,223	0,51
636,666	0,51
637,109	0,51
637,553	0,51
637,996	0,51
638,439	0,51
638,883	0,51
639,326	0,51
639,769	0,51
640,212	0,51
640,655	0,51
641,099	0,51
641,542	0,51
641,985	0,5
642,428	0,5
642,871	0,5
643,314	0,5
643,757	0,5
644,2	0,5
644,643	0,5
645,085	0,5
645,528	0,5
645,971	0,5
646,414	0,5
646,857	0,5
647,299	0,5
647,742	0,5
648,185	0,5
648,627	0,5
649,07	0,5
649,513	0,5
649,955	0,5
650,398	0,5
650,84	0,5
651,283	0,5
651,725	0,5
652,168	0,5
652,61	0,5
653,052	0,5
653,495	0,5
653,937	0,41
654,379	0,36
654,821	0,36
655,264	0,36
655,706	0,36
656,148	0,36
656,59	0,36
657,032	0,36
657,474	0,36
657,916	0,36
658,358	0,35
658,8	0,41
659,242	0,5
659,684	0,5
660,126	0,49
660,568	0,49
661,01	0,49
661,452	0,49
661,894	0,49
662,335	0,49
662,777	0,49
663,219	0,49
663,661	0,49
664,102	0,49
664,544	0,49
664,985	0,49
665,427	0,49
665,869	0,49
666,31	0,49
666,752	0,49
667,193	0,49
667,634	0,49
668,076	0,49
668,517	0,49
668,959	0,49
669,4	0,49
669,841	0,49
670,282	0,49
670,724	0,49
671,165	0,49
671,606	0,49
672,047	0,49
672,488	0,49
672,929	0,49
673,37	0,49
673,811	0,49
674,252	0,48
674,693	0,48
675,134	0,48
675,575	0,48
676,016	0,48
676,457	0,48
676,898	0,48
677,339	0,48
677,78	0,48
678,22	0,48
678,661	0,48
679,102	0,48
679,542	0,48
679,983	0,48
680,424	0,48
680,864	0,48
681,305	0,48
681,745	0,48
682,186	0,48
682,626	0,48
683,067	0,48
683,507	0,48
683,948	0,48
684,388	0,48
684,828	0,48
685,269	0,48
685,709	0,48
686,149	0,48
686,589	0,48
687,029	0,48
687,47	0,47
687,91	0,47
688,35	0,47
688,79	0,47
689,23	0,47
689,67	0,47
690,11	0,47
690,55	0,47
690,99	0,47
691,43	0,47
691,87	0,47
692,31	0,47
692,749	0,47
693,189	0,46
693,629	0,46
694,069	0,46
694,508	0,46
694,948	0,46
695,388	0,46
695,827	0,46
696,267	0,46
696,706	0,46
697,146	0,46
697,586	0,47
698,025	0,47
698,464	0,47
698,904	0,47
699,343	0,47
699,783	0,47
700,222	0,47
700,661	0,47
701,101	0,47
701,54	0,47
701,979	0,47
702,418	0,47
702,857	0,47
703,297	0,47
703,736	0,47
704,175	0,47
704,614	0,47
705,053	0,47
705,492	0,47
705,931	0,47
706,37	0,47
706,809	0,46
707,248	0,46
707,687	0,46
708,125	0,46
708,564	0,46
709,003	0,46
709,442	0,46
709,88	0,46
710,319	0,46
710,758	0,46
711,196	0,46
711,635	0,46
712,074	0,46
712,512	0,46
712,951	0,46
713,389	0,45
713,828	0,45
714,266	0,45
714,705	0,45
715,143	0,45
715,581	0,45
716,02	0,45
716,458	0,45
716,896	0,45
717,334	0,45
717,773	0,45
718,211	0,45
718,649	0,46
719,087	0,46
719,525	0,46
719,963	0,46
720,401	0,46
720,839	0,46
721,277	0,46
721,715	0,46
722,153	0,46
722,591	0,46
723,029	0,46
723,467	0,46
723,905	0,46
724,342	0,46
724,78	0,46
725,218	0,46
725,656	0,46
726,093	0,46
726,531	0,46
726,969	0,46
727,406	0,46
727,844	0,46
728,281	0,46
728,719	0,46
729,156	0,46
729,594	0,46
730,031	0,45
730,469	0,45
730,906	0,45
731,343	0,45
731,781	0,45
732,218	0,45
732,655	0,45
733,092	0,45
733,53	0,45
733,967	0,45
734,404	0,44
734,841	0,44
735,278	0,44
735,715	0,44
736,152	0,44
736,589	0,44
737,026	0,44
737,463	0,44
737,9	0,44
738,337	0,44
738,774	0,44
739,211	0,44
739,647	0,44
740,084	0,44
740,521	0,44
740,958	0,44
741,394	0,44
741,831	0,44
742,268	0,44
742,704	0,44
743,141	0,44
743,577	0,44
744,014	0,44
744,45	0,44
744,887	0,44
745,323	0,44
745,76	0,44
746,196	0,43
746,632	0,43
747,069	0,43
747,505	0,43
747,941	0,43
748,378	0,43
748,814	0,43
749,25	0,43
749,686	0,43
750,122	0,43
750,558	0,43
750,994	0,44
751,43	0,44
751,866	0,44
752,302	0,44
752,738	0,44
753,174	0,44
753,61	0,44
754,046	0,44
754,482	0,44
754,918	0,44
755,354	0,44
755,789	0,44
756,225	0,44
756,661	0,44
757,096	0,44
757,532	0,43
757,968	0,43
758,403	0,43
758,839	0,43
759,274	0,42
759,71	0,42
760,145	0,41
760,581	0,41
761,016	0,4
761,452	0,4
761,887	0,39
762,322	0,39
762,758	0,38
763,193	0,38
763,628	0,37
764,063	0,37
764,499	0,36
764,934	0,35
765,369	0,35
765,804	0,34
766,239	0,33
766,674	0,33
767,109	0,32
767,544	0,31
767,979	0,29
768,414	0,28
768,849	0,27
769,284	0,27
769,719	0,26
770,154	0,25
770,588	0,24
771,023	0,23
771,458	0,21
771,893	0,2
772,327	0,19
772,762	0,18
773,197	0,17
773,631	0,16
774,066	0,15
774,5	0,14
774,935	0,13
775,369	0,12
775,804	0,11
776,238	0,11
776,673	0,1
777,107	0,08
777,541	0,07
777,976	0,06
778,41	0,05
778,844	0,04
779,279	0,04
779,713	0,03
780,147	0,01
780,581	0,01
781,015	-0,01
781,449	-0,02
781,883	-0,03
782,317	-0,04
782,751	-0,05
783,185	-0,06
783,619	-0,07
784,053	-0,08
784,487	-0,09
784,921	-0,09
785,355	-0,1
785,789	-0,11
786,223	-0,12
786,656	-0,13
787,09	-0,14
787,524	-0,15
787,957	-0,16
788,391	-0,18
788,825	-0,18
789,258	-0,2
789,692	-0,21
790,125	-0,23
790,559	-0,24
790,992	-0,26
791,426	-0,28
791,859	-0,29
792,293	-0,32
792,726	-0,34
793,159	-0,36
793,593	-0,38
794,026	-0,4
794,459	-0,43
794,892	-0,46
795,326	-0,49
795,759	-0,53
796,192	-0,57
796,625	-0,62
797,058	-0,64
797,491	-0,68
797,924	-0,72
798,357	-0,77
798,79	-0,82
799,223	-0,86
799,656	-0,91
800,089	-0,96
800,522	-1
800,955	-1,04
801,387	-1,1
801,82	-1,15
802,253	-1,22
802,686	-1,3
803,118	-1,35
803,551	-1,41
803,984	-1,45
804,416	-1,49
804,849	-1,53
805,281	-1,69
805,714	-2,08
806,146	-2,49
806,579	-2,73
807,011	-2,89
807,444	-2,98
807,876	-3,06
808,308	-3,09
808,741	-3,12
809,173	-3,17
809,605	-3,19
810,037	-3,26
810,47	-3,17
810,902	-2,97
811,334	-2,82
811,766	-2,66
812,198	-2,4
812,63	-1,98
813,062	-1,78
813,494	-1,69
813,926	-1,6
814,358	-1,55
814,79	-1,47
815,222	-1,41
815,654	-1,36
816,086	-1,3
816,518	-1,24
816,949	-1,19
817,381	-1,15
817,813	-1,13
818,245	-1,09
818,676	-1,05
819,108	-1,02
819,54	-1,01
819,971	-0,99
820,403	-0,94
820,834	-0,92
821,266	-0,88
821,697	-0,86
822,129	-0,84
822,56	-0,82
822,991	-0,79
823,423	-0,77
823,854	-0,76
824,286	-0,73
824,717	-0,72
825,148	-0,71
825,579	-0,69
826,01	-0,68
826,442	-0,68
826,873	-0,65
827,304	-0,62
827,735	-0,61
828,166	-0,61
828,597	-0,61
829,028	-0,6
829,459	-0,61
829,89	-0,61
830,321	-0,57
830,752	-0,59
831,183	-0,57
831,613	-0,57
832,044	-0,57
832,475	-0,55
832,906	-0,58
833,336	-0,58
833,767	-0,58
834,198	-0,57
834,628	-0,55
835,059	-0,58
835,49	-0,59
835,92	-0,56
836,351	-0,56
836,781	-0,56
837,212	-0,57
837,642	-0,56
838,072	-0,54
838,503	-0,55
838,933	-0,52
839,364	-0,53
839,794	-0,51
840,224	-0,51
840,654	-0,55
841,085	-0,56
841,515	-0,53
841,945	-0,54
842,375	-0,5
842,805	-0,49
843,235	-0,48
843,665	-0,49
844,095	-0,48
844,525	-0,5
844,955	-0,5
845,385	-0,48
845,815	-0,46
846,245	-0,49
846,675	-0,5
847,105	-0,51
847,534	-0,51
847,964	-0,5
848,394	-0,5
848,824	-0,52
849,253	-0,52
849,683	-0,52
850,112	-0,53
850,542	-0,56
850,972	-0,56
851,401	-0,54
851,831	-0,51
852,26	-0,52
852,69	-0,55
853,119	-0,54
853,548	-0,54
853,978	-0,54
854,407	-0,52
854,836	-0,52
855,266	-0,5
855,695	-0,52
856,124	-0,53
856,553	-0,55
856,983	-0,58
857,412	-0,57
857,841	-0,58
858,27	-0,58
858,699	-0,59
859,128	-0,62
859,557	-0,64
859,986	-0,65
860,415	-0,64
860,844	-0,61
861,273	-0,61
861,702	-0,62
862,13	-0,6
862,559	-0,62
862,988	-0,6
863,417	-0,59
863,845	-0,59
864,274	-0,59
864,703	-0,58
865,131	-0,59
865,56	-0,6
865,989	-0,62
866,417	-0,59
866,846	-0,6
867,274	-0,59
867,703	-0,61
868,131	-0,62
868,559	-0,61
868,988	-0,63
869,416	-0,62
869,844	-0,63
870,273	-0,65
870,701	-0,62
871,129	-0,66
871,557	-0,68
871,986	-0,68
872,414	-0,69
872,842	-0,67
873,27	-0,65
873,698	-0,62
874,126	-0,66
874,554	-0,65
874,982	-0,64
875,41	-0,67
875,838	-0,62
876,266	-0,6
876,694	-0,6
877,122	-0,59
877,549	-0,64
877,977	-0,61
878,405	-0,64
878,833	-0,61
879,26	-0,59
879,688	-0,59
880,116	-0,57
880,543	-0,56
880,971	-0,54
881,399	-0,57
881,826	-0,58
882,254	-0,57
882,681	-0,61
883,109	-0,57
883,536	-0,58
883,963	-0,59
884,391	-0,57
884,818	-0,55
885,245	-0,59
885,673	-0,62
886,1	-0,59
886,527	-0,58
886,954	-0,54
887,381	-0,56
887,809	-0,58
888,236	-0,59
888,663	-0,6
889,09	-0,64
889,517	-0,67
889,944	-0,65
890,371	-0,64
890,798	-0,64
891,225	-0,65
891,652	-0,68
892,078	-0,64
892,505	-0,67
892,932	-0,62
893,359	-0,63
893,786	-0,63
894,212	-0,6
894,639	-0,62
895,066	-0,65
895,492	-0,59
895,919	-0,59
896,346	-0,58
896,772	-0,59
897,199	-0,56
897,625	-0,59
898,052	-0,55
898,478	-0,54
898,904	-0,56
899,331	-0,54
899,757	-0,56
900,183	-0,58
900,61	-0,57
901,036	-0,57
901,462	-0,57
901,888	-0,57
902,315	-0,56
902,741	-0,61
903,167	-0,59
903,593	-0,62
904,019	-0,6
904,445	-0,57
904,871	-0,6
905,297	-0,61
905,723	-0,61
906,149	-0,6
906,575	-0,61
907,001	-0,61
907,427	-0,58
907,852	-0,57
908,278	-0,58
908,704	-0,56
909,13	-0,56
909,555	-0,56
909,981	-0,55
910,407	-0,55
910,832	-0,55
911,258	-0,55
911,684	-0,54
912,109	-0,54
912,535	-0,56
912,96	-0,51
913,386	-0,55
913,811	-0,54
914,236	-0,56
914,662	-0,54
915,087	-0,58
915,512	-0,58
915,938	-0,59
916,363	-0,59
916,788	-0,6
917,213	-0,59
917,639	-0,65
918,064	-0,62
918,489	-0,62
918,914	-0,62
919,339	-0,64
919,764	-0,61
920,189	-0,6
920,614	-0,63
921,039	-0,63
921,464	-0,58
921,889	-0,61
922,314	-0,62
922,738	-0,65
923,163	-0,66
923,588	-0,66
924,013	-0,66
924,437	-0,65
924,862	-0,67
925,287	-0,63
925,711	-0,65
926,136	-0,66
926,561	-0,64
926,985	-0,63
927,41	-0,61
927,834	-0,58
928,259	-0,54
928,683	-0,52
929,108	-0,49
929,532	-0,49
929,956	-0,49
930,381	-0,47
930,805	-0,47
931,229	-0,47
931,653	-0,45
932,078	-0,45
932,502	-0,46
932,926	-0,48
933,35	-0,48
933,774	-0,47
934,198	-0,46
934,622	-0,45
935,046	-0,46
935,47	-0,47
935,894	-0,46
936,318	-0,46
936,742	-0,46
937,166	-0,46
937,59	-0,46
938,014	-0,48
938,437	-0,49
938,861	-0,52
939,285	-0,53
939,709	-0,52
940,132	-0,52
940,556	-0,52
940,98	-0,52
941,403	-0,5
941,827	-0,5
942,25	-0,51
942,674	-0,5
943,097	-0,49
943,521	-0,48
943,944	-0,49
944,368	-0,48
944,791	-0,47
945,214	-0,49
945,638	-0,5
946,061	-0,53
946,484	-0,54
946,907	-0,52
947,331	-0,52
947,754	-0,57
948,177	-0,53
948,6	-0,53
949,023	-0,54
949,446	-0,53
949,869	-0,51
950,292	-0,51
950,715	-0,48
951,138	-0,47
951,561	-0,44
951,984	-0,44
952,407	-0,42
952,83	-0,41
953,252	-0,38
953,675	-0,37
954,098	-0,38
954,521	-0,37
954,943	-0,36
955,366	-0,37
955,789	-0,35
956,211	-0,38
956,634	-0,38
957,056	-0,36
957,479	-0,37
957,902	-0,39
958,324	-0,39
958,746	-0,39
959,169	-0,4
959,591	-0,4
960,014	-0,41
960,436	-0,4
960,858	-0,39
961,281	-0,39
961,703	-0,4
962,125	-0,4
962,547	-0,37
962,969	-0,38
963,391	-0,38
963,814	-0,39
964,236	-0,38
964,658	-0,35
965,08	-0,37
965,502	-0,36
965,924	-0,34
966,346	-0,35
966,768	-0,34
967,189	-0,37
967,611	-0,36
968,033	-0,36
968,455	-0,33
968,877	-0,34
969,298	-0,35
969,72	-0,35
970,142	-0,35
970,563	-0,35
970,985	-0,34
971,407	-0,33
971,828	-0,3
972,25	-0,3
972,671	-0,28
973,093	-0,28
973,514	-0,27
973,936	-0,25
974,357	-0,24
974,778	-0,23
975,2	-0,22
975,621	-0,21
976,042	-0,19
976,464	-0,19
976,885	-0,18
977,306	-0,17
977,727	-0,17
978,148	-0,16
978,57	-0,15
978,991	-0,13
979,412	-0,12
979,833	-0,12
980,254	-0,11
980,675	-0,11
981,096	-0,1
981,517	-0,08
981,937	-0,08
982,358	-0,06
982,779	-0,04
983,2	-0,04
983,621	-0,03
984,042	-0,02
984,462	-0
984,883	0,02
985,304	0,03
985,724	0,04
986,145	0,05
986,565	0,07
986,986	0,08
987,407	0,09
987,827	0,11
988,248	0,12
988,668	0,13
989,088	0,14
989,509	0,15
989,929	0,16
990,35	0,17
990,77	0,18
991,19	0,2
991,61	0,21
992,031	0,22
992,451	0,24
992,871	0,24
993,291	0,26
993,711	0,27
994,131	0,27
994,551	0,28
994,971	0,29
995,391	0,3
995,811	0,3
996,231	0,31
996,651	0,31
997,071	0,32
997,491	0,33
997,911	0,34
998,331	0,34
998,75	0,35
999,17	0,36
999,59	0,37
1000,009	0,37
1000,429	0,37
1000,849	0,38
1001,268	0,39
1001,688	0,39
1002,107	0,39
1002,527	0,4
1002,946	0,4
1003,366	0,4
1003,785	0,41
1004,205	0,41
1004,624	0,42
1005,044	0,42
1005,463	0,42
1005,882	0,42
1006,301	0,43
1006,721	0,43
1007,14	0,43
1007,559	0,43
1007,978	0,43
1008,397	0,43
1008,816	0,43
1009,235	0,43
1009,655	0,43
1010,074	0,43
1010,492	0,43
1010,911	0,43
1011,33	0,43
1011,749	0,43
1012,168	0,43
1012,587	0,43
1013,006	0,43
1013,425	0,43
1013,843	0,43
1014,262	0,42
1014,681	0,42
1015,099	0,42
1015,518	0,42
1015,937	0,42
1016,355	0,42
1016,774	0,42
1017,192	0,42
1017,611	0,42
1018,029	0,42
1018,448	0,42
1018,866	0,42
1019,285	0,42
1019,703	0,42
1020,121	0,42
1020,54	0,42
1020,958	0,42
1021,376	0,42
1021,794	0,42
1022,213	0,42
1022,631	0,42
1023,049	0,42
1023,467	0,41
1023,885	0,41
1024,303	0,41
1024,721	0,41
1025,139	0,41
1025,557	0,41
1025,975	0,41
1026,393	0,41
1026,811	0,41
1027,229	0,41
1027,647	0,41
1028,065	0,4
1028,482	0,4
1028,9	0,4
1029,318	0,4
1029,735	0,4
1030,153	0,4
1030,571	0,4
1030,988	0,4
1031,406	0,4
1031,823	0,4
1032,241	0,4
1032,659	0,4
1033,076	0,4
1033,493	0,41
1033,911	0,41
1034,328	0,41
1034,746	0,41
1035,163	0,41
1035,58	0,41
1035,997	0,41
1036,415	0,41
1036,832	0,41
1037,249	0,41
1037,666	0,41
1038,083	0,41
1038,501	0,41
1038,918	0,41
1039,335	0,41
1039,752	0,41
1040,169	0,41
1040,586	0,41
1041,003	0,41
1041,419	0,41
1041,836	0,41
1042,253	0,41
1042,67	0,41
1043,087	0,41
1043,504	0,41
1043,92	0,41
1044,337	0,41
1044,754	0,41
1045,17	0,41
1045,587	0,41
1046,004	0,4
1046,42	0,41
1046,837	0,41
1047,253	0,41
1047,67	0,41
1048,086	0,41
1048,503	0,41
1048,919	0,41
1049,335	0,41
1049,752	0,41
1050,168	0,41
1050,584	0,41
1051,001	0,41
1051,417	0,41
1051,833	0,41
1052,249	0,41
1052,665	0,41
1053,081	0,41
1053,497	0,41
1053,914	0,41
1054,33	0,42
1054,746	0,42
1055,162	0,42
1055,578	0,42
1055,993	0,42
1056,409	0,42
1056,825	0,42
1057,241	0,42
1057,657	0,42
1058,073	0,42
1058,488	0,42
1058,904	0,42
1059,32	0,42
1059,736	0,42
1060,151	0,42
1060,567	0,42
1060,982	0,42
1061,398	0,42
1061,813	0,42
1062,229	0,41
1062,644	0,41
1063,06	0,41
1063,475	0,41
1063,891	0,41
1064,306	0,41
1064,721	0,41
1065,137	0,41
1065,552	0,41
1065,967	0,41
1066,382	0,41
1066,798	0,41
1067,213	0,41
1067,628	0,41
1068,043	0,41
1068,458	0,41
1068,873	0,41
1069,288	0,41
1069,703	0,41
1070,118	0,41
1070,533	0,41
1070,948	0,41
1071,363	0,41
1071,778	0,41
1072,193	0,41
1072,607	0,41
1073,022	0,41
1073,437	0,41
1073,852	0,41
1074,266	0,41
1074,681	0,41
1075,096	0,41
1075,51	0,41
1075,925	0,41
1076,339	0,41
1076,754	0,41
1077,168	0,41
1077,583	0,41
1077,997	0,41
1078,412	0,41
1078,826	0,41
1079,24	0,41
1079,655	0,41
1080,069	0,41
1080,483	0,41
1080,897	0,41
1081,312	0,41
1081,726	0,41
1082,14	0,4
1082,554	0,4
1082,968	0,4
1083,382	0,4
1083,796	0,4
1084,21	0,4
1084,624	0,4
1085,038	0,39
1085,452	0,39
1085,866	0,39
1086,28	0,39
1086,694	0,39
1087,108	0,39
1087,521	0,39
1087,935	0,38
1088,349	0,38
1088,763	0,38
1089,176	0,38
1089,59	0,37
1090,004	0,37
1090,417	0,37
1090,831	0,37
1091,244	0,36
1091,658	0,36
1092,071	0,36
1092,485	0,35
1092,898	0,35
1093,312	0,35
1093,725	0,35
1094,138	0,34
1094,552	0,34
1094,965	0,34
1095,378	0,34
1095,791	0,33
1096,205	0,33
1096,618	0,33
1097,031	0,32
1097,444	0,32
1097,857	0,32
1098,27	0,31
1098,683	0,31
1099,096	0,31
1099,509	0,3
1099,922	0,3
1100,335	0,29
1100,748	0,29
1101,161	0,28
1101,574	0,28
1101,986	0,27
1102,399	0,27
1102,812	0,27
1103,225	0,26
1103,637	0,26
1104,05	0,26
1104,463	0,26
1104,875	0,26
1105,288	0,25
1105,7	0,24
1106,113	0,24
1106,525	0,24
1106,938	0,23
1107,35	0,22
1107,763	0,22
1108,175	0,22
1108,588	0,21
1109	0,2
1109,412	0,2
1109,824	0,2
1110,237	0,2
1110,649	0,19
1111,061	0,18
