Data from 18C-808nm-8A-cont_Absorbance__344__01773.txt Node

Date: Mon Jul 17 17:30:55 CEST 2023
User: Laser008
Spectrometer: MAYP115816
Trigger mode: 0
Integration Time (sec): 2,500000E-1
Scans to average: 10
Electric dark correction enabled: true
Nonlinearity correction enabled: true
Boxcar width: 5
XAxis mode: Wavelengths
Number of Pixels in Spectrum: 2068
>>>>>Begin Spectral Data<<<<<
198,914	-0,71
199,384	-0,48
199,855	-0,36
200,325	-0,28
200,796	-0,24
201,266	-0,19
201,737	-0,17
202,207	-0,16
202,677	-0,15
203,147	-0,13
203,618	-0,1
204,088	-0,09
204,558	-0,08
205,028	-0,07
205,498	-0,08
205,968	-0,09
206,439	-0,11
206,909	-0,11
207,379	-0,11
207,849	-0,12
208,319	-0,13
208,789	-0,14
209,258	-0,13
209,728	-0,14
210,198	-0,14
210,668	-0,13
211,138	-0,13
211,608	-0,12
212,077	-0,12
212,547	-0,13
213,017	-0,13
213,486	-0,12
213,956	-0,13
214,426	-0,14
214,895	-0,13
215,365	-0,14
215,834	-0,15
216,304	-0,16
216,773	-0,16
217,243	-0,18
217,712	-0,19
218,181	-0,19
218,651	-0,19
219,12	-0,19
219,589	-0,18
220,058	-0,17
220,528	-0,18
220,997	-0,19
221,466	-0,19
221,935	-0,2
222,404	-0,19
222,873	-0,18
223,342	-0,17
223,812	-0,17
224,281	-0,17
224,749	-0,19
225,218	-0,2
225,687	-0,2
226,156	-0,19
226,625	-0,17
227,094	-0,17
227,563	-0,18
228,031	-0,19
228,5	-0,19
228,969	-0,2
229,438	-0,18
229,906	-0,17
230,375	-0,16
230,844	-0,16
231,312	-0,16
231,781	-0,17
232,249	-0,16
232,718	-0,16
233,186	-0,13
233,655	-0,14
234,123	-0,13
234,591	-0,14
235,06	-0,15
235,528	-0,15
235,996	-0,15
236,465	-0,15
236,933	-0,14
237,401	-0,14
237,869	-0,13
238,337	-0,14
238,805	-0,13
239,274	-0,14
239,742	-0,13
240,21	-0,13
240,678	-0,12
241,146	-0,11
241,614	-0,11
242,081	-0,1
242,549	-0,1
243,017	-0,11
243,485	-0,11
243,953	-0,1
244,421	-0,1
244,888	-0,1
245,356	-0,1
245,824	-0,1
246,291	-0,1
246,759	-0,11
247,227	-0,11
247,694	-0,1
248,162	-0,1
248,629	-0,1
249,097	-0,1
249,564	-0,11
250,032	-0,11
250,499	-0,12
250,967	-0,13
251,434	-0,13
251,901	-0,13
252,369	-0,13
252,836	-0,14
253,303	-0,15
253,77	-0,16
254,237	-0,16
254,705	-0,16
255,172	-0,16
255,639	-0,15
256,106	-0,17
256,573	-0,16
257,04	-0,17
257,507	-0,17
257,974	-0,17
258,441	-0,15
258,908	-0,16
259,375	-0,18
259,841	-0,18
260,308	-0,18
260,775	-0,18
261,242	-0,17
261,709	-0,18
262,175	-0,19
262,642	-0,19
263,109	-0,18
263,575	-0,2
264,042	-0,18
264,508	-0,17
264,975	-0,18
265,441	-0,2
265,908	-0,21
266,374	-0,2
266,841	-0,19
267,307	-0,2
267,773	-0,19
268,24	-0,2
268,706	-0,2
269,172	-0,21
269,639	-0,22
270,105	-0,21
270,571	-0,2
271,037	-0,2
271,503	-0,21
271,969	-0,21
272,435	-0,21
272,902	-0,23
273,368	-0,23
273,834	-0,23
274,3	-0,23
274,765	-0,22
275,231	-0,22
275,697	-0,22
276,163	-0,22
276,629	-0,21
277,095	-0,22
277,56	-0,21
278,026	-0,21
278,492	-0,19
278,958	-0,2
279,423	-0,21
279,889	-0,21
280,354	-0,21
280,82	-0,2
281,286	-0,22
281,751	-0,23
282,217	-0,22
282,682	-0,22
283,147	-0,23
283,613	-0,24
284,078	-0,23
284,544	-0,24
285,009	-0,24
285,474	-0,24
285,939	-0,25
286,405	-0,24
286,87	-0,23
287,335	-0,23
287,8	-0,23
288,265	-0,21
288,73	-0,22
289,195	-0,23
289,66	-0,23
290,125	-0,21
290,59	-0,22
291,055	-0,22
291,52	-0,22
291,985	-0,22
292,45	-0,24
292,915	-0,23
293,38	-0,23
293,844	-0,22
294,309	-0,2
294,774	-0,19
295,239	-0,22
295,703	-0,22
296,168	-0,2
296,632	-0,2
297,097	-0,18
297,562	-0,17
298,026	-0,18
298,491	-0,19
298,955	-0,18
299,419	-0,18
299,884	-0,19
300,348	-0,17
300,813	-0,15
301,277	-0,17
301,741	-0,17
302,205	-0,17
302,67	-0,17
303,134	-0,16
303,598	-0,16
304,062	-0,15
304,526	-0,14
304,99	-0,15
305,454	-0,15
305,919	-0,16
306,383	-0,16
306,847	-0,15
307,31	-0,16
307,774	-0,17
308,238	-0,16
308,702	-0,16
309,166	-0,18
309,63	-0,18
310,094	-0,16
310,557	-0,16
311,021	-0,15
311,485	-0,15
311,948	-0,14
312,412	-0,13
312,876	-0,12
313,339	-0,14
313,803	-0,14
314,266	-0,13
314,73	-0,13
315,193	-0,12
315,657	-0,11
316,12	-0,11
316,584	-0,1
317,047	-0,1
317,51	-0,08
317,973	-0,08
318,437	-0,06
318,9	-0,05
319,363	-0,04
319,826	-0,04
320,29	-0,04
320,753	-0,04
321,216	-0,04
321,679	-0,04
322,142	-0,04
322,605	-0,06
323,068	-0,06
323,531	-0,07
323,994	-0,07
324,457	-0,07
324,92	-0,07
325,382	-0,06
325,845	-0,05
326,308	-0,05
326,771	-0,05
327,233	-0,03
327,696	-0,03
328,159	-0,02
328,622	-0
329,084	0
329,547	0,01
330,009	0,01
330,472	0,02
330,934	0,03
331,397	0,03
331,859	0,03
332,322	0,03
332,784	0,04
333,246	0,04
333,709	0,04
334,171	0,05
334,633	0,05
335,096	0,05
335,558	0,06
336,02	0,06
336,482	0,06
336,944	0,07
337,406	0,08
337,868	0,08
338,331	0,08
338,793	0,09
339,255	0,1
339,717	0,1
340,178	0,11
340,64	0,11
341,102	0,12
341,564	0,13
342,026	0,14
342,488	0,16
342,949	0,17
343,411	0,2
343,873	0,23
344,335	0,26
344,796	0,3
345,258	0,34
345,719	0,39
346,181	0,43
346,643	0,47
347,104	0,5
347,566	0,53
348,027	0,56
348,488	0,58
348,95	0,6
349,411	0,63
349,873	0,65
350,334	0,66
350,795	0,68
351,256	0,69
351,718	0,7
352,179	0,7
352,64	0,71
353,101	0,71
353,562	0,71
354,023	0,72
354,484	0,72
354,945	0,72
355,406	0,72
355,867	0,72
356,328	0,73
356,789	0,73
357,25	0,73
357,711	0,73
358,172	0,73
358,633	0,74
359,093	0,74
359,554	0,74
360,015	0,74
360,476	0,74
360,936	0,74
361,397	0,74
361,858	0,74
362,318	0,75
362,779	0,75
363,239	0,75
363,7	0,75
364,16	0,75
364,621	0,75
365,081	0,75
365,541	0,75
366,002	0,75
366,462	0,75
366,922	0,75
367,383	0,75
367,843	0,75
368,303	0,75
368,763	0,75
369,223	0,75
369,684	0,75
370,144	0,75
370,604	0,75
371,064	0,75
371,524	0,75
371,984	0,75
372,444	0,75
372,904	0,75
373,363	0,75
373,823	0,74
374,283	0,74
374,743	0,74
375,203	0,74
375,663	0,74
376,122	0,74
376,582	0,74
377,042	0,74
377,501	0,74
377,961	0,74
378,42	0,74
378,88	0,74
379,34	0,74
379,799	0,74
380,259	0,74
380,718	0,74
381,177	0,74
381,637	0,74
382,096	0,74
382,555	0,74
383,015	0,74
383,474	0,74
383,933	0,74
384,393	0,74
384,852	0,74
385,311	0,74
385,77	0,74
386,229	0,74
386,688	0,74
387,147	0,74
387,606	0,73
388,065	0,73
388,524	0,73
388,983	0,73
389,442	0,73
389,901	0,73
390,36	0,73
390,819	0,73
391,277	0,73
391,736	0,73
392,195	0,73
392,654	0,73
393,112	0,73
393,571	0,73
394,03	0,73
394,488	0,73
394,947	0,73
395,405	0,73
395,864	0,73
396,322	0,73
396,781	0,73
397,239	0,73
397,698	0,73
398,156	0,73
398,614	0,73
399,073	0,73
399,531	0,73
399,989	0,73
400,447	0,73
400,905	0,72
401,364	0,72
401,822	0,72
402,28	0,72
402,738	0,72
403,196	0,72
403,654	0,72
404,112	0,72
404,57	0,72
405,028	0,72
405,486	0,72
405,944	0,72
406,402	0,72
406,859	0,72
407,317	0,72
407,775	0,72
408,233	0,72
408,691	0,72
409,148	0,72
409,606	0,72
410,064	0,72
410,521	0,72
410,979	0,72
411,436	0,72
411,894	0,72
412,351	0,72
412,809	0,72
413,266	0,72
413,724	0,72
414,181	0,72
414,638	0,72
415,096	0,71
415,553	0,71
416,01	0,71
416,467	0,71
416,925	0,71
417,382	0,71
417,839	0,71
418,296	0,71
418,753	0,71
419,21	0,71
419,667	0,71
420,124	0,71
420,581	0,71
421,038	0,71
421,495	0,71
421,952	0,71
422,409	0,71
422,866	0,71
423,322	0,71
423,779	0,71
424,236	0,71
424,693	0,71
425,149	0,71
425,606	0,71
426,063	0,71
426,519	0,71
426,976	0,71
427,433	0,71
427,889	0,71
428,346	0,71
428,802	0,71
429,258	0,71
429,715	0,71
430,171	0,71
430,628	0,71
431,084	0,71
431,54	0,71
431,997	0,71
432,453	0,71
432,909	0,71
433,365	0,71
433,821	0,71
434,277	0,71
434,734	0,71
435,19	0,71
435,646	0,71
436,102	0,71
436,558	0,71
437,014	0,71
437,47	0,71
437,925	0,71
438,381	0,71
438,837	0,71
439,293	0,71
439,749	0,71
440,205	0,71
440,66	0,71
441,116	0,71
441,572	0,71
442,027	0,71
442,483	0,71
442,939	0,71
443,394	0,71
443,85	0,71
444,305	0,71
444,761	0,71
445,216	0,71
445,672	0,71
446,127	0,71
446,582	0,71
447,038	0,71
447,493	0,71
447,948	0,71
448,403	0,71
448,859	0,71
449,314	0,71
449,769	0,71
450,224	0,71
450,679	0,71
451,134	0,71
451,589	0,71
452,044	0,71
452,499	0,72
452,954	0,72
453,409	0,72
453,864	0,72
454,319	0,72
454,774	0,72
455,229	0,72
455,684	0,72
456,138	0,72
456,593	0,72
457,048	0,72
457,503	0,72
457,957	0,72
458,412	0,72
458,866	0,72
459,321	0,72
459,776	0,72
460,23	0,72
460,685	0,72
461,139	0,72
461,593	0,72
462,048	0,72
462,502	0,72
462,957	0,73
463,411	0,73
463,865	0,73
464,319	0,73
464,774	0,73
465,228	0,73
465,682	0,73
466,136	0,73
466,59	0,73
467,044	0,73
467,499	0,73
467,953	0,73
468,407	0,73
468,861	0,74
469,315	0,74
469,768	0,74
470,222	0,74
470,676	0,74
471,13	0,74
471,584	0,74
472,038	0,74
472,491	0,74
472,945	0,74
473,399	0,74
473,852	0,74
474,306	0,75
474,76	0,75
475,213	0,75
475,667	0,75
476,12	0,75
476,574	0,75
477,027	0,75
477,481	0,76
477,934	0,76
478,388	0,76
478,841	0,76
479,294	0,76
479,748	0,76
480,201	0,77
480,654	0,77
481,107	0,77
481,561	0,77
482,014	0,77
482,467	0,77
482,92	0,78
483,373	0,78
483,826	0,78
484,279	0,78
484,732	0,78
485,185	0,79
485,638	0,79
486,091	0,79
486,544	0,79
486,997	0,79
487,449	0,8
487,902	0,8
488,355	0,8
488,808	0,8
489,26	0,81
489,713	0,81
490,166	0,81
490,618	0,81
491,071	0,82
491,523	0,82
491,976	0,82
492,429	0,83
492,881	0,83
493,333	0,83
493,786	0,84
494,238	0,84
494,691	0,84
495,143	0,85
495,595	0,85
496,048	0,85
496,5	0,86
496,952	0,86
497,404	0,86
497,856	0,87
498,309	0,87
498,761	0,87
499,213	0,88
499,665	0,88
500,117	0,89
500,569	0,89
501,021	0,89
501,473	0,9
501,925	0,9
502,377	0,91
502,828	0,91
503,28	0,91
503,732	0,92
504,184	0,92
504,636	0,93
505,087	0,93
505,539	0,93
505,991	0,94
506,442	0,94
506,894	0,95
507,345	0,95
507,797	0,95
508,249	0,96
508,7	0,96
509,151	0,96
509,603	0,97
510,054	0,97
510,506	0,98
510,957	0,98
511,408	0,98
511,86	0,99
512,311	0,99
512,762	0,99
513,213	1
513,665	1
514,116	1
514,567	1,01
515,018	1,01
515,469	1,01
515,92	1,02
516,371	1,02
516,822	1,02
517,273	1,03
517,724	1,03
518,175	1,03
518,626	1,04
519,076	1,04
519,527	1,04
519,978	1,04
520,429	1,05
520,88	1,05
521,33	1,05
521,781	1,05
522,232	1,05
522,682	1,06
523,133	1,06
523,583	1,06
524,034	1,06
524,484	1,06
524,935	1,06
525,385	1,06
525,836	1,06
526,286	1,06
526,736	1,06
527,187	1,06
527,637	1,06
528,087	1,06
528,538	1,06
528,988	1,06
529,438	1,06
529,888	1,06
530,338	1,05
530,788	1,05
531,238	1,05
531,688	1,05
532,139	1,05
532,589	1,05
533,038	1,05
533,488	1,05
533,938	1,04
534,388	1,04
534,838	1,04
535,288	1,04
535,738	1,03
536,187	1,03
536,637	1,02
537,087	1,02
537,537	1,02
537,986	1,01
538,436	1,01
538,885	1
539,335	1
539,785	0,99
540,234	0,99
540,684	0,99
541,133	0,98
541,582	0,98
542,032	0,97
542,481	0,97
542,931	0,96
543,38	0,96
543,829	0,95
544,278	0,95
544,728	0,94
545,177	0,94
545,626	0,93
546,075	0,93
546,524	0,93
546,973	0,92
547,422	0,92
547,871	0,91
548,32	0,91
548,769	0,91
549,218	0,9
549,667	0,9
550,116	0,9
550,565	0,89
551,014	0,89
551,463	0,88
551,911	0,88
552,36	0,87
552,809	0,87
553,258	0,86
553,706	0,86
554,155	0,85
554,603	0,85
555,052	0,84
555,501	0,84
555,949	0,83
556,398	0,83
556,846	0,83
557,294	0,82
557,743	0,82
558,191	0,81
558,64	0,8
559,088	0,8
559,536	0,79
559,985	0,79
560,433	0,78
560,881	0,78
561,329	0,78
561,777	0,77
562,225	0,77
562,674	0,76
563,122	0,76
563,57	0,76
564,018	0,75
564,466	0,75
564,914	0,74
565,362	0,74
565,809	0,73
566,257	0,73
566,705	0,73
567,153	0,72
567,601	0,72
568,048	0,71
568,496	0,71
568,944	0,71
569,392	0,7
569,839	0,7
570,287	0,7
570,734	0,69
571,182	0,69
571,63	0,68
572,077	0,68
572,525	0,68
572,972	0,67
573,419	0,67
573,867	0,67
574,314	0,66
574,761	0,66
575,209	0,65
575,656	0,65
576,103	0,65
576,551	0,64
576,998	0,64
577,445	0,64
577,892	0,64
578,339	0,63
578,786	0,63
579,233	0,63
579,68	0,62
580,127	0,62
580,574	0,62
581,021	0,61
581,468	0,61
581,915	0,61
582,362	0,61
582,809	0,6
583,255	0,6
583,702	0,6
584,149	0,6
584,596	0,6
585,042	0,59
585,489	0,59
585,936	0,59
586,382	0,59
586,829	0,58
587,275	0,58
587,722	0,58
588,168	0,58
588,615	0,57
589,061	0,57
589,508	0,57
589,954	0,57
590,4	0,57
590,847	0,56
591,293	0,56
591,739	0,56
592,185	0,56
592,632	0,56
593,078	0,55
593,524	0,55
593,97	0,55
594,416	0,55
594,862	0,55
595,308	0,55
595,754	0,55
596,2	0,54
596,646	0,54
597,092	0,54
597,538	0,54
597,984	0,54
598,43	0,54
598,876	0,53
599,321	0,53
599,767	0,53
600,213	0,53
600,659	0,53
601,104	0,53
601,55	0,53
601,995	0,53
602,441	0,52
602,887	0,52
603,332	0,52
603,778	0,52
604,223	0,52
604,668	0,52
605,114	0,52
605,559	0,52
606,005	0,51
606,45	0,51
606,895	0,51
607,341	0,51
607,786	0,51
608,231	0,51
608,676	0,5
609,121	0,5
609,566	0,49
610,012	0,49
610,457	0,49
610,902	0,48
611,347	0,48
611,792	0,48
612,237	0,48
612,682	0,47
613,127	0,47
613,571	0,47
614,016	0,48
614,461	0,48
614,906	0,48
615,351	0,48
615,795	0,48
616,24	0,48
616,685	0,48
617,129	0,48
617,574	0,48
618,019	0,48
618,463	0,48
618,908	0,48
619,352	0,48
619,797	0,48
620,241	0,48
620,686	0,48
621,13	0,48
621,574	0,48
622,019	0,47
622,463	0,47
622,907	0,47
623,352	0,47
623,796	0,47
624,24	0,47
624,684	0,47
625,128	0,47
625,572	0,47
626,016	0,47
626,461	0,47
626,905	0,47
627,349	0,47
627,793	0,47
628,236	0,47
628,68	0,47
629,124	0,47
629,568	0,47
630,012	0,46
630,456	0,46
630,9	0,46
631,343	0,46
631,787	0,46
632,231	0,46
632,674	0,46
633,118	0,46
633,562	0,46
634,005	0,46
634,449	0,46
634,892	0,46
635,336	0,46
635,779	0,46
636,223	0,46
636,666	0,46
637,109	0,46
637,553	0,46
637,996	0,46
638,439	0,46
638,883	0,46
639,326	0,46
639,769	0,46
640,212	0,46
640,655	0,45
641,099	0,45
641,542	0,45
641,985	0,45
642,428	0,45
642,871	0,45
643,314	0,45
643,757	0,45
644,2	0,45
644,643	0,45
645,085	0,45
645,528	0,45
645,971	0,45
646,414	0,45
646,857	0,45
647,299	0,44
647,742	0,44
648,185	0,44
648,627	0,44
649,07	0,44
649,513	0,44
649,955	0,44
650,398	0,44
650,84	0,44
651,283	0,44
651,725	0,44
652,168	0,44
652,61	0,45
653,052	0,45
653,495	0,44
653,937	0,36
654,379	0,3
654,821	0,31
655,264	0,31
655,706	0,31
656,148	0,31
656,59	0,31
657,032	0,31
657,474	0,31
657,916	0,31
658,358	0,3
658,8	0,36
659,242	0,44
659,684	0,44
660,126	0,44
660,568	0,44
661,01	0,44
661,452	0,44
661,894	0,44
662,335	0,44
662,777	0,44
663,219	0,43
663,661	0,43
664,102	0,43
664,544	0,43
664,985	0,43
665,427	0,43
665,869	0,43
666,31	0,43
666,752	0,43
667,193	0,43
667,634	0,43
668,076	0,43
668,517	0,43
668,959	0,43
669,4	0,43
669,841	0,43
670,282	0,43
670,724	0,43
671,165	0,43
671,606	0,43
672,047	0,43
672,488	0,43
672,929	0,43
673,37	0,43
673,811	0,43
674,252	0,43
674,693	0,43
675,134	0,43
675,575	0,43
676,016	0,42
676,457	0,42
676,898	0,42
677,339	0,42
677,78	0,42
678,22	0,42
678,661	0,42
679,102	0,42
679,542	0,42
679,983	0,42
680,424	0,42
680,864	0,42
681,305	0,42
681,745	0,42
682,186	0,42
682,626	0,42
683,067	0,42
683,507	0,42
683,948	0,42
684,388	0,42
684,828	0,42
685,269	0,42
685,709	0,42
686,149	0,42
686,589	0,42
687,029	0,42
687,47	0,42
687,91	0,42
688,35	0,42
688,79	0,42
689,23	0,42
689,67	0,42
690,11	0,42
690,55	0,42
690,99	0,42
691,43	0,41
691,87	0,41
692,31	0,41
692,749	0,41
693,189	0,41
693,629	0,41
694,069	0,41
694,508	0,41
694,948	0,41
695,388	0,41
695,827	0,41
696,267	0,41
696,706	0,41
697,146	0,41
697,586	0,41
698,025	0,41
698,464	0,41
698,904	0,41
699,343	0,41
699,783	0,41
700,222	0,41
700,661	0,41
701,101	0,41
701,54	0,41
701,979	0,41
702,418	0,42
702,857	0,42
703,297	0,42
703,736	0,42
704,175	0,41
704,614	0,41
705,053	0,41
705,492	0,41
705,931	0,41
706,37	0,41
706,809	0,41
707,248	0,41
707,687	0,41
708,125	0,41
708,564	0,41
709,003	0,41
709,442	0,41
709,88	0,41
710,319	0,41
710,758	0,41
711,196	0,41
711,635	0,4
712,074	0,4
712,512	0,4
712,951	0,4
713,389	0,4
713,828	0,4
714,266	0,4
714,705	0,4
715,143	0,4
715,581	0,4
716,02	0,4
716,458	0,4
716,896	0,4
717,334	0,4
717,773	0,4
718,211	0,4
718,649	0,4
719,087	0,4
719,525	0,4
719,963	0,4
720,401	0,4
720,839	0,4
721,277	0,4
721,715	0,4
722,153	0,4
722,591	0,4
723,029	0,4
723,467	0,4
723,905	0,4
724,342	0,4
724,78	0,4
725,218	0,4
725,656	0,4
726,093	0,4
726,531	0,4
726,969	0,4
727,406	0,4
727,844	0,4
728,281	0,4
728,719	0,4
729,156	0,4
729,594	0,4
730,031	0,4
730,469	0,4
730,906	0,4
731,343	0,4
731,781	0,4
732,218	0,4
732,655	0,4
733,092	0,4
733,53	0,39
733,967	0,39
734,404	0,39
734,841	0,39
735,278	0,39
735,715	0,39
736,152	0,39
736,589	0,39
737,026	0,39
737,463	0,39
737,9	0,39
738,337	0,39
738,774	0,39
739,211	0,39
739,647	0,39
740,084	0,39
740,521	0,39
740,958	0,39
741,394	0,39
741,831	0,39
742,268	0,39
742,704	0,39
743,141	0,39
743,577	0,39
744,014	0,39
744,45	0,39
744,887	0,38
745,323	0,38
745,76	0,38
746,196	0,38
746,632	0,38
747,069	0,38
747,505	0,38
747,941	0,38
748,378	0,38
748,814	0,38
749,25	0,38
749,686	0,38
750,122	0,38
750,558	0,38
750,994	0,38
751,43	0,39
751,866	0,39
752,302	0,39
752,738	0,39
753,174	0,39
753,61	0,39
754,046	0,39
754,482	0,39
754,918	0,39
755,354	0,39
755,789	0,39
756,225	0,39
756,661	0,39
757,096	0,39
757,532	0,39
757,968	0,38
758,403	0,38
758,839	0,38
759,274	0,38
759,71	0,37
760,145	0,37
760,581	0,36
761,016	0,36
761,452	0,36
761,887	0,35
762,322	0,35
762,758	0,34
763,193	0,34
763,628	0,33
764,063	0,32
764,499	0,32
764,934	0,31
765,369	0,3
765,804	0,3
766,239	0,3
766,674	0,29
767,109	0,28
767,544	0,28
767,979	0,27
768,414	0,26
768,849	0,25
769,284	0,25
769,719	0,24
770,154	0,23
770,588	0,22
771,023	0,21
771,458	0,2
771,893	0,19
772,327	0,17
772,762	0,16
773,197	0,15
773,631	0,14
774,066	0,13
774,5	0,13
774,935	0,12
775,369	0,11
775,804	0,1
776,238	0,09
776,673	0,08
777,107	0,07
777,541	0,06
777,976	0,05
778,41	0,04
778,844	0,03
779,279	0,03
779,713	0,02
780,147	0,01
780,581	0
781,015	-0,01
781,449	-0,02
781,883	-0,02
782,317	-0,04
782,751	-0,05
783,185	-0,05
783,619	-0,06
784,053	-0,08
784,487	-0,09
784,921	-0,09
785,355	-0,1
785,789	-0,11
786,223	-0,12
786,656	-0,13
787,09	-0,14
787,524	-0,14
787,957	-0,16
788,391	-0,17
788,825	-0,18
789,258	-0,2
789,692	-0,21
790,125	-0,23
790,559	-0,24
790,992	-0,26
791,426	-0,28
791,859	-0,3
792,293	-0,33
792,726	-0,34
793,159	-0,36
793,593	-0,38
794,026	-0,4
794,459	-0,43
794,892	-0,46
795,326	-0,48
795,759	-0,52
796,192	-0,56
796,625	-0,61
797,058	-0,63
797,491	-0,67
797,924	-0,71
798,357	-0,76
798,79	-0,8
799,223	-0,84
799,656	-0,9
800,089	-0,94
800,522	-0,99
800,955	-1,03
801,387	-1,09
801,82	-1,14
802,253	-1,2
802,686	-1,28
803,118	-1,34
803,551	-1,39
803,984	-1,43
804,416	-1,47
804,849	-1,51
805,281	-1,65
805,714	-2,04
806,146	-2,47
806,579	-2,72
807,011	-2,88
807,444	-2,97
807,876	-3,05
808,308	-3,08
808,741	-3,11
809,173	-3,16
809,605	-3,18
810,037	-3,26
810,47	-3,17
810,902	-2,97
811,334	-2,81
811,766	-2,65
812,198	-2,38
812,63	-1,96
813,062	-1,76
813,494	-1,67
813,926	-1,58
814,358	-1,53
814,79	-1,45
815,222	-1,39
815,654	-1,34
816,086	-1,28
816,518	-1,22
816,949	-1,17
817,381	-1,13
817,813	-1,11
818,245	-1,07
818,676	-1,03
819,108	-1
819,54	-0,99
819,971	-0,97
820,403	-0,92
820,834	-0,91
821,266	-0,86
821,697	-0,84
822,129	-0,83
822,56	-0,81
822,991	-0,78
823,423	-0,75
823,854	-0,74
824,286	-0,72
824,717	-0,7
825,148	-0,69
825,579	-0,68
826,01	-0,67
826,442	-0,67
826,873	-0,65
827,304	-0,61
827,735	-0,61
828,166	-0,62
828,597	-0,62
829,028	-0,62
829,459	-0,62
829,89	-0,63
830,321	-0,58
830,752	-0,58
831,183	-0,56
831,613	-0,56
832,044	-0,56
832,475	-0,54
832,906	-0,55
833,336	-0,55
833,767	-0,56
834,198	-0,54
834,628	-0,53
835,059	-0,55
835,49	-0,56
835,92	-0,53
836,351	-0,53
836,781	-0,54
837,212	-0,55
837,642	-0,55
838,072	-0,53
838,503	-0,54
838,933	-0,52
839,364	-0,53
839,794	-0,51
840,224	-0,51
840,654	-0,56
841,085	-0,57
841,515	-0,54
841,945	-0,55
842,375	-0,51
842,805	-0,49
843,235	-0,49
843,665	-0,5
844,095	-0,48
844,525	-0,51
844,955	-0,51
845,385	-0,48
845,815	-0,47
846,245	-0,49
846,675	-0,49
847,105	-0,51
847,534	-0,51
847,964	-0,49
848,394	-0,48
848,824	-0,51
849,253	-0,5
849,683	-0,5
850,112	-0,51
850,542	-0,54
850,972	-0,54
851,401	-0,53
851,831	-0,52
852,26	-0,53
852,69	-0,56
853,119	-0,56
853,548	-0,56
853,978	-0,57
854,407	-0,56
854,836	-0,56
855,266	-0,55
855,695	-0,56
856,124	-0,57
856,553	-0,57
856,983	-0,59
857,412	-0,59
857,841	-0,61
858,27	-0,61
858,699	-0,61
859,128	-0,64
859,557	-0,65
859,986	-0,66
860,415	-0,64
860,844	-0,61
861,273	-0,62
861,702	-0,63
862,13	-0,6
862,559	-0,62
862,988	-0,6
863,417	-0,59
863,845	-0,57
864,274	-0,57
864,703	-0,57
865,131	-0,57
865,56	-0,58
865,989	-0,6
866,417	-0,56
866,846	-0,56
867,274	-0,55
867,703	-0,57
868,131	-0,58
868,559	-0,58
868,988	-0,61
869,416	-0,6
869,844	-0,61
870,273	-0,63
870,701	-0,62
871,129	-0,67
871,557	-0,7
871,986	-0,7
872,414	-0,71
872,842	-0,67
873,27	-0,66
873,698	-0,62
874,126	-0,67
874,554	-0,66
874,982	-0,66
875,41	-0,68
875,838	-0,63
876,266	-0,61
876,694	-0,61
877,122	-0,6
877,549	-0,66
877,977	-0,63
878,405	-0,67
878,833	-0,63
879,26	-0,61
879,688	-0,61
880,116	-0,59
880,543	-0,57
880,971	-0,55
881,399	-0,58
881,826	-0,59
882,254	-0,56
882,681	-0,6
883,109	-0,56
883,536	-0,58
883,963	-0,59
884,391	-0,57
884,818	-0,56
885,245	-0,6
885,673	-0,62
886,1	-0,59
886,527	-0,59
886,954	-0,57
887,381	-0,57
887,809	-0,59
888,236	-0,6
888,663	-0,6
889,09	-0,64
889,517	-0,66
889,944	-0,65
890,371	-0,63
890,798	-0,63
891,225	-0,63
891,652	-0,66
892,078	-0,64
892,505	-0,67
892,932	-0,63
893,359	-0,64
893,786	-0,63
894,212	-0,61
894,639	-0,62
895,066	-0,65
895,492	-0,6
895,919	-0,61
896,346	-0,6
896,772	-0,61
897,199	-0,57
897,625	-0,6
898,052	-0,57
898,478	-0,55
898,904	-0,56
899,331	-0,55
899,757	-0,57
900,183	-0,59
900,61	-0,57
901,036	-0,57
901,462	-0,56
901,888	-0,56
902,315	-0,54
902,741	-0,6
903,167	-0,58
903,593	-0,6
904,019	-0,59
904,445	-0,56
904,871	-0,58
905,297	-0,6
905,723	-0,59
906,149	-0,58
906,575	-0,59
907,001	-0,59
907,427	-0,56
907,852	-0,57
908,278	-0,58
908,704	-0,57
909,13	-0,56
909,555	-0,56
909,981	-0,55
910,407	-0,55
910,832	-0,56
911,258	-0,56
911,684	-0,56
912,109	-0,57
912,535	-0,58
912,96	-0,53
913,386	-0,57
913,811	-0,56
914,236	-0,58
914,662	-0,56
915,087	-0,6
915,512	-0,59
915,938	-0,59
916,363	-0,58
916,788	-0,59
917,213	-0,58
917,639	-0,63
918,064	-0,59
918,489	-0,6
918,914	-0,59
919,339	-0,61
919,764	-0,58
920,189	-0,59
920,614	-0,62
921,039	-0,62
921,464	-0,58
921,889	-0,62
922,314	-0,62
922,738	-0,65
923,163	-0,67
923,588	-0,67
924,013	-0,66
924,437	-0,66
924,862	-0,67
925,287	-0,62
925,711	-0,64
926,136	-0,65
926,561	-0,62
926,985	-0,62
927,41	-0,59
927,834	-0,57
928,259	-0,54
928,683	-0,52
929,108	-0,48
929,532	-0,5
929,956	-0,49
930,381	-0,48
930,805	-0,48
931,229	-0,47
931,653	-0,45
932,078	-0,44
932,502	-0,45
932,926	-0,46
933,35	-0,46
933,774	-0,45
934,198	-0,43
934,622	-0,42
935,046	-0,43
935,47	-0,44
935,894	-0,45
936,318	-0,45
936,742	-0,45
937,166	-0,45
937,59	-0,45
938,014	-0,47
938,437	-0,49
938,861	-0,51
939,285	-0,52
939,709	-0,51
940,132	-0,51
940,556	-0,51
940,98	-0,51
941,403	-0,5
941,827	-0,51
942,25	-0,52
942,674	-0,51
943,097	-0,51
943,521	-0,5
943,944	-0,51
944,368	-0,5
944,791	-0,49
945,214	-0,51
945,638	-0,51
946,061	-0,55
946,484	-0,54
946,907	-0,53
947,331	-0,52
947,754	-0,56
948,177	-0,54
948,6	-0,54
949,023	-0,54
949,446	-0,54
949,869	-0,52
950,292	-0,53
950,715	-0,49
951,138	-0,48
951,561	-0,46
951,984	-0,46
952,407	-0,45
952,83	-0,43
953,252	-0,39
953,675	-0,38
954,098	-0,4
954,521	-0,38
954,943	-0,37
955,366	-0,38
955,789	-0,35
956,211	-0,37
956,634	-0,39
957,056	-0,36
957,479	-0,37
957,902	-0,39
958,324	-0,39
958,746	-0,37
959,169	-0,38
959,591	-0,38
960,014	-0,39
960,436	-0,39
960,858	-0,38
961,281	-0,38
961,703	-0,39
962,125	-0,39
962,547	-0,37
962,969	-0,38
963,391	-0,38
963,814	-0,39
964,236	-0,38
964,658	-0,35
965,08	-0,35
965,502	-0,35
965,924	-0,32
966,346	-0,33
966,768	-0,32
967,189	-0,35
967,611	-0,34
968,033	-0,34
968,455	-0,32
968,877	-0,33
969,298	-0,34
969,72	-0,35
970,142	-0,33
970,563	-0,33
970,985	-0,32
971,407	-0,31
971,828	-0,28
972,25	-0,28
972,671	-0,26
973,093	-0,26
973,514	-0,24
973,936	-0,22
974,357	-0,21
974,778	-0,22
975,2	-0,22
975,621	-0,21
976,042	-0,2
976,464	-0,19
976,885	-0,18
977,306	-0,18
977,727	-0,17
978,148	-0,16
978,57	-0,15
978,991	-0,14
979,412	-0,12
979,833	-0,11
980,254	-0,11
980,675	-0,11
981,096	-0,09
981,517	-0,08
981,937	-0,07
982,358	-0,06
982,779	-0,05
983,2	-0,05
983,621	-0,05
984,042	-0,03
984,462	-0,02
984,883	-0
985,304	0,02
985,724	0,03
986,145	0,04
986,565	0,06
986,986	0,07
987,407	0,08
987,827	0,09
988,248	0,1
988,668	0,11
989,088	0,12
989,509	0,13
989,929	0,14
990,35	0,14
990,77	0,15
991,19	0,17
991,61	0,18
992,031	0,19
992,451	0,2
992,871	0,21
993,291	0,22
993,711	0,23
994,131	0,24
994,551	0,25
994,971	0,26
995,391	0,26
995,811	0,27
996,231	0,27
996,651	0,27
997,071	0,28
997,491	0,29
997,911	0,3
998,331	0,3
998,75	0,31
999,17	0,31
999,59	0,32
1000,009	0,33
1000,429	0,33
1000,849	0,34
1001,268	0,34
1001,688	0,34
1002,107	0,35
1002,527	0,35
1002,946	0,35
1003,366	0,36
1003,785	0,36
1004,205	0,36
1004,624	0,36
1005,044	0,37
1005,463	0,37
1005,882	0,37
1006,301	0,37
1006,721	0,37
1007,14	0,38
1007,559	0,38
1007,978	0,38
1008,397	0,38
1008,816	0,38
1009,235	0,38
1009,655	0,38
1010,074	0,38
1010,492	0,38
1010,911	0,38
1011,33	0,38
1011,749	0,38
1012,168	0,38
1012,587	0,37
1013,006	0,37
1013,425	0,37
1013,843	0,37
1014,262	0,37
1014,681	0,37
1015,099	0,37
1015,518	0,37
1015,937	0,37
1016,355	0,37
1016,774	0,37
1017,192	0,37
1017,611	0,37
1018,029	0,37
1018,448	0,37
1018,866	0,37
1019,285	0,37
1019,703	0,37
1020,121	0,37
1020,54	0,37
1020,958	0,37
1021,376	0,37
1021,794	0,37
1022,213	0,37
1022,631	0,37
1023,049	0,36
1023,467	0,36
1023,885	0,36
1024,303	0,36
1024,721	0,36
1025,139	0,36
1025,557	0,36
1025,975	0,36
1026,393	0,36
1026,811	0,36
1027,229	0,36
1027,647	0,36
1028,065	0,36
1028,482	0,35
1028,9	0,35
1029,318	0,35
1029,735	0,35
1030,153	0,35
1030,571	0,35
1030,988	0,35
1031,406	0,35
1031,823	0,35
1032,241	0,35
1032,659	0,36
1033,076	0,36
1033,493	0,36
1033,911	0,36
1034,328	0,36
1034,746	0,36
1035,163	0,36
1035,58	0,36
1035,997	0,36
1036,415	0,36
1036,832	0,36
1037,249	0,36
1037,666	0,36
1038,083	0,36
1038,501	0,36
1038,918	0,36
1039,335	0,36
1039,752	0,36
1040,169	0,36
1040,586	0,36
1041,003	0,36
1041,419	0,36
1041,836	0,36
1042,253	0,36
1042,67	0,36
1043,087	0,36
1043,504	0,36
1043,92	0,36
1044,337	0,36
1044,754	0,36
1045,17	0,36
1045,587	0,36
1046,004	0,35
1046,42	0,36
1046,837	0,36
1047,253	0,36
1047,67	0,36
1048,086	0,36
1048,503	0,36
1048,919	0,36
1049,335	0,36
1049,752	0,36
1050,168	0,36
1050,584	0,36
1051,001	0,36
1051,417	0,36
1051,833	0,36
1052,249	0,36
1052,665	0,36
1053,081	0,36
1053,497	0,36
1053,914	0,36
1054,33	0,36
1054,746	0,36
1055,162	0,37
1055,578	0,37
1055,993	0,37
1056,409	0,37
1056,825	0,37
1057,241	0,37
1057,657	0,37
1058,073	0,37
1058,488	0,37
1058,904	0,37
1059,32	0,37
1059,736	0,37
1060,151	0,37
1060,567	0,37
1060,982	0,36
1061,398	0,36
1061,813	0,36
1062,229	0,36
1062,644	0,36
1063,06	0,36
1063,475	0,36
1063,891	0,36
1064,306	0,36
1064,721	0,36
1065,137	0,36
1065,552	0,36
1065,967	0,36
1066,382	0,36
1066,798	0,36
1067,213	0,36
1067,628	0,36
1068,043	0,36
1068,458	0,36
1068,873	0,36
1069,288	0,36
1069,703	0,36
1070,118	0,36
1070,533	0,36
1070,948	0,36
1071,363	0,36
1071,778	0,36
1072,193	0,36
1072,607	0,36
1073,022	0,36
1073,437	0,36
1073,852	0,36
1074,266	0,36
1074,681	0,36
1075,096	0,36
1075,51	0,36
1075,925	0,36
1076,339	0,36
1076,754	0,36
1077,168	0,36
1077,583	0,36
1077,997	0,36
1078,412	0,36
1078,826	0,36
1079,24	0,36
1079,655	0,35
1080,069	0,35
1080,483	0,35
1080,897	0,35
1081,312	0,35
1081,726	0,35
1082,14	0,35
1082,554	0,35
1082,968	0,35
1083,382	0,35
1083,796	0,35
1084,21	0,35
1084,624	0,35
1085,038	0,35
1085,452	0,35
1085,866	0,35
1086,28	0,34
1086,694	0,34
1087,108	0,34
1087,521	0,34
1087,935	0,34
1088,349	0,33
1088,763	0,33
1089,176	0,33
1089,59	0,33
1090,004	0,32
1090,417	0,32
1090,831	0,32
1091,244	0,32
1091,658	0,31
1092,071	0,31
1092,485	0,31
1092,898	0,31
1093,312	0,3
1093,725	0,3
1094,138	0,3
1094,552	0,3
1094,965	0,3
1095,378	0,29
1095,791	0,29
1096,205	0,29
1096,618	0,29
1097,031	0,28
1097,444	0,28
1097,857	0,27
1098,27	0,27
1098,683	0,27
1099,096	0,27
1099,509	0,27
1099,922	0,26
1100,335	0,26
1100,748	0,25
1101,161	0,25
1101,574	0,24
1101,986	0,24
1102,399	0,24
1102,812	0,24
1103,225	0,23
1103,637	0,22
1104,05	0,22
1104,463	0,22
1104,875	0,22
1105,288	0,22
1105,7	0,21
1106,113	0,21
1106,525	0,21
1106,938	0,2
1107,35	0,19
1107,763	0,19
1108,175	0,19
1108,588	0,19
1109	0,18
1109,412	0,17
1109,824	0,17
1110,237	0,18
1110,649	0,18
1111,061	0,15
