Data from 18C-808nm-8A-cont_Absorbance__657__02086.txt Node

Date: Mon Jul 17 17:43:58 CEST 2023
User: Laser008
Spectrometer: MAYP115816
Trigger mode: 0
Integration Time (sec): 2,500000E-1
Scans to average: 10
Electric dark correction enabled: true
Nonlinearity correction enabled: true
Boxcar width: 5
XAxis mode: Wavelengths
Number of Pixels in Spectrum: 2068
>>>>>Begin Spectral Data<<<<<
198,914	-0,64
199,384	-0,44
199,855	-0,3
200,325	-0,22
200,796	-0,19
201,266	-0,16
201,737	-0,15
202,207	-0,13
202,677	-0,13
203,147	-0,11
203,618	-0,08
204,088	-0,07
204,558	-0,05
205,028	-0,05
205,498	-0,06
205,968	-0,06
206,439	-0,07
206,909	-0,06
207,379	-0,07
207,849	-0,06
208,319	-0,07
208,789	-0,08
209,258	-0,08
209,728	-0,09
210,198	-0,09
210,668	-0,09
211,138	-0,09
211,608	-0,08
212,077	-0,08
212,547	-0,08
213,017	-0,08
213,486	-0,09
213,956	-0,09
214,426	-0,1
214,895	-0,1
215,365	-0,11
215,834	-0,12
216,304	-0,13
216,773	-0,13
217,243	-0,14
217,712	-0,15
218,181	-0,15
218,651	-0,15
219,12	-0,15
219,589	-0,14
220,058	-0,13
220,528	-0,14
220,997	-0,14
221,466	-0,15
221,935	-0,16
222,404	-0,15
222,873	-0,14
223,342	-0,14
223,812	-0,15
224,281	-0,15
224,749	-0,15
225,218	-0,18
225,687	-0,17
226,156	-0,16
226,625	-0,15
227,094	-0,14
227,563	-0,15
228,031	-0,16
228,5	-0,16
228,969	-0,17
229,438	-0,16
229,906	-0,14
230,375	-0,13
230,844	-0,13
231,312	-0,13
231,781	-0,14
232,249	-0,13
232,718	-0,14
233,186	-0,12
233,655	-0,12
234,123	-0,11
234,591	-0,11
235,06	-0,12
235,528	-0,12
235,996	-0,11
236,465	-0,11
236,933	-0,1
237,401	-0,1
237,869	-0,09
238,337	-0,1
238,805	-0,08
239,274	-0,08
239,742	-0,07
240,21	-0,07
240,678	-0,06
241,146	-0,06
241,614	-0,06
242,081	-0,05
242,549	-0,05
243,017	-0,06
243,485	-0,07
243,953	-0,07
244,421	-0,07
244,888	-0,07
245,356	-0,07
245,824	-0,07
246,291	-0,08
246,759	-0,09
247,227	-0,09
247,694	-0,08
248,162	-0,07
248,629	-0,06
249,097	-0,06
249,564	-0,07
250,032	-0,08
250,499	-0,08
250,967	-0,09
251,434	-0,09
251,901	-0,09
252,369	-0,09
252,836	-0,1
253,303	-0,12
253,77	-0,13
254,237	-0,12
254,705	-0,12
255,172	-0,11
255,639	-0,12
256,106	-0,12
256,573	-0,12
257,04	-0,13
257,507	-0,13
257,974	-0,13
258,441	-0,11
258,908	-0,12
259,375	-0,13
259,841	-0,13
260,308	-0,14
260,775	-0,14
261,242	-0,13
261,709	-0,13
262,175	-0,13
262,642	-0,13
263,109	-0,13
263,575	-0,14
264,042	-0,13
264,508	-0,13
264,975	-0,14
265,441	-0,14
265,908	-0,15
266,374	-0,16
266,841	-0,16
267,307	-0,16
267,773	-0,15
268,24	-0,16
268,706	-0,17
269,172	-0,18
269,639	-0,19
270,105	-0,17
270,571	-0,18
271,037	-0,17
271,503	-0,18
271,969	-0,18
272,435	-0,17
272,902	-0,19
273,368	-0,2
273,834	-0,2
274,3	-0,2
274,765	-0,2
275,231	-0,21
275,697	-0,2
276,163	-0,21
276,629	-0,21
277,095	-0,22
277,56	-0,22
278,026	-0,22
278,492	-0,2
278,958	-0,2
279,423	-0,2
279,889	-0,19
280,354	-0,19
280,82	-0,19
281,286	-0,21
281,751	-0,21
282,217	-0,2
282,682	-0,2
283,147	-0,21
283,613	-0,21
284,078	-0,21
284,544	-0,22
285,009	-0,23
285,474	-0,23
285,939	-0,24
286,405	-0,22
286,87	-0,21
287,335	-0,2
287,8	-0,2
288,265	-0,18
288,73	-0,2
289,195	-0,22
289,66	-0,2
290,125	-0,19
290,59	-0,18
291,055	-0,18
291,52	-0,17
291,985	-0,19
292,45	-0,22
292,915	-0,21
293,38	-0,22
293,844	-0,2
294,309	-0,19
294,774	-0,18
295,239	-0,2
295,703	-0,2
296,168	-0,19
296,632	-0,19
297,097	-0,17
297,562	-0,16
298,026	-0,16
298,491	-0,16
298,955	-0,15
299,419	-0,14
299,884	-0,15
300,348	-0,13
300,813	-0,13
301,277	-0,13
301,741	-0,13
302,205	-0,13
302,67	-0,12
303,134	-0,12
303,598	-0,12
304,062	-0,12
304,526	-0,12
304,99	-0,12
305,454	-0,12
305,919	-0,11
306,383	-0,11
306,847	-0,11
307,31	-0,12
307,774	-0,13
308,238	-0,12
308,702	-0,12
309,166	-0,13
309,63	-0,13
310,094	-0,11
310,557	-0,11
311,021	-0,11
311,485	-0,11
311,948	-0,11
312,412	-0,09
312,876	-0,08
313,339	-0,09
313,803	-0,1
314,266	-0,1
314,73	-0,1
315,193	-0,1
315,657	-0,08
316,12	-0,08
316,584	-0,06
317,047	-0,06
317,51	-0,05
317,973	-0,05
318,437	-0,03
318,9	-0,01
319,363	-0,01
319,826	-0,01
320,29	-0,02
320,753	-0,02
321,216	-0,02
321,679	-0,02
322,142	-0,01
322,605	-0,03
323,068	-0,03
323,531	-0,04
323,994	-0,03
324,457	-0,03
324,92	-0,01
325,382	0
325,845	0
326,308	0,01
326,771	0,01
327,233	0,01
327,696	0,03
328,159	0,03
328,622	0,05
329,084	0,04
329,547	0,04
330,009	0,04
330,472	0,05
330,934	0,06
331,397	0,06
331,859	0,07
332,322	0,07
332,784	0,08
333,246	0,08
333,709	0,08
334,171	0,09
334,633	0,1
335,096	0,1
335,558	0,1
336,02	0,1
336,482	0,1
336,944	0,1
337,406	0,1
337,868	0,1
338,331	0,11
338,793	0,12
339,255	0,12
339,717	0,13
340,178	0,14
340,64	0,15
341,102	0,15
341,564	0,17
342,026	0,19
342,488	0,2
342,949	0,22
343,411	0,25
343,873	0,27
344,335	0,3
344,796	0,35
345,258	0,39
345,719	0,44
346,181	0,5
346,643	0,54
347,104	0,59
347,566	0,62
348,027	0,66
348,488	0,69
348,95	0,71
349,411	0,75
349,873	0,78
350,334	0,8
350,795	0,83
351,256	0,84
351,718	0,85
352,179	0,86
352,64	0,86
353,101	0,87
353,562	0,87
354,023	0,88
354,484	0,88
354,945	0,89
355,406	0,89
355,867	0,89
356,328	0,9
356,789	0,91
357,25	0,92
357,711	0,92
358,172	0,92
358,633	0,92
359,093	0,92
359,554	0,92
360,015	0,93
360,476	0,93
360,936	0,93
361,397	0,93
361,858	0,93
362,318	0,93
362,779	0,93
363,239	0,93
363,7	0,93
364,16	0,93
364,621	0,93
365,081	0,93
365,541	0,93
366,002	0,93
366,462	0,93
366,922	0,93
367,383	0,93
367,843	0,93
368,303	0,93
368,763	0,93
369,223	0,93
369,684	0,93
370,144	0,93
370,604	0,93
371,064	0,93
371,524	0,93
371,984	0,93
372,444	0,93
372,904	0,93
373,363	0,93
373,823	0,93
374,283	0,93
374,743	0,93
375,203	0,93
375,663	0,93
376,122	0,93
376,582	0,93
377,042	0,93
377,501	0,93
377,961	0,93
378,42	0,93
378,88	0,93
379,34	0,93
379,799	0,92
380,259	0,92
380,718	0,92
381,177	0,92
381,637	0,92
382,096	0,92
382,555	0,92
383,015	0,92
383,474	0,92
383,933	0,92
384,393	0,92
384,852	0,92
385,311	0,92
385,77	0,92
386,229	0,92
386,688	0,92
387,147	0,92
387,606	0,92
388,065	0,92
388,524	0,92
388,983	0,92
389,442	0,92
389,901	0,92
390,36	0,92
390,819	0,92
391,277	0,91
391,736	0,91
392,195	0,91
392,654	0,91
393,112	0,91
393,571	0,91
394,03	0,91
394,488	0,91
394,947	0,91
395,405	0,91
395,864	0,91
396,322	0,91
396,781	0,91
397,239	0,91
397,698	0,91
398,156	0,91
398,614	0,91
399,073	0,91
399,531	0,91
399,989	0,91
400,447	0,91
400,905	0,91
401,364	0,91
401,822	0,91
402,28	0,91
402,738	0,91
403,196	0,91
403,654	0,91
404,112	0,91
404,57	0,91
405,028	0,91
405,486	0,91
405,944	0,91
406,402	0,91
406,859	0,91
407,317	0,91
407,775	0,91
408,233	0,91
408,691	0,91
409,148	0,91
409,606	0,91
410,064	0,9
410,521	0,9
410,979	0,9
411,436	0,9
411,894	0,9
412,351	0,9
412,809	0,9
413,266	0,9
413,724	0,9
414,181	0,9
414,638	0,9
415,096	0,9
415,553	0,9
416,01	0,9
416,467	0,9
416,925	0,9
417,382	0,9
417,839	0,9
418,296	0,9
418,753	0,9
419,21	0,9
419,667	0,9
420,124	0,9
420,581	0,9
421,038	0,9
421,495	0,9
421,952	0,9
422,409	0,9
422,866	0,9
423,322	0,9
423,779	0,9
424,236	0,9
424,693	0,9
425,149	0,9
425,606	0,9
426,063	0,9
426,519	0,9
426,976	0,9
427,433	0,9
427,889	0,9
428,346	0,9
428,802	0,9
429,258	0,9
429,715	0,9
430,171	0,9
430,628	0,9
431,084	0,9
431,54	0,9
431,997	0,9
432,453	0,9
432,909	0,9
433,365	0,9
433,821	0,89
434,277	0,89
434,734	0,89
435,19	0,89
435,646	0,89
436,102	0,89
436,558	0,89
437,014	0,89
437,47	0,89
437,925	0,89
438,381	0,9
438,837	0,9
439,293	0,9
439,749	0,9
440,205	0,9
440,66	0,9
441,116	0,9
441,572	0,9
442,027	0,9
442,483	0,9
442,939	0,9
443,394	0,9
443,85	0,9
444,305	0,9
444,761	0,9
445,216	0,9
445,672	0,9
446,127	0,9
446,582	0,9
447,038	0,9
447,493	0,9
447,948	0,9
448,403	0,9
448,859	0,9
449,314	0,9
449,769	0,91
450,224	0,91
450,679	0,91
451,134	0,91
451,589	0,91
452,044	0,91
452,499	0,91
452,954	0,91
453,409	0,91
453,864	0,91
454,319	0,91
454,774	0,91
455,229	0,91
455,684	0,91
456,138	0,91
456,593	0,91
457,048	0,91
457,503	0,91
457,957	0,91
458,412	0,91
458,866	0,91
459,321	0,91
459,776	0,91
460,23	0,91
460,685	0,91
461,139	0,92
461,593	0,92
462,048	0,92
462,502	0,92
462,957	0,92
463,411	0,92
463,865	0,92
464,319	0,92
464,774	0,92
465,228	0,93
465,682	0,93
466,136	0,93
466,59	0,93
467,044	0,93
467,499	0,93
467,953	0,93
468,407	0,93
468,861	0,93
469,315	0,93
469,768	0,93
470,222	0,93
470,676	0,93
471,13	0,94
471,584	0,94
472,038	0,94
472,491	0,94
472,945	0,94
473,399	0,94
473,852	0,94
474,306	0,94
474,76	0,94
475,213	0,95
475,667	0,95
476,12	0,95
476,574	0,95
477,027	0,95
477,481	0,95
477,934	0,96
478,388	0,96
478,841	0,96
479,294	0,96
479,748	0,96
480,201	0,97
480,654	0,97
481,107	0,97
481,561	0,97
482,014	0,97
482,467	0,98
482,92	0,98
483,373	0,98
483,826	0,98
484,279	0,98
484,732	0,99
485,185	0,99
485,638	0,99
486,091	0,99
486,544	1
486,997	1
487,449	1
487,902	1
488,355	1,01
488,808	1,01
489,26	1,01
489,713	1,01
490,166	1,02
490,618	1,02
491,071	1,02
491,523	1,03
491,976	1,03
492,429	1,03
492,881	1,04
493,333	1,04
493,786	1,04
494,238	1,05
494,691	1,05
495,143	1,06
495,595	1,06
496,048	1,06
496,5	1,07
496,952	1,07
497,404	1,07
497,856	1,08
498,309	1,08
498,761	1,09
499,213	1,09
499,665	1,1
500,117	1,1
500,569	1,1
501,021	1,11
501,473	1,11
501,925	1,12
502,377	1,12
502,828	1,13
503,28	1,13
503,732	1,14
504,184	1,14
504,636	1,14
505,087	1,15
505,539	1,15
505,991	1,16
506,442	1,16
506,894	1,16
507,345	1,17
507,797	1,17
508,249	1,18
508,7	1,18
509,151	1,19
509,603	1,19
510,054	1,2
510,506	1,2
510,957	1,21
511,408	1,21
511,86	1,21
512,311	1,22
512,762	1,22
513,213	1,22
513,665	1,23
514,116	1,23
514,567	1,23
515,018	1,24
515,469	1,24
515,92	1,25
516,371	1,25
516,822	1,25
517,273	1,26
517,724	1,26
518,175	1,26
518,626	1,26
519,076	1,27
519,527	1,27
519,978	1,27
520,429	1,27
520,88	1,27
521,33	1,28
521,781	1,28
522,232	1,28
522,682	1,28
523,133	1,29
523,583	1,29
524,034	1,29
524,484	1,29
524,935	1,29
525,385	1,29
525,836	1,29
526,286	1,29
526,736	1,29
527,187	1,29
527,637	1,29
528,087	1,29
528,538	1,29
528,988	1,29
529,438	1,29
529,888	1,29
530,338	1,29
530,788	1,28
531,238	1,28
531,688	1,28
532,139	1,28
532,589	1,28
533,038	1,27
533,488	1,27
533,938	1,27
534,388	1,27
534,838	1,26
535,288	1,26
535,738	1,26
536,187	1,25
536,637	1,25
537,087	1,24
537,537	1,24
537,986	1,24
538,436	1,23
538,885	1,22
539,335	1,22
539,785	1,21
540,234	1,21
540,684	1,2
541,133	1,2
541,582	1,19
542,032	1,18
542,481	1,18
542,931	1,17
543,38	1,17
543,829	1,16
544,278	1,15
544,728	1,15
545,177	1,14
545,626	1,14
546,075	1,13
546,524	1,13
546,973	1,12
547,422	1,12
547,871	1,11
548,32	1,11
548,769	1,11
549,218	1,1
549,667	1,1
550,116	1,1
550,565	1,09
551,014	1,09
551,463	1,08
551,911	1,08
552,36	1,08
552,809	1,07
553,258	1,06
553,706	1,06
554,155	1,06
554,603	1,05
555,052	1,05
555,501	1,04
555,949	1,03
556,398	1,03
556,846	1,02
557,294	1,02
557,743	1,01
558,191	1,01
558,64	1
559,088	0,99
559,536	0,99
559,985	0,98
560,433	0,98
560,881	0,97
561,329	0,97
561,777	0,96
562,225	0,96
562,674	0,95
563,122	0,95
563,57	0,95
564,018	0,94
564,466	0,94
564,914	0,93
565,362	0,93
565,809	0,92
566,257	0,92
566,705	0,91
567,153	0,91
567,601	0,9
568,048	0,9
568,496	0,89
568,944	0,89
569,392	0,88
569,839	0,88
570,287	0,88
570,734	0,87
571,182	0,87
571,63	0,86
572,077	0,86
572,525	0,86
572,972	0,85
573,419	0,85
573,867	0,84
574,314	0,84
574,761	0,83
575,209	0,83
575,656	0,82
576,103	0,82
576,551	0,82
576,998	0,82
577,445	0,81
577,892	0,81
578,339	0,8
578,786	0,8
579,233	0,8
579,68	0,79
580,127	0,79
580,574	0,79
581,021	0,78
581,468	0,78
581,915	0,78
582,362	0,77
582,809	0,77
583,255	0,77
583,702	0,77
584,149	0,76
584,596	0,76
585,042	0,76
585,489	0,75
585,936	0,75
586,382	0,75
586,829	0,74
587,275	0,74
587,722	0,74
588,168	0,74
588,615	0,73
589,061	0,73
589,508	0,73
589,954	0,73
590,4	0,73
590,847	0,72
591,293	0,72
591,739	0,72
592,185	0,72
592,632	0,72
593,078	0,71
593,524	0,71
593,97	0,71
594,416	0,71
594,862	0,71
595,308	0,71
595,754	0,71
596,2	0,7
596,646	0,7
597,092	0,7
597,538	0,69
597,984	0,69
598,43	0,69
598,876	0,69
599,321	0,69
599,767	0,69
600,213	0,69
600,659	0,68
601,104	0,68
601,55	0,68
601,995	0,68
602,441	0,68
602,887	0,68
603,332	0,67
603,778	0,67
604,223	0,67
604,668	0,67
605,114	0,67
605,559	0,67
606,005	0,67
606,45	0,67
606,895	0,67
607,341	0,67
607,786	0,66
608,231	0,66
608,676	0,65
609,121	0,65
609,566	0,64
610,012	0,63
610,457	0,63
610,902	0,62
611,347	0,62
611,792	0,61
612,237	0,61
612,682	0,61
613,127	0,61
613,571	0,61
614,016	0,62
614,461	0,62
614,906	0,63
615,351	0,63
615,795	0,63
616,24	0,63
616,685	0,63
617,129	0,63
617,574	0,63
618,019	0,63
618,463	0,63
618,908	0,63
619,352	0,63
619,797	0,63
620,241	0,63
620,686	0,63
621,13	0,63
621,574	0,63
622,019	0,62
622,463	0,62
622,907	0,62
623,352	0,62
623,796	0,62
624,24	0,62
624,684	0,62
625,128	0,62
625,572	0,62
626,016	0,62
626,461	0,62
626,905	0,62
627,349	0,61
627,793	0,61
628,236	0,61
628,68	0,61
629,124	0,61
629,568	0,61
630,012	0,61
630,456	0,61
630,9	0,61
631,343	0,61
631,787	0,61
632,231	0,61
632,674	0,61
633,118	0,61
633,562	0,61
634,005	0,61
634,449	0,61
634,892	0,61
635,336	0,61
635,779	0,61
636,223	0,61
636,666	0,61
637,109	0,61
637,553	0,6
637,996	0,6
638,439	0,6
638,883	0,6
639,326	0,6
639,769	0,6
640,212	0,6
640,655	0,6
641,099	0,6
641,542	0,6
641,985	0,6
642,428	0,6
642,871	0,6
643,314	0,6
643,757	0,6
644,2	0,6
644,643	0,6
645,085	0,6
645,528	0,6
645,971	0,6
646,414	0,59
646,857	0,59
647,299	0,59
647,742	0,59
648,185	0,59
648,627	0,59
649,07	0,59
649,513	0,59
649,955	0,59
650,398	0,59
650,84	0,59
651,283	0,59
651,725	0,59
652,168	0,59
652,61	0,59
653,052	0,59
653,495	0,58
653,937	0,5
654,379	0,44
654,821	0,45
655,264	0,45
655,706	0,45
656,148	0,45
656,59	0,45
657,032	0,45
657,474	0,45
657,916	0,45
658,358	0,44
658,8	0,5
659,242	0,59
659,684	0,59
660,126	0,59
660,568	0,59
661,01	0,59
661,452	0,59
661,894	0,58
662,335	0,58
662,777	0,58
663,219	0,58
663,661	0,58
664,102	0,58
664,544	0,58
664,985	0,58
665,427	0,58
665,869	0,58
666,31	0,58
666,752	0,58
667,193	0,58
667,634	0,58
668,076	0,58
668,517	0,58
668,959	0,58
669,4	0,58
669,841	0,58
670,282	0,58
670,724	0,58
671,165	0,58
671,606	0,58
672,047	0,58
672,488	0,58
672,929	0,58
673,37	0,58
673,811	0,58
674,252	0,57
674,693	0,57
675,134	0,57
675,575	0,57
676,016	0,57
676,457	0,57
676,898	0,57
677,339	0,57
677,78	0,57
678,22	0,57
678,661	0,57
679,102	0,57
679,542	0,57
679,983	0,57
680,424	0,58
680,864	0,58
681,305	0,58
681,745	0,58
682,186	0,58
682,626	0,58
683,067	0,58
683,507	0,58
683,948	0,58
684,388	0,58
684,828	0,58
685,269	0,58
685,709	0,57
686,149	0,57
686,589	0,57
687,029	0,57
687,47	0,57
687,91	0,57
688,35	0,57
688,79	0,57
689,23	0,57
689,67	0,57
690,11	0,57
690,55	0,57
690,99	0,57
691,43	0,57
691,87	0,56
692,31	0,56
692,749	0,56
693,189	0,56
693,629	0,56
694,069	0,56
694,508	0,56
694,948	0,56
695,388	0,56
695,827	0,56
696,267	0,56
696,706	0,56
697,146	0,56
697,586	0,56
698,025	0,57
698,464	0,57
698,904	0,57
699,343	0,57
699,783	0,57
700,222	0,57
700,661	0,57
701,101	0,57
701,54	0,57
701,979	0,57
702,418	0,57
702,857	0,57
703,297	0,57
703,736	0,57
704,175	0,57
704,614	0,57
705,053	0,57
705,492	0,57
705,931	0,56
706,37	0,56
706,809	0,56
707,248	0,56
707,687	0,56
708,125	0,56
708,564	0,56
709,003	0,56
709,442	0,56
709,88	0,56
710,319	0,56
710,758	0,55
711,196	0,55
711,635	0,55
712,074	0,56
712,512	0,56
712,951	0,56
713,389	0,55
713,828	0,55
714,266	0,55
714,705	0,55
715,143	0,55
715,581	0,55
716,02	0,55
716,458	0,55
716,896	0,55
717,334	0,55
717,773	0,55
718,211	0,55
718,649	0,56
719,087	0,56
719,525	0,56
719,963	0,56
720,401	0,56
720,839	0,55
721,277	0,55
721,715	0,55
722,153	0,55
722,591	0,55
723,029	0,55
723,467	0,55
723,905	0,55
724,342	0,55
724,78	0,55
725,218	0,55
725,656	0,55
726,093	0,55
726,531	0,55
726,969	0,55
727,406	0,55
727,844	0,55
728,281	0,55
728,719	0,55
729,156	0,55
729,594	0,55
730,031	0,55
730,469	0,54
730,906	0,54
731,343	0,54
731,781	0,54
732,218	0,54
732,655	0,54
733,092	0,54
733,53	0,54
733,967	0,54
734,404	0,54
734,841	0,54
735,278	0,54
735,715	0,54
736,152	0,54
736,589	0,54
737,026	0,54
737,463	0,54
737,9	0,54
738,337	0,54
738,774	0,54
739,211	0,54
739,647	0,54
740,084	0,54
740,521	0,54
740,958	0,54
741,394	0,54
741,831	0,54
742,268	0,54
742,704	0,54
743,141	0,54
743,577	0,54
744,014	0,54
744,45	0,54
744,887	0,54
745,323	0,54
745,76	0,53
746,196	0,53
746,632	0,53
747,069	0,53
747,505	0,53
747,941	0,53
748,378	0,53
748,814	0,53
749,25	0,53
749,686	0,53
750,122	0,53
750,558	0,53
750,994	0,54
751,43	0,54
751,866	0,53
752,302	0,53
752,738	0,53
753,174	0,53
753,61	0,53
754,046	0,53
754,482	0,53
754,918	0,53
755,354	0,53
755,789	0,53
756,225	0,52
756,661	0,52
757,096	0,52
757,532	0,52
757,968	0,52
758,403	0,51
758,839	0,51
759,274	0,51
759,71	0,5
760,145	0,5
760,581	0,49
761,016	0,48
761,452	0,48
761,887	0,47
762,322	0,47
762,758	0,46
763,193	0,46
763,628	0,45
764,063	0,44
764,499	0,44
764,934	0,43
765,369	0,42
765,804	0,41
766,239	0,41
766,674	0,4
767,109	0,38
767,544	0,37
767,979	0,36
768,414	0,35
768,849	0,34
769,284	0,33
769,719	0,32
770,154	0,31
770,588	0,3
771,023	0,29
771,458	0,27
771,893	0,27
772,327	0,25
772,762	0,24
773,197	0,23
773,631	0,22
774,066	0,21
774,5	0,2
774,935	0,19
775,369	0,18
775,804	0,16
776,238	0,15
776,673	0,14
777,107	0,13
777,541	0,12
777,976	0,11
778,41	0,1
778,844	0,09
779,279	0,08
779,713	0,07
780,147	0,06
780,581	0,06
781,015	0,05
781,449	0,04
781,883	0,03
782,317	0,01
782,751	-0
783,185	-0,01
783,619	-0,02
784,053	-0,03
784,487	-0,04
784,921	-0,04
785,355	-0,06
785,789	-0,07
786,223	-0,08
786,656	-0,09
787,09	-0,1
787,524	-0,11
787,957	-0,12
788,391	-0,14
788,825	-0,15
789,258	-0,17
789,692	-0,18
790,125	-0,19
790,559	-0,21
790,992	-0,23
791,426	-0,25
791,859	-0,27
792,293	-0,29
792,726	-0,31
793,159	-0,33
793,593	-0,35
794,026	-0,38
794,459	-0,41
794,892	-0,44
795,326	-0,46
795,759	-0,5
796,192	-0,55
796,625	-0,59
797,058	-0,62
797,491	-0,66
797,924	-0,7
798,357	-0,75
798,79	-0,8
799,223	-0,84
799,656	-0,89
800,089	-0,94
800,522	-0,98
800,955	-1,03
801,387	-1,08
801,82	-1,13
802,253	-1,2
802,686	-1,28
803,118	-1,33
803,551	-1,39
803,984	-1,43
804,416	-1,47
804,849	-1,5
805,281	-1,6
805,714	-1,95
806,146	-2,41
806,579	-2,69
807,011	-2,85
807,444	-2,95
807,876	-3,05
808,308	-3,08
808,741	-3,11
809,173	-3,16
809,605	-3,19
810,037	-3,26
810,47	-3,19
810,902	-3
811,334	-2,85
811,766	-2,7
812,198	-2,47
812,63	-2,03
813,062	-1,8
813,494	-1,7
813,926	-1,61
814,358	-1,56
814,79	-1,48
815,222	-1,42
815,654	-1,37
816,086	-1,3
816,518	-1,25
816,949	-1,2
817,381	-1,15
817,813	-1,13
818,245	-1,09
818,676	-1,05
819,108	-1,02
819,54	-1,01
819,971	-0,98
820,403	-0,93
820,834	-0,92
821,266	-0,87
821,697	-0,85
822,129	-0,84
822,56	-0,82
822,991	-0,8
823,423	-0,77
823,854	-0,76
824,286	-0,73
824,717	-0,72
825,148	-0,7
825,579	-0,69
826,01	-0,68
826,442	-0,67
826,873	-0,65
827,304	-0,61
827,735	-0,61
828,166	-0,6
828,597	-0,6
829,028	-0,6
829,459	-0,61
829,89	-0,61
830,321	-0,56
830,752	-0,58
831,183	-0,56
831,613	-0,55
832,044	-0,55
832,475	-0,54
832,906	-0,55
833,336	-0,55
833,767	-0,56
834,198	-0,54
834,628	-0,53
835,059	-0,55
835,49	-0,55
835,92	-0,53
836,351	-0,53
836,781	-0,53
837,212	-0,55
837,642	-0,54
838,072	-0,53
838,503	-0,54
838,933	-0,52
839,364	-0,52
839,794	-0,51
840,224	-0,51
840,654	-0,55
841,085	-0,56
841,515	-0,53
841,945	-0,53
842,375	-0,49
842,805	-0,48
843,235	-0,47
843,665	-0,47
844,095	-0,46
844,525	-0,47
844,955	-0,47
845,385	-0,45
845,815	-0,43
846,245	-0,45
846,675	-0,46
847,105	-0,48
847,534	-0,48
847,964	-0,46
848,394	-0,45
848,824	-0,48
849,253	-0,48
849,683	-0,49
850,112	-0,5
850,542	-0,53
850,972	-0,54
851,401	-0,51
851,831	-0,49
852,26	-0,5
852,69	-0,53
853,119	-0,53
853,548	-0,53
853,978	-0,54
854,407	-0,52
854,836	-0,51
855,266	-0,51
855,695	-0,52
856,124	-0,53
856,553	-0,55
856,983	-0,57
857,412	-0,57
857,841	-0,57
858,27	-0,57
858,699	-0,57
859,128	-0,61
859,557	-0,62
859,986	-0,63
860,415	-0,6
860,844	-0,57
861,273	-0,56
861,702	-0,57
862,13	-0,55
862,559	-0,57
862,988	-0,54
863,417	-0,53
863,845	-0,52
864,274	-0,53
864,703	-0,52
865,131	-0,53
865,56	-0,54
865,989	-0,57
866,417	-0,55
866,846	-0,55
867,274	-0,55
867,703	-0,57
868,131	-0,58
868,559	-0,59
868,988	-0,61
869,416	-0,6
869,844	-0,61
870,273	-0,64
870,701	-0,62
871,129	-0,65
871,557	-0,67
871,986	-0,67
872,414	-0,69
872,842	-0,65
873,27	-0,63
873,698	-0,6
874,126	-0,65
874,554	-0,62
874,982	-0,62
875,41	-0,64
875,838	-0,6
876,266	-0,58
876,694	-0,59
877,122	-0,58
877,549	-0,63
877,977	-0,6
878,405	-0,62
878,833	-0,58
879,26	-0,57
879,688	-0,57
880,116	-0,56
880,543	-0,53
880,971	-0,52
881,399	-0,55
881,826	-0,56
882,254	-0,54
882,681	-0,58
883,109	-0,54
883,536	-0,56
883,963	-0,58
884,391	-0,56
884,818	-0,55
885,245	-0,59
885,673	-0,61
886,1	-0,57
886,527	-0,57
886,954	-0,53
887,381	-0,56
887,809	-0,57
888,236	-0,57
888,663	-0,58
889,09	-0,62
889,517	-0,63
889,944	-0,62
890,371	-0,61
890,798	-0,62
891,225	-0,61
891,652	-0,64
892,078	-0,61
892,505	-0,65
892,932	-0,6
893,359	-0,61
893,786	-0,61
894,212	-0,59
894,639	-0,61
895,066	-0,64
895,492	-0,58
895,919	-0,59
896,346	-0,58
896,772	-0,58
897,199	-0,55
897,625	-0,58
898,052	-0,54
898,478	-0,53
898,904	-0,55
899,331	-0,54
899,757	-0,55
900,183	-0,56
900,61	-0,55
901,036	-0,55
901,462	-0,55
901,888	-0,55
902,315	-0,53
902,741	-0,58
903,167	-0,57
903,593	-0,59
904,019	-0,57
904,445	-0,54
904,871	-0,58
905,297	-0,59
905,723	-0,58
906,149	-0,58
906,575	-0,59
907,001	-0,58
907,427	-0,55
907,852	-0,55
908,278	-0,56
908,704	-0,54
909,13	-0,53
909,555	-0,53
909,981	-0,52
910,407	-0,52
910,832	-0,51
911,258	-0,52
911,684	-0,53
912,109	-0,52
912,535	-0,54
912,96	-0,5
913,386	-0,54
913,811	-0,53
914,236	-0,55
914,662	-0,54
915,087	-0,58
915,512	-0,57
915,938	-0,59
916,363	-0,57
916,788	-0,59
917,213	-0,57
917,639	-0,61
918,064	-0,58
918,489	-0,59
918,914	-0,59
919,339	-0,6
919,764	-0,56
920,189	-0,56
920,614	-0,58
921,039	-0,59
921,464	-0,56
921,889	-0,59
922,314	-0,6
922,738	-0,63
923,163	-0,64
923,588	-0,64
924,013	-0,63
924,437	-0,63
924,862	-0,65
925,287	-0,61
925,711	-0,61
926,136	-0,62
926,561	-0,6
926,985	-0,59
927,41	-0,56
927,834	-0,54
928,259	-0,52
928,683	-0,5
929,108	-0,48
929,532	-0,48
929,956	-0,47
930,381	-0,47
930,805	-0,47
931,229	-0,47
931,653	-0,45
932,078	-0,44
932,502	-0,45
932,926	-0,45
933,35	-0,45
933,774	-0,45
934,198	-0,43
934,622	-0,41
935,046	-0,42
935,47	-0,42
935,894	-0,41
936,318	-0,41
936,742	-0,41
937,166	-0,41
937,59	-0,41
938,014	-0,44
938,437	-0,45
938,861	-0,46
939,285	-0,47
939,709	-0,47
940,132	-0,48
940,556	-0,48
940,98	-0,48
941,403	-0,47
941,827	-0,48
942,25	-0,49
942,674	-0,48
943,097	-0,48
943,521	-0,48
943,944	-0,49
944,368	-0,48
944,791	-0,47
945,214	-0,49
945,638	-0,49
946,061	-0,52
946,484	-0,52
946,907	-0,5
947,331	-0,49
947,754	-0,53
948,177	-0,51
948,6	-0,5
949,023	-0,5
949,446	-0,51
949,869	-0,49
950,292	-0,5
950,715	-0,47
951,138	-0,46
951,561	-0,43
951,984	-0,44
952,407	-0,42
952,83	-0,4
953,252	-0,37
953,675	-0,36
954,098	-0,36
954,521	-0,34
954,943	-0,34
955,366	-0,34
955,789	-0,32
956,211	-0,34
956,634	-0,35
957,056	-0,32
957,479	-0,34
957,902	-0,36
958,324	-0,36
958,746	-0,36
959,169	-0,37
959,591	-0,37
960,014	-0,37
960,436	-0,38
960,858	-0,37
961,281	-0,37
961,703	-0,39
962,125	-0,39
962,547	-0,37
962,969	-0,38
963,391	-0,37
963,814	-0,38
964,236	-0,38
964,658	-0,34
965,08	-0,35
965,502	-0,34
965,924	-0,31
966,346	-0,31
966,768	-0,3
967,189	-0,32
967,611	-0,31
968,033	-0,31
968,455	-0,29
968,877	-0,3
969,298	-0,31
969,72	-0,32
970,142	-0,32
970,563	-0,33
970,985	-0,31
971,407	-0,3
971,828	-0,28
972,25	-0,27
972,671	-0,25
973,093	-0,24
973,514	-0,23
973,936	-0,21
974,357	-0,2
974,778	-0,19
975,2	-0,18
975,621	-0,18
976,042	-0,16
976,464	-0,15
976,885	-0,14
977,306	-0,14
977,727	-0,14
978,148	-0,13
978,57	-0,12
978,991	-0,1
979,412	-0,09
979,833	-0,08
980,254	-0,07
980,675	-0,07
981,096	-0,06
981,517	-0,04
981,937	-0,03
982,358	-0,01
982,779	0,01
983,2	0,01
983,621	0,02
984,042	0,03
984,462	0,04
984,883	0,06
985,304	0,08
985,724	0,1
986,145	0,11
986,565	0,13
986,986	0,14
987,407	0,15
987,827	0,17
988,248	0,18
988,668	0,2
989,088	0,21
989,509	0,22
989,929	0,23
990,35	0,24
990,77	0,25
991,19	0,26
991,61	0,28
992,031	0,29
992,451	0,3
992,871	0,31
993,291	0,32
993,711	0,33
994,131	0,34
994,551	0,35
994,971	0,36
995,391	0,37
995,811	0,38
996,231	0,39
996,651	0,39
997,071	0,41
997,491	0,42
997,911	0,43
998,331	0,44
998,75	0,45
999,17	0,45
999,59	0,46
1000,009	0,47
1000,429	0,47
1000,849	0,48
1001,268	0,49
1001,688	0,49
1002,107	0,49
1002,527	0,5
1002,946	0,5
1003,366	0,51
1003,785	0,51
1004,205	0,51
1004,624	0,52
1005,044	0,52
1005,463	0,52
1005,882	0,53
1006,301	0,53
1006,721	0,53
1007,14	0,53
1007,559	0,53
1007,978	0,54
1008,397	0,54
1008,816	0,54
1009,235	0,54
1009,655	0,54
1010,074	0,54
1010,492	0,54
1010,911	0,54
1011,33	0,54
1011,749	0,54
1012,168	0,53
1012,587	0,53
1013,006	0,53
1013,425	0,53
1013,843	0,53
1014,262	0,53
1014,681	0,53
1015,099	0,53
1015,518	0,53
1015,937	0,53
1016,355	0,53
1016,774	0,53
1017,192	0,53
1017,611	0,53
1018,029	0,53
1018,448	0,53
1018,866	0,53
1019,285	0,53
1019,703	0,53
1020,121	0,53
1020,54	0,53
1020,958	0,53
1021,376	0,53
1021,794	0,53
1022,213	0,53
1022,631	0,53
1023,049	0,52
1023,467	0,52
1023,885	0,52
1024,303	0,52
1024,721	0,52
1025,139	0,52
1025,557	0,52
1025,975	0,52
1026,393	0,51
1026,811	0,51
1027,229	0,51
1027,647	0,51
1028,065	0,51
1028,482	0,51
1028,9	0,51
1029,318	0,51
1029,735	0,51
1030,153	0,51
1030,571	0,51
1030,988	0,51
1031,406	0,51
1031,823	0,51
1032,241	0,51
1032,659	0,51
1033,076	0,51
1033,493	0,51
1033,911	0,51
1034,328	0,51
1034,746	0,51
1035,163	0,51
1035,58	0,51
1035,997	0,51
1036,415	0,51
1036,832	0,51
1037,249	0,51
1037,666	0,51
1038,083	0,51
1038,501	0,51
1038,918	0,51
1039,335	0,51
1039,752	0,51
1040,169	0,51
1040,586	0,51
1041,003	0,51
1041,419	0,51
1041,836	0,51
1042,253	0,51
1042,67	0,51
1043,087	0,51
1043,504	0,51
1043,92	0,51
1044,337	0,51
1044,754	0,51
1045,17	0,51
1045,587	0,5
1046,004	0,5
1046,42	0,5
1046,837	0,5
1047,253	0,5
1047,67	0,5
1048,086	0,5
1048,503	0,5
1048,919	0,5
1049,335	0,5
1049,752	0,5
1050,168	0,5
1050,584	0,51
1051,001	0,51
1051,417	0,51
1051,833	0,51
1052,249	0,51
1052,665	0,51
1053,081	0,51
1053,497	0,51
1053,914	0,52
1054,33	0,52
1054,746	0,52
1055,162	0,52
1055,578	0,52
1055,993	0,52
1056,409	0,52
1056,825	0,52
1057,241	0,52
1057,657	0,52
1058,073	0,52
1058,488	0,52
1058,904	0,52
1059,32	0,52
1059,736	0,52
1060,151	0,52
1060,567	0,52
1060,982	0,52
1061,398	0,52
1061,813	0,52
1062,229	0,52
1062,644	0,52
1063,06	0,52
1063,475	0,52
1063,891	0,52
1064,306	0,52
1064,721	0,52
1065,137	0,52
1065,552	0,52
1065,967	0,52
1066,382	0,52
1066,798	0,52
1067,213	0,52
1067,628	0,52
1068,043	0,51
1068,458	0,51
1068,873	0,51
1069,288	0,51
1069,703	0,51
1070,118	0,52
1070,533	0,52
1070,948	0,52
1071,363	0,52
1071,778	0,52
1072,193	0,52
1072,607	0,52
1073,022	0,52
1073,437	0,52
1073,852	0,52
1074,266	0,52
1074,681	0,52
1075,096	0,52
1075,51	0,52
1075,925	0,52
1076,339	0,52
1076,754	0,51
1077,168	0,51
1077,583	0,51
1077,997	0,51
1078,412	0,51
1078,826	0,51
1079,24	0,51
1079,655	0,51
1080,069	0,51
1080,483	0,5
1080,897	0,5
1081,312	0,5
1081,726	0,5
1082,14	0,5
1082,554	0,5
1082,968	0,5
1083,382	0,5
1083,796	0,49
1084,21	0,49
1084,624	0,49
1085,038	0,49
1085,452	0,49
1085,866	0,49
1086,28	0,49
1086,694	0,49
1087,108	0,49
1087,521	0,48
1087,935	0,48
1088,349	0,48
1088,763	0,47
1089,176	0,47
1089,59	0,47
1090,004	0,46
1090,417	0,46
1090,831	0,45
1091,244	0,45
1091,658	0,44
1092,071	0,44
1092,485	0,44
1092,898	0,44
1093,312	0,44
1093,725	0,43
1094,138	0,43
1094,552	0,43
1094,965	0,43
1095,378	0,42
1095,791	0,42
1096,205	0,42
1096,618	0,42
1097,031	0,41
1097,444	0,41
1097,857	0,4
1098,27	0,4
1098,683	0,4
1099,096	0,4
1099,509	0,39
1099,922	0,39
1100,335	0,38
1100,748	0,37
1101,161	0,37
1101,574	0,37
1101,986	0,36
1102,399	0,36
1102,812	0,35
1103,225	0,35
1103,637	0,34
1104,05	0,34
1104,463	0,34
1104,875	0,34
1105,288	0,34
1105,7	0,33
1106,113	0,32
1106,525	0,32
1106,938	0,32
1107,35	0,31
1107,763	0,31
1108,175	0,31
1108,588	0,31
1109	0,3
1109,412	0,29
1109,824	0,29
1110,237	0,29
1110,649	0,29
1111,061	0,29
