Data from 18C-808nm-8A-cont_Absorbance__349__01778.txt Node

Date: Mon Jul 17 17:31:08 CEST 2023
User: Laser008
Spectrometer: MAYP115816
Trigger mode: 0
Integration Time (sec): 2,500000E-1
Scans to average: 10
Electric dark correction enabled: true
Nonlinearity correction enabled: true
Boxcar width: 5
XAxis mode: Wavelengths
Number of Pixels in Spectrum: 2068
>>>>>Begin Spectral Data<<<<<
198,914	-0,64
199,384	-0,46
199,855	-0,35
200,325	-0,27
200,796	-0,25
201,266	-0,19
201,737	-0,17
202,207	-0,16
202,677	-0,16
203,147	-0,15
203,618	-0,12
204,088	-0,11
204,558	-0,09
205,028	-0,08
205,498	-0,09
205,968	-0,08
206,439	-0,1
206,909	-0,09
207,379	-0,1
207,849	-0,09
208,319	-0,1
208,789	-0,1
209,258	-0,1
209,728	-0,12
210,198	-0,13
210,668	-0,12
211,138	-0,11
211,608	-0,12
212,077	-0,12
212,547	-0,12
213,017	-0,12
213,486	-0,13
213,956	-0,13
214,426	-0,14
214,895	-0,12
215,365	-0,12
215,834	-0,13
216,304	-0,15
216,773	-0,14
217,243	-0,16
217,712	-0,17
218,181	-0,17
218,651	-0,17
219,12	-0,16
219,589	-0,16
220,058	-0,16
220,528	-0,16
220,997	-0,17
221,466	-0,17
221,935	-0,18
222,404	-0,18
222,873	-0,17
223,342	-0,18
223,812	-0,17
224,281	-0,18
224,749	-0,19
225,218	-0,2
225,687	-0,21
226,156	-0,19
226,625	-0,18
227,094	-0,18
227,563	-0,18
228,031	-0,19
228,5	-0,18
228,969	-0,19
229,438	-0,18
229,906	-0,17
230,375	-0,16
230,844	-0,15
231,312	-0,15
231,781	-0,17
232,249	-0,15
232,718	-0,15
233,186	-0,13
233,655	-0,14
234,123	-0,13
234,591	-0,13
235,06	-0,14
235,528	-0,14
235,996	-0,14
236,465	-0,13
236,933	-0,12
237,401	-0,12
237,869	-0,12
238,337	-0,12
238,805	-0,11
239,274	-0,11
239,742	-0,11
240,21	-0,11
240,678	-0,1
241,146	-0,09
241,614	-0,1
242,081	-0,09
242,549	-0,1
243,017	-0,11
243,485	-0,11
243,953	-0,12
244,421	-0,11
244,888	-0,11
245,356	-0,11
245,824	-0,11
246,291	-0,11
246,759	-0,12
247,227	-0,13
247,694	-0,11
248,162	-0,09
248,629	-0,09
249,097	-0,09
249,564	-0,1
250,032	-0,11
250,499	-0,11
250,967	-0,13
251,434	-0,13
251,901	-0,12
252,369	-0,12
252,836	-0,14
253,303	-0,15
253,77	-0,16
254,237	-0,15
254,705	-0,15
255,172	-0,14
255,639	-0,14
256,106	-0,15
256,573	-0,14
257,04	-0,15
257,507	-0,14
257,974	-0,15
258,441	-0,14
258,908	-0,15
259,375	-0,17
259,841	-0,17
260,308	-0,17
260,775	-0,17
261,242	-0,16
261,709	-0,17
262,175	-0,18
262,642	-0,18
263,109	-0,17
263,575	-0,19
264,042	-0,17
264,508	-0,17
264,975	-0,19
265,441	-0,19
265,908	-0,2
266,374	-0,19
266,841	-0,2
267,307	-0,2
267,773	-0,2
268,24	-0,2
268,706	-0,2
269,172	-0,21
269,639	-0,22
270,105	-0,19
270,571	-0,2
271,037	-0,21
271,503	-0,22
271,969	-0,21
272,435	-0,21
272,902	-0,22
273,368	-0,24
273,834	-0,23
274,3	-0,24
274,765	-0,24
275,231	-0,24
275,697	-0,22
276,163	-0,22
276,629	-0,22
277,095	-0,23
277,56	-0,22
278,026	-0,23
278,492	-0,21
278,958	-0,21
279,423	-0,21
279,889	-0,21
280,354	-0,22
280,82	-0,21
281,286	-0,22
281,751	-0,22
282,217	-0,21
282,682	-0,2
283,147	-0,2
283,613	-0,2
284,078	-0,2
284,544	-0,22
285,009	-0,23
285,474	-0,21
285,939	-0,23
286,405	-0,23
286,87	-0,22
287,335	-0,21
287,8	-0,21
288,265	-0,2
288,73	-0,22
289,195	-0,24
289,66	-0,24
290,125	-0,22
290,59	-0,23
291,055	-0,22
291,52	-0,22
291,985	-0,23
292,45	-0,24
292,915	-0,23
293,38	-0,24
293,844	-0,22
294,309	-0,21
294,774	-0,19
295,239	-0,21
295,703	-0,21
296,168	-0,2
296,632	-0,19
297,097	-0,18
297,562	-0,17
298,026	-0,18
298,491	-0,18
298,955	-0,18
299,419	-0,18
299,884	-0,18
300,348	-0,17
300,813	-0,18
301,277	-0,18
301,741	-0,18
302,205	-0,18
302,67	-0,17
303,134	-0,16
303,598	-0,16
304,062	-0,15
304,526	-0,14
304,99	-0,15
305,454	-0,14
305,919	-0,13
306,383	-0,13
306,847	-0,13
307,31	-0,14
307,774	-0,15
308,238	-0,14
308,702	-0,13
309,166	-0,15
309,63	-0,15
310,094	-0,12
310,557	-0,13
311,021	-0,12
311,485	-0,13
311,948	-0,12
312,412	-0,11
312,876	-0,1
313,339	-0,1
313,803	-0,11
314,266	-0,11
314,73	-0,1
315,193	-0,11
315,657	-0,1
316,12	-0,09
316,584	-0,09
317,047	-0,09
317,51	-0,08
317,973	-0,08
318,437	-0,08
318,9	-0,07
319,363	-0,06
319,826	-0,05
320,29	-0,06
320,753	-0,06
321,216	-0,06
321,679	-0,06
322,142	-0,06
322,605	-0,07
323,068	-0,06
323,531	-0,06
323,994	-0,05
324,457	-0,06
324,92	-0,04
325,382	-0,03
325,845	-0,02
326,308	-0,01
326,771	-0,01
327,233	0,01
327,696	0,01
328,159	0,01
328,622	0,02
329,084	0,02
329,547	0,03
330,009	0,03
330,472	0,04
330,934	0,04
331,397	0,04
331,859	0,04
332,322	0,03
332,784	0,04
333,246	0,05
333,709	0,04
334,171	0,05
334,633	0,05
335,096	0,05
335,558	0,05
336,02	0,05
336,482	0,06
336,944	0,07
337,406	0,07
337,868	0,07
338,331	0,07
338,793	0,08
339,255	0,09
339,717	0,1
340,178	0,11
340,64	0,12
341,102	0,12
341,564	0,14
342,026	0,15
342,488	0,16
342,949	0,18
343,411	0,21
343,873	0,24
344,335	0,26
344,796	0,3
345,258	0,34
345,719	0,38
346,181	0,43
346,643	0,47
347,104	0,5
347,566	0,54
348,027	0,57
348,488	0,59
348,95	0,61
349,411	0,63
349,873	0,66
350,334	0,67
350,795	0,69
351,256	0,7
351,718	0,71
352,179	0,71
352,64	0,72
353,101	0,72
353,562	0,72
354,023	0,73
354,484	0,73
354,945	0,73
355,406	0,73
355,867	0,74
356,328	0,74
356,789	0,74
357,25	0,74
357,711	0,74
358,172	0,75
358,633	0,75
359,093	0,75
359,554	0,75
360,015	0,75
360,476	0,75
360,936	0,75
361,397	0,75
361,858	0,76
362,318	0,76
362,779	0,76
363,239	0,76
363,7	0,76
364,16	0,76
364,621	0,76
365,081	0,76
365,541	0,76
366,002	0,76
366,462	0,76
366,922	0,76
367,383	0,76
367,843	0,76
368,303	0,76
368,763	0,76
369,223	0,76
369,684	0,76
370,144	0,76
370,604	0,76
371,064	0,76
371,524	0,76
371,984	0,76
372,444	0,76
372,904	0,76
373,363	0,76
373,823	0,76
374,283	0,75
374,743	0,75
375,203	0,75
375,663	0,75
376,122	0,75
376,582	0,75
377,042	0,75
377,501	0,75
377,961	0,75
378,42	0,75
378,88	0,75
379,34	0,75
379,799	0,75
380,259	0,75
380,718	0,75
381,177	0,75
381,637	0,75
382,096	0,75
382,555	0,75
383,015	0,75
383,474	0,75
383,933	0,75
384,393	0,75
384,852	0,75
385,311	0,75
385,77	0,75
386,229	0,75
386,688	0,75
387,147	0,75
387,606	0,75
388,065	0,74
388,524	0,74
388,983	0,74
389,442	0,74
389,901	0,74
390,36	0,74
390,819	0,74
391,277	0,74
391,736	0,74
392,195	0,74
392,654	0,74
393,112	0,74
393,571	0,74
394,03	0,74
394,488	0,74
394,947	0,74
395,405	0,74
395,864	0,74
396,322	0,74
396,781	0,74
397,239	0,74
397,698	0,74
398,156	0,74
398,614	0,74
399,073	0,74
399,531	0,74
399,989	0,74
400,447	0,74
400,905	0,74
401,364	0,74
401,822	0,73
402,28	0,73
402,738	0,73
403,196	0,73
403,654	0,73
404,112	0,73
404,57	0,73
405,028	0,73
405,486	0,73
405,944	0,73
406,402	0,73
406,859	0,73
407,317	0,73
407,775	0,73
408,233	0,73
408,691	0,73
409,148	0,73
409,606	0,73
410,064	0,73
410,521	0,73
410,979	0,73
411,436	0,73
411,894	0,73
412,351	0,73
412,809	0,73
413,266	0,73
413,724	0,73
414,181	0,73
414,638	0,73
415,096	0,73
415,553	0,73
416,01	0,73
416,467	0,72
416,925	0,72
417,382	0,72
417,839	0,72
418,296	0,72
418,753	0,72
419,21	0,72
419,667	0,72
420,124	0,72
420,581	0,72
421,038	0,72
421,495	0,72
421,952	0,72
422,409	0,72
422,866	0,72
423,322	0,72
423,779	0,72
424,236	0,72
424,693	0,72
425,149	0,72
425,606	0,72
426,063	0,72
426,519	0,72
426,976	0,72
427,433	0,72
427,889	0,72
428,346	0,72
428,802	0,72
429,258	0,72
429,715	0,72
430,171	0,72
430,628	0,72
431,084	0,72
431,54	0,72
431,997	0,72
432,453	0,72
432,909	0,72
433,365	0,72
433,821	0,72
434,277	0,72
434,734	0,72
435,19	0,72
435,646	0,72
436,102	0,72
436,558	0,72
437,014	0,72
437,47	0,72
437,925	0,72
438,381	0,72
438,837	0,72
439,293	0,72
439,749	0,72
440,205	0,72
440,66	0,72
441,116	0,72
441,572	0,72
442,027	0,72
442,483	0,72
442,939	0,72
443,394	0,72
443,85	0,72
444,305	0,72
444,761	0,72
445,216	0,72
445,672	0,72
446,127	0,72
446,582	0,72
447,038	0,72
447,493	0,72
447,948	0,72
448,403	0,72
448,859	0,72
449,314	0,73
449,769	0,73
450,224	0,73
450,679	0,73
451,134	0,73
451,589	0,73
452,044	0,73
452,499	0,73
452,954	0,73
453,409	0,73
453,864	0,73
454,319	0,73
454,774	0,73
455,229	0,73
455,684	0,73
456,138	0,73
456,593	0,73
457,048	0,73
457,503	0,73
457,957	0,73
458,412	0,73
458,866	0,73
459,321	0,73
459,776	0,73
460,23	0,73
460,685	0,73
461,139	0,73
461,593	0,73
462,048	0,73
462,502	0,73
462,957	0,74
463,411	0,74
463,865	0,74
464,319	0,74
464,774	0,74
465,228	0,74
465,682	0,74
466,136	0,74
466,59	0,74
467,044	0,74
467,499	0,75
467,953	0,75
468,407	0,75
468,861	0,75
469,315	0,75
469,768	0,75
470,222	0,75
470,676	0,75
471,13	0,75
471,584	0,75
472,038	0,75
472,491	0,75
472,945	0,76
473,399	0,76
473,852	0,76
474,306	0,76
474,76	0,76
475,213	0,76
475,667	0,76
476,12	0,76
476,574	0,77
477,027	0,77
477,481	0,77
477,934	0,77
478,388	0,77
478,841	0,77
479,294	0,77
479,748	0,78
480,201	0,78
480,654	0,78
481,107	0,78
481,561	0,78
482,014	0,78
482,467	0,79
482,92	0,79
483,373	0,79
483,826	0,79
484,279	0,79
484,732	0,8
485,185	0,8
485,638	0,8
486,091	0,8
486,544	0,8
486,997	0,81
487,449	0,81
487,902	0,81
488,355	0,81
488,808	0,82
489,26	0,82
489,713	0,82
490,166	0,82
490,618	0,83
491,071	0,83
491,523	0,83
491,976	0,84
492,429	0,84
492,881	0,84
493,333	0,84
493,786	0,85
494,238	0,85
494,691	0,85
495,143	0,86
495,595	0,86
496,048	0,87
496,5	0,87
496,952	0,87
497,404	0,88
497,856	0,88
498,309	0,88
498,761	0,89
499,213	0,89
499,665	0,9
500,117	0,9
500,569	0,9
501,021	0,91
501,473	0,91
501,925	0,92
502,377	0,92
502,828	0,92
503,28	0,93
503,732	0,93
504,184	0,93
504,636	0,94
505,087	0,94
505,539	0,95
505,991	0,95
506,442	0,95
506,894	0,96
507,345	0,96
507,797	0,97
508,249	0,97
508,7	0,97
509,151	0,98
509,603	0,98
510,054	0,99
510,506	0,99
510,957	1
511,408	1
511,86	1
512,311	1,01
512,762	1,01
513,213	1,01
513,665	1,02
514,116	1,02
514,567	1,02
515,018	1,03
515,469	1,03
515,92	1,03
516,371	1,04
516,822	1,04
517,273	1,04
517,724	1,05
518,175	1,05
518,626	1,05
519,076	1,05
519,527	1,06
519,978	1,06
520,429	1,06
520,88	1,06
521,33	1,06
521,781	1,07
522,232	1,07
522,682	1,07
523,133	1,07
523,583	1,07
524,034	1,07
524,484	1,07
524,935	1,07
525,385	1,07
525,836	1,08
526,286	1,08
526,736	1,08
527,187	1,08
527,637	1,08
528,087	1,07
528,538	1,07
528,988	1,07
529,438	1,07
529,888	1,07
530,338	1,07
530,788	1,07
531,238	1,07
531,688	1,07
532,139	1,06
532,589	1,06
533,038	1,06
533,488	1,06
533,938	1,06
534,388	1,06
534,838	1,05
535,288	1,05
535,738	1,05
536,187	1,04
536,637	1,04
537,087	1,03
537,537	1,03
537,986	1,03
538,436	1,02
538,885	1,02
539,335	1,01
539,785	1,01
540,234	1,01
540,684	1
541,133	1
541,582	0,99
542,032	0,99
542,481	0,98
542,931	0,98
543,38	0,97
543,829	0,97
544,278	0,96
544,728	0,96
545,177	0,95
545,626	0,95
546,075	0,94
546,524	0,94
546,973	0,94
547,422	0,93
547,871	0,93
548,32	0,92
548,769	0,92
549,218	0,92
549,667	0,91
550,116	0,91
550,565	0,9
551,014	0,9
551,463	0,89
551,911	0,89
552,36	0,88
552,809	0,88
553,258	0,87
553,706	0,87
554,155	0,87
554,603	0,86
555,052	0,86
555,501	0,85
555,949	0,85
556,398	0,84
556,846	0,84
557,294	0,83
557,743	0,83
558,191	0,82
558,64	0,82
559,088	0,81
559,536	0,81
559,985	0,8
560,433	0,8
560,881	0,79
561,329	0,79
561,777	0,78
562,225	0,78
562,674	0,78
563,122	0,77
563,57	0,77
564,018	0,76
564,466	0,76
564,914	0,76
565,362	0,75
565,809	0,75
566,257	0,74
566,705	0,74
567,153	0,73
567,601	0,73
568,048	0,73
568,496	0,72
568,944	0,72
569,392	0,71
569,839	0,71
570,287	0,71
570,734	0,7
571,182	0,7
571,63	0,7
572,077	0,69
572,525	0,69
572,972	0,68
573,419	0,68
573,867	0,68
574,314	0,67
574,761	0,67
575,209	0,67
575,656	0,66
576,103	0,66
576,551	0,66
576,998	0,65
577,445	0,65
577,892	0,65
578,339	0,64
578,786	0,64
579,233	0,64
579,68	0,63
580,127	0,63
580,574	0,63
581,021	0,63
581,468	0,62
581,915	0,62
582,362	0,62
582,809	0,62
583,255	0,61
583,702	0,61
584,149	0,61
584,596	0,61
585,042	0,6
585,489	0,6
585,936	0,6
586,382	0,6
586,829	0,59
587,275	0,59
587,722	0,59
588,168	0,59
588,615	0,59
589,061	0,58
589,508	0,58
589,954	0,58
590,4	0,58
590,847	0,57
591,293	0,57
591,739	0,57
592,185	0,57
592,632	0,57
593,078	0,57
593,524	0,56
593,97	0,56
594,416	0,56
594,862	0,56
595,308	0,56
595,754	0,56
596,2	0,56
596,646	0,55
597,092	0,55
597,538	0,55
597,984	0,55
598,43	0,55
598,876	0,55
599,321	0,54
599,767	0,54
600,213	0,54
600,659	0,54
601,104	0,54
601,55	0,54
601,995	0,54
602,441	0,53
602,887	0,53
603,332	0,53
603,778	0,53
604,223	0,53
604,668	0,53
605,114	0,53
605,559	0,53
606,005	0,52
606,45	0,52
606,895	0,52
607,341	0,52
607,786	0,52
608,231	0,52
608,676	0,51
609,121	0,51
609,566	0,5
610,012	0,5
610,457	0,5
610,902	0,49
611,347	0,49
611,792	0,49
612,237	0,49
612,682	0,49
613,127	0,48
613,571	0,49
614,016	0,49
614,461	0,49
614,906	0,49
615,351	0,49
615,795	0,49
616,24	0,49
616,685	0,49
617,129	0,49
617,574	0,49
618,019	0,49
618,463	0,49
618,908	0,49
619,352	0,49
619,797	0,49
620,241	0,49
620,686	0,49
621,13	0,49
621,574	0,49
622,019	0,49
622,463	0,48
622,907	0,48
623,352	0,48
623,796	0,48
624,24	0,48
624,684	0,48
625,128	0,48
625,572	0,48
626,016	0,48
626,461	0,48
626,905	0,48
627,349	0,48
627,793	0,48
628,236	0,48
628,68	0,48
629,124	0,48
629,568	0,48
630,012	0,48
630,456	0,48
630,9	0,47
631,343	0,47
631,787	0,48
632,231	0,47
632,674	0,47
633,118	0,47
633,562	0,47
634,005	0,47
634,449	0,47
634,892	0,47
635,336	0,47
635,779	0,47
636,223	0,47
636,666	0,47
637,109	0,47
637,553	0,47
637,996	0,47
638,439	0,47
638,883	0,47
639,326	0,47
639,769	0,47
640,212	0,47
640,655	0,47
641,099	0,46
641,542	0,46
641,985	0,46
642,428	0,46
642,871	0,46
643,314	0,46
643,757	0,46
644,2	0,46
644,643	0,46
645,085	0,46
645,528	0,46
645,971	0,46
646,414	0,46
646,857	0,46
647,299	0,46
647,742	0,45
648,185	0,45
648,627	0,45
649,07	0,45
649,513	0,45
649,955	0,45
650,398	0,45
650,84	0,45
651,283	0,45
651,725	0,46
652,168	0,46
652,61	0,46
653,052	0,46
653,495	0,46
653,937	0,37
654,379	0,31
654,821	0,32
655,264	0,32
655,706	0,32
656,148	0,32
656,59	0,32
657,032	0,32
657,474	0,32
657,916	0,32
658,358	0,31
658,8	0,37
659,242	0,45
659,684	0,45
660,126	0,45
660,568	0,45
661,01	0,45
661,452	0,45
661,894	0,45
662,335	0,45
662,777	0,45
663,219	0,45
663,661	0,45
664,102	0,45
664,544	0,44
664,985	0,44
665,427	0,44
665,869	0,44
666,31	0,44
666,752	0,44
667,193	0,44
667,634	0,45
668,076	0,45
668,517	0,45
668,959	0,45
669,4	0,45
669,841	0,45
670,282	0,45
670,724	0,45
671,165	0,45
671,606	0,45
672,047	0,45
672,488	0,45
672,929	0,44
673,37	0,44
673,811	0,44
674,252	0,44
674,693	0,44
675,134	0,44
675,575	0,44
676,016	0,44
676,457	0,44
676,898	0,43
677,339	0,43
677,78	0,43
678,22	0,43
678,661	0,43
679,102	0,43
679,542	0,43
679,983	0,43
680,424	0,43
680,864	0,43
681,305	0,43
681,745	0,43
682,186	0,44
682,626	0,44
683,067	0,44
683,507	0,44
683,948	0,44
684,388	0,44
684,828	0,44
685,269	0,44
685,709	0,43
686,149	0,43
686,589	0,43
687,029	0,43
687,47	0,43
687,91	0,43
688,35	0,43
688,79	0,43
689,23	0,43
689,67	0,43
690,11	0,43
690,55	0,43
690,99	0,43
691,43	0,43
691,87	0,43
692,31	0,42
692,749	0,42
693,189	0,42
693,629	0,42
694,069	0,42
694,508	0,42
694,948	0,42
695,388	0,42
695,827	0,42
696,267	0,42
696,706	0,42
697,146	0,42
697,586	0,42
698,025	0,42
698,464	0,42
698,904	0,42
699,343	0,42
699,783	0,42
700,222	0,43
700,661	0,43
701,101	0,43
701,54	0,43
701,979	0,43
702,418	0,43
702,857	0,43
703,297	0,43
703,736	0,43
704,175	0,43
704,614	0,43
705,053	0,43
705,492	0,42
705,931	0,42
706,37	0,42
706,809	0,42
707,248	0,42
707,687	0,42
708,125	0,42
708,564	0,42
709,003	0,42
709,442	0,42
709,88	0,42
710,319	0,42
710,758	0,42
711,196	0,42
711,635	0,42
712,074	0,41
712,512	0,41
712,951	0,41
713,389	0,41
713,828	0,41
714,266	0,41
714,705	0,41
715,143	0,41
715,581	0,41
716,02	0,41
716,458	0,41
716,896	0,41
717,334	0,41
717,773	0,41
718,211	0,41
718,649	0,41
719,087	0,41
719,525	0,41
719,963	0,41
720,401	0,41
720,839	0,41
721,277	0,41
721,715	0,41
722,153	0,41
722,591	0,41
723,029	0,41
723,467	0,41
723,905	0,41
724,342	0,41
724,78	0,41
725,218	0,41
725,656	0,41
726,093	0,41
726,531	0,41
726,969	0,41
727,406	0,41
727,844	0,41
728,281	0,41
728,719	0,41
729,156	0,41
729,594	0,41
730,031	0,41
730,469	0,41
730,906	0,41
731,343	0,41
731,781	0,41
732,218	0,41
732,655	0,41
733,092	0,41
733,53	0,41
733,967	0,4
734,404	0,4
734,841	0,4
735,278	0,4
735,715	0,4
736,152	0,4
736,589	0,4
737,026	0,4
737,463	0,4
737,9	0,4
738,337	0,4
738,774	0,4
739,211	0,4
739,647	0,4
740,084	0,4
740,521	0,4
740,958	0,4
741,394	0,4
741,831	0,4
742,268	0,4
742,704	0,4
743,141	0,4
743,577	0,4
744,014	0,4
744,45	0,4
744,887	0,4
745,323	0,39
745,76	0,39
746,196	0,39
746,632	0,39
747,069	0,39
747,505	0,39
747,941	0,39
748,378	0,39
748,814	0,39
749,25	0,39
749,686	0,39
750,122	0,39
750,558	0,39
750,994	0,4
751,43	0,4
751,866	0,4
752,302	0,4
752,738	0,4
753,174	0,4
753,61	0,4
754,046	0,4
754,482	0,4
754,918	0,4
755,354	0,4
755,789	0,4
756,225	0,4
756,661	0,4
757,096	0,4
757,532	0,4
757,968	0,39
758,403	0,39
758,839	0,39
759,274	0,39
759,71	0,38
760,145	0,38
760,581	0,37
761,016	0,37
761,452	0,37
761,887	0,36
762,322	0,36
762,758	0,35
763,193	0,35
763,628	0,34
764,063	0,34
764,499	0,33
764,934	0,33
765,369	0,32
765,804	0,31
766,239	0,31
766,674	0,3
767,109	0,3
767,544	0,29
767,979	0,28
768,414	0,27
768,849	0,26
769,284	0,25
769,719	0,24
770,154	0,24
770,588	0,23
771,023	0,22
771,458	0,21
771,893	0,2
772,327	0,18
772,762	0,17
773,197	0,16
773,631	0,15
774,066	0,15
774,5	0,14
774,935	0,12
775,369	0,11
775,804	0,1
776,238	0,09
776,673	0,08
777,107	0,07
777,541	0,07
777,976	0,06
778,41	0,06
778,844	0,05
779,279	0,04
779,713	0,03
780,147	0,02
780,581	0,01
781,015	0
781,449	-0,01
781,883	-0,01
782,317	-0,03
782,751	-0,04
783,185	-0,05
783,619	-0,05
784,053	-0,06
784,487	-0,06
784,921	-0,07
785,355	-0,07
785,789	-0,08
786,223	-0,09
786,656	-0,1
787,09	-0,11
787,524	-0,12
787,957	-0,13
788,391	-0,15
788,825	-0,18
789,258	-0,19
789,692	-0,21
790,125	-0,22
790,559	-0,24
790,992	-0,26
791,426	-0,28
791,859	-0,3
792,293	-0,33
792,726	-0,34
793,159	-0,36
793,593	-0,37
794,026	-0,39
794,459	-0,42
794,892	-0,45
795,326	-0,48
795,759	-0,51
796,192	-0,56
796,625	-0,6
797,058	-0,63
797,491	-0,67
797,924	-0,71
798,357	-0,76
798,79	-0,8
799,223	-0,84
799,656	-0,89
800,089	-0,94
800,522	-0,98
800,955	-1,02
801,387	-1,08
801,82	-1,13
802,253	-1,2
802,686	-1,28
803,118	-1,33
803,551	-1,38
803,984	-1,43
804,416	-1,46
804,849	-1,49
805,281	-1,61
805,714	-1,98
806,146	-2,44
806,579	-2,71
807,011	-2,87
807,444	-2,96
807,876	-3,04
808,308	-3,07
808,741	-3,1
809,173	-3,15
809,605	-3,18
810,037	-3,25
810,47	-3,17
810,902	-2,97
811,334	-2,82
811,766	-2,65
812,198	-2,39
812,63	-1,97
813,062	-1,77
813,494	-1,67
813,926	-1,59
814,358	-1,53
814,79	-1,45
815,222	-1,4
815,654	-1,35
816,086	-1,28
816,518	-1,23
816,949	-1,18
817,381	-1,13
817,813	-1,12
818,245	-1,08
818,676	-1,04
819,108	-1,01
819,54	-0,99
819,971	-0,97
820,403	-0,92
820,834	-0,91
821,266	-0,86
821,697	-0,84
822,129	-0,83
822,56	-0,8
822,991	-0,78
823,423	-0,75
823,854	-0,75
824,286	-0,72
824,717	-0,71
825,148	-0,7
825,579	-0,69
826,01	-0,67
826,442	-0,66
826,873	-0,64
827,304	-0,61
827,735	-0,6
828,166	-0,61
828,597	-0,61
829,028	-0,6
829,459	-0,61
829,89	-0,61
830,321	-0,57
830,752	-0,58
831,183	-0,57
831,613	-0,57
832,044	-0,56
832,475	-0,55
832,906	-0,56
833,336	-0,56
833,767	-0,56
834,198	-0,55
834,628	-0,53
835,059	-0,55
835,49	-0,56
835,92	-0,53
836,351	-0,54
836,781	-0,54
837,212	-0,55
837,642	-0,55
838,072	-0,54
838,503	-0,55
838,933	-0,52
839,364	-0,52
839,794	-0,51
840,224	-0,5
840,654	-0,55
841,085	-0,55
841,515	-0,52
841,945	-0,52
842,375	-0,47
842,805	-0,46
843,235	-0,45
843,665	-0,47
844,095	-0,46
844,525	-0,48
844,955	-0,47
845,385	-0,45
845,815	-0,44
846,245	-0,47
846,675	-0,48
847,105	-0,51
847,534	-0,51
847,964	-0,49
848,394	-0,47
848,824	-0,5
849,253	-0,49
849,683	-0,49
850,112	-0,5
850,542	-0,53
850,972	-0,53
851,401	-0,51
851,831	-0,48
852,26	-0,49
852,69	-0,53
853,119	-0,52
853,548	-0,52
853,978	-0,53
854,407	-0,51
854,836	-0,51
855,266	-0,5
855,695	-0,52
856,124	-0,53
856,553	-0,54
856,983	-0,57
857,412	-0,56
857,841	-0,58
858,27	-0,59
858,699	-0,59
859,128	-0,63
859,557	-0,64
859,986	-0,64
860,415	-0,62
860,844	-0,59
861,273	-0,59
861,702	-0,6
862,13	-0,58
862,559	-0,6
862,988	-0,57
863,417	-0,56
863,845	-0,54
864,274	-0,55
864,703	-0,55
865,131	-0,55
865,56	-0,56
865,989	-0,59
866,417	-0,56
866,846	-0,56
867,274	-0,55
867,703	-0,57
868,131	-0,58
868,559	-0,59
868,988	-0,61
869,416	-0,6
869,844	-0,61
870,273	-0,63
870,701	-0,61
871,129	-0,64
871,557	-0,67
871,986	-0,67
872,414	-0,69
872,842	-0,65
873,27	-0,64
873,698	-0,61
874,126	-0,65
874,554	-0,63
874,982	-0,63
875,41	-0,66
875,838	-0,61
876,266	-0,58
876,694	-0,58
877,122	-0,57
877,549	-0,63
877,977	-0,6
878,405	-0,62
878,833	-0,59
879,26	-0,57
879,688	-0,58
880,116	-0,55
880,543	-0,54
880,971	-0,53
881,399	-0,56
881,826	-0,56
882,254	-0,54
882,681	-0,58
883,109	-0,55
883,536	-0,57
883,963	-0,59
884,391	-0,57
884,818	-0,57
885,245	-0,61
885,673	-0,63
886,1	-0,6
886,527	-0,6
886,954	-0,56
887,381	-0,57
887,809	-0,57
888,236	-0,58
888,663	-0,59
889,09	-0,63
889,517	-0,64
889,944	-0,63
890,371	-0,62
890,798	-0,62
891,225	-0,63
891,652	-0,66
892,078	-0,63
892,505	-0,67
892,932	-0,63
893,359	-0,64
893,786	-0,63
894,212	-0,59
894,639	-0,61
895,066	-0,64
895,492	-0,58
895,919	-0,58
896,346	-0,58
896,772	-0,59
897,199	-0,55
897,625	-0,57
898,052	-0,54
898,478	-0,53
898,904	-0,56
899,331	-0,55
899,757	-0,56
900,183	-0,58
900,61	-0,56
901,036	-0,56
901,462	-0,55
901,888	-0,55
902,315	-0,54
902,741	-0,59
903,167	-0,57
903,593	-0,6
904,019	-0,58
904,445	-0,55
904,871	-0,58
905,297	-0,6
905,723	-0,59
906,149	-0,59
906,575	-0,6
907,001	-0,6
907,427	-0,57
907,852	-0,56
908,278	-0,57
908,704	-0,55
909,13	-0,53
909,555	-0,53
909,981	-0,52
910,407	-0,53
910,832	-0,52
911,258	-0,52
911,684	-0,52
912,109	-0,52
912,535	-0,55
912,96	-0,51
913,386	-0,55
913,811	-0,55
914,236	-0,57
914,662	-0,55
915,087	-0,58
915,512	-0,59
915,938	-0,61
916,363	-0,6
916,788	-0,61
917,213	-0,58
917,639	-0,62
918,064	-0,6
918,489	-0,6
918,914	-0,59
919,339	-0,6
919,764	-0,57
920,189	-0,57
920,614	-0,59
921,039	-0,59
921,464	-0,55
921,889	-0,58
922,314	-0,59
922,738	-0,62
923,163	-0,63
923,588	-0,63
924,013	-0,63
924,437	-0,63
924,862	-0,64
925,287	-0,6
925,711	-0,61
926,136	-0,61
926,561	-0,6
926,985	-0,59
927,41	-0,56
927,834	-0,54
928,259	-0,51
928,683	-0,5
929,108	-0,48
929,532	-0,49
929,956	-0,49
930,381	-0,48
930,805	-0,48
931,229	-0,48
931,653	-0,46
932,078	-0,46
932,502	-0,47
932,926	-0,47
933,35	-0,47
933,774	-0,46
934,198	-0,44
934,622	-0,42
935,046	-0,43
935,47	-0,43
935,894	-0,43
936,318	-0,43
936,742	-0,43
937,166	-0,44
937,59	-0,44
938,014	-0,46
938,437	-0,47
938,861	-0,49
939,285	-0,5
939,709	-0,5
940,132	-0,51
940,556	-0,51
940,98	-0,51
941,403	-0,49
941,827	-0,49
942,25	-0,51
942,674	-0,49
943,097	-0,49
943,521	-0,49
943,944	-0,5
944,368	-0,48
944,791	-0,46
945,214	-0,48
945,638	-0,48
946,061	-0,52
946,484	-0,52
946,907	-0,51
947,331	-0,51
947,754	-0,54
948,177	-0,51
948,6	-0,51
949,023	-0,51
949,446	-0,51
949,869	-0,48
950,292	-0,49
950,715	-0,46
951,138	-0,45
951,561	-0,43
951,984	-0,43
952,407	-0,42
952,83	-0,4
953,252	-0,36
953,675	-0,37
954,098	-0,37
954,521	-0,36
954,943	-0,35
955,366	-0,36
955,789	-0,34
956,211	-0,37
956,634	-0,37
957,056	-0,34
957,479	-0,35
957,902	-0,38
958,324	-0,37
958,746	-0,36
959,169	-0,37
959,591	-0,38
960,014	-0,38
960,436	-0,38
960,858	-0,37
961,281	-0,37
961,703	-0,38
962,125	-0,37
962,547	-0,35
962,969	-0,37
963,391	-0,37
963,814	-0,38
964,236	-0,37
964,658	-0,34
965,08	-0,35
965,502	-0,35
965,924	-0,34
966,346	-0,34
966,768	-0,33
967,189	-0,36
967,611	-0,35
968,033	-0,34
968,455	-0,32
968,877	-0,33
969,298	-0,35
969,72	-0,35
970,142	-0,33
970,563	-0,33
970,985	-0,31
971,407	-0,3
971,828	-0,27
972,25	-0,27
972,671	-0,26
973,093	-0,26
973,514	-0,24
973,936	-0,22
974,357	-0,21
974,778	-0,22
975,2	-0,22
975,621	-0,22
976,042	-0,2
976,464	-0,19
976,885	-0,18
977,306	-0,17
977,727	-0,16
978,148	-0,15
978,57	-0,14
978,991	-0,12
979,412	-0,11
979,833	-0,09
980,254	-0,08
980,675	-0,09
981,096	-0,08
981,517	-0,06
981,937	-0,05
982,358	-0,04
982,779	-0,03
983,2	-0,03
983,621	-0,02
984,042	-0,01
984,462	0
984,883	0,01
985,304	0,03
985,724	0,04
986,145	0,05
986,565	0,06
986,986	0,07
987,407	0,08
987,827	0,1
988,248	0,11
988,668	0,12
989,088	0,13
989,509	0,14
989,929	0,15
990,35	0,16
990,77	0,17
991,19	0,18
991,61	0,2
992,031	0,2
992,451	0,21
992,871	0,22
993,291	0,23
993,711	0,24
994,131	0,25
994,551	0,26
994,971	0,26
995,391	0,27
995,811	0,28
996,231	0,28
996,651	0,29
997,071	0,29
997,491	0,3
997,911	0,31
998,331	0,32
998,75	0,32
999,17	0,32
999,59	0,33
1000,009	0,33
1000,429	0,34
1000,849	0,35
1001,268	0,35
1001,688	0,36
1002,107	0,36
1002,527	0,36
1002,946	0,37
1003,366	0,37
1003,785	0,37
1004,205	0,38
1004,624	0,38
1005,044	0,38
1005,463	0,38
1005,882	0,38
1006,301	0,39
1006,721	0,39
1007,14	0,39
1007,559	0,39
1007,978	0,39
1008,397	0,39
1008,816	0,39
1009,235	0,39
1009,655	0,39
1010,074	0,39
1010,492	0,39
1010,911	0,39
1011,33	0,39
1011,749	0,39
1012,168	0,39
1012,587	0,39
1013,006	0,39
1013,425	0,38
1013,843	0,38
1014,262	0,38
1014,681	0,38
1015,099	0,38
1015,518	0,38
1015,937	0,38
1016,355	0,38
1016,774	0,38
1017,192	0,38
1017,611	0,38
1018,029	0,38
1018,448	0,38
1018,866	0,38
1019,285	0,38
1019,703	0,38
1020,121	0,38
1020,54	0,38
1020,958	0,38
1021,376	0,38
1021,794	0,38
1022,213	0,38
1022,631	0,38
1023,049	0,38
1023,467	0,37
1023,885	0,37
1024,303	0,37
1024,721	0,37
1025,139	0,37
1025,557	0,37
1025,975	0,37
1026,393	0,37
1026,811	0,37
1027,229	0,37
1027,647	0,37
1028,065	0,37
1028,482	0,37
1028,9	0,37
1029,318	0,37
1029,735	0,36
1030,153	0,36
1030,571	0,36
1030,988	0,36
1031,406	0,36
1031,823	0,36
1032,241	0,36
1032,659	0,37
1033,076	0,37
1033,493	0,37
1033,911	0,37
1034,328	0,37
1034,746	0,37
1035,163	0,37
1035,58	0,37
1035,997	0,37
1036,415	0,37
1036,832	0,37
1037,249	0,37
1037,666	0,37
1038,083	0,37
1038,501	0,37
1038,918	0,37
1039,335	0,37
1039,752	0,37
1040,169	0,37
1040,586	0,37
1041,003	0,37
1041,419	0,37
1041,836	0,37
1042,253	0,37
1042,67	0,37
1043,087	0,37
1043,504	0,37
1043,92	0,37
1044,337	0,37
1044,754	0,37
1045,17	0,37
1045,587	0,37
1046,004	0,37
1046,42	0,37
1046,837	0,37
1047,253	0,37
1047,67	0,37
1048,086	0,37
1048,503	0,37
1048,919	0,37
1049,335	0,37
1049,752	0,37
1050,168	0,37
1050,584	0,37
1051,001	0,37
1051,417	0,37
1051,833	0,37
1052,249	0,37
1052,665	0,37
1053,081	0,37
1053,497	0,37
1053,914	0,37
1054,33	0,38
1054,746	0,38
1055,162	0,38
1055,578	0,38
1055,993	0,38
1056,409	0,38
1056,825	0,38
1057,241	0,38
1057,657	0,38
1058,073	0,38
1058,488	0,38
1058,904	0,38
1059,32	0,38
1059,736	0,38
1060,151	0,38
1060,567	0,38
1060,982	0,38
1061,398	0,38
1061,813	0,38
1062,229	0,38
1062,644	0,38
1063,06	0,38
1063,475	0,37
1063,891	0,37
1064,306	0,37
1064,721	0,37
1065,137	0,37
1065,552	0,37
1065,967	0,37
1066,382	0,37
1066,798	0,37
1067,213	0,37
1067,628	0,37
1068,043	0,37
1068,458	0,37
1068,873	0,37
1069,288	0,37
1069,703	0,37
1070,118	0,37
1070,533	0,37
1070,948	0,37
1071,363	0,37
1071,778	0,37
1072,193	0,37
1072,607	0,37
1073,022	0,37
1073,437	0,37
1073,852	0,37
1074,266	0,37
1074,681	0,37
1075,096	0,37
1075,51	0,37
1075,925	0,37
1076,339	0,37
1076,754	0,37
1077,168	0,37
1077,583	0,37
1077,997	0,37
1078,412	0,37
1078,826	0,37
1079,24	0,37
1079,655	0,37
1080,069	0,37
1080,483	0,37
1080,897	0,37
1081,312	0,37
1081,726	0,37
1082,14	0,37
1082,554	0,37
1082,968	0,37
1083,382	0,37
1083,796	0,36
1084,21	0,36
1084,624	0,36
1085,038	0,36
1085,452	0,36
1085,866	0,36
1086,28	0,36
1086,694	0,36
1087,108	0,35
1087,521	0,35
1087,935	0,35
1088,349	0,35
1088,763	0,34
1089,176	0,34
1089,59	0,34
1090,004	0,34
1090,417	0,33
1090,831	0,33
1091,244	0,33
1091,658	0,32
1092,071	0,32
1092,485	0,32
1092,898	0,31
1093,312	0,31
1093,725	0,31
1094,138	0,31
1094,552	0,31
1094,965	0,3
1095,378	0,3
1095,791	0,3
1096,205	0,3
1096,618	0,3
1097,031	0,29
1097,444	0,29
1097,857	0,29
1098,27	0,29
1098,683	0,28
1099,096	0,28
1099,509	0,28
1099,922	0,27
1100,335	0,27
1100,748	0,27
1101,161	0,26
1101,574	0,26
1101,986	0,26
1102,399	0,25
1102,812	0,25
1103,225	0,25
1103,637	0,24
1104,05	0,24
1104,463	0,24
1104,875	0,23
1105,288	0,23
1105,7	0,22
1106,113	0,22
1106,525	0,22
1106,938	0,22
1107,35	0,21
1107,763	0,21
1108,175	0,21
1108,588	0,2
1109	0,2
1109,412	0,2
1109,824	0,19
1110,237	0,19
1110,649	0,18
1111,061	0,18
