Data from 18C-808nm-8A-cont_Absorbance__98__01527.txt Node

Date: Mon Jul 17 17:20:40 CEST 2023
User: Laser008
Spectrometer: MAYP115816
Trigger mode: 0
Integration Time (sec): 2,500000E-1
Scans to average: 10
Electric dark correction enabled: true
Nonlinearity correction enabled: true
Boxcar width: 5
XAxis mode: Wavelengths
Number of Pixels in Spectrum: 2068
>>>>>Begin Spectral Data<<<<<
198,914	-0,65
199,384	-0,45
199,855	-0,32
200,325	-0,26
200,796	-0,22
201,266	-0,17
201,737	-0,15
202,207	-0,14
202,677	-0,13
203,147	-0,12
203,618	-0,1
204,088	-0,09
204,558	-0,08
205,028	-0,08
205,498	-0,08
205,968	-0,08
206,439	-0,1
206,909	-0,09
207,379	-0,09
207,849	-0,1
208,319	-0,11
208,789	-0,11
209,258	-0,11
209,728	-0,11
210,198	-0,12
210,668	-0,12
211,138	-0,11
211,608	-0,11
212,077	-0,12
212,547	-0,12
213,017	-0,12
213,486	-0,13
213,956	-0,13
214,426	-0,14
214,895	-0,14
215,365	-0,15
215,834	-0,15
216,304	-0,16
216,773	-0,16
217,243	-0,17
217,712	-0,19
218,181	-0,18
218,651	-0,18
219,12	-0,18
219,589	-0,18
220,058	-0,16
220,528	-0,17
220,997	-0,18
221,466	-0,19
221,935	-0,19
222,404	-0,19
222,873	-0,17
223,342	-0,17
223,812	-0,17
224,281	-0,17
224,749	-0,17
225,218	-0,19
225,687	-0,19
226,156	-0,17
226,625	-0,16
227,094	-0,16
227,563	-0,16
228,031	-0,18
228,5	-0,17
228,969	-0,18
229,438	-0,18
229,906	-0,16
230,375	-0,16
230,844	-0,15
231,312	-0,15
231,781	-0,16
232,249	-0,15
232,718	-0,15
233,186	-0,13
233,655	-0,14
234,123	-0,13
234,591	-0,13
235,06	-0,14
235,528	-0,14
235,996	-0,14
236,465	-0,14
236,933	-0,13
237,401	-0,13
237,869	-0,12
238,337	-0,11
238,805	-0,1
239,274	-0,1
239,742	-0,1
240,21	-0,1
240,678	-0,08
241,146	-0,08
241,614	-0,08
242,081	-0,08
242,549	-0,07
243,017	-0,07
243,485	-0,09
243,953	-0,09
244,421	-0,08
244,888	-0,09
245,356	-0,08
245,824	-0,09
246,291	-0,1
246,759	-0,11
247,227	-0,11
247,694	-0,1
248,162	-0,1
248,629	-0,09
249,097	-0,1
249,564	-0,1
250,032	-0,11
250,499	-0,11
250,967	-0,12
251,434	-0,12
251,901	-0,11
252,369	-0,12
252,836	-0,13
253,303	-0,14
253,77	-0,16
254,237	-0,15
254,705	-0,14
255,172	-0,13
255,639	-0,14
256,106	-0,15
256,573	-0,15
257,04	-0,15
257,507	-0,16
257,974	-0,15
258,441	-0,13
258,908	-0,14
259,375	-0,15
259,841	-0,16
260,308	-0,17
260,775	-0,17
261,242	-0,16
261,709	-0,15
262,175	-0,16
262,642	-0,16
263,109	-0,16
263,575	-0,18
264,042	-0,16
264,508	-0,16
264,975	-0,17
265,441	-0,18
265,908	-0,18
266,374	-0,18
266,841	-0,18
267,307	-0,18
267,773	-0,18
268,24	-0,18
268,706	-0,18
269,172	-0,19
269,639	-0,21
270,105	-0,19
270,571	-0,19
271,037	-0,19
271,503	-0,2
271,969	-0,2
272,435	-0,2
272,902	-0,21
273,368	-0,22
273,834	-0,22
274,3	-0,22
274,765	-0,21
275,231	-0,21
275,697	-0,21
276,163	-0,2
276,629	-0,2
277,095	-0,21
277,56	-0,21
278,026	-0,21
278,492	-0,2
278,958	-0,2
279,423	-0,19
279,889	-0,19
280,354	-0,2
280,82	-0,2
281,286	-0,22
281,751	-0,22
282,217	-0,21
282,682	-0,22
283,147	-0,21
283,613	-0,22
284,078	-0,22
284,544	-0,23
285,009	-0,23
285,474	-0,22
285,939	-0,23
286,405	-0,22
286,87	-0,22
287,335	-0,2
287,8	-0,19
288,265	-0,18
288,73	-0,19
289,195	-0,22
289,66	-0,21
290,125	-0,2
290,59	-0,2
291,055	-0,19
291,52	-0,19
291,985	-0,19
292,45	-0,21
292,915	-0,21
293,38	-0,22
293,844	-0,21
294,309	-0,19
294,774	-0,18
295,239	-0,2
295,703	-0,21
296,168	-0,2
296,632	-0,19
297,097	-0,18
297,562	-0,17
298,026	-0,17
298,491	-0,17
298,955	-0,17
299,419	-0,16
299,884	-0,16
300,348	-0,15
300,813	-0,14
301,277	-0,15
301,741	-0,16
302,205	-0,15
302,67	-0,15
303,134	-0,14
303,598	-0,14
304,062	-0,13
304,526	-0,13
304,99	-0,14
305,454	-0,13
305,919	-0,13
306,383	-0,12
306,847	-0,12
307,31	-0,12
307,774	-0,12
308,238	-0,12
308,702	-0,11
309,166	-0,12
309,63	-0,12
310,094	-0,1
310,557	-0,1
311,021	-0,09
311,485	-0,1
311,948	-0,09
312,412	-0,09
312,876	-0,1
313,339	-0,1
313,803	-0,12
314,266	-0,11
314,73	-0,11
315,193	-0,11
315,657	-0,1
316,12	-0,11
316,584	-0,11
317,047	-0,11
317,51	-0,09
317,973	-0,09
318,437	-0,08
318,9	-0,06
319,363	-0,05
319,826	-0,04
320,29	-0,05
320,753	-0,05
321,216	-0,05
321,679	-0,05
322,142	-0,05
322,605	-0,06
323,068	-0,06
323,531	-0,06
323,994	-0,06
324,457	-0,06
324,92	-0,06
325,382	-0,05
325,845	-0,05
326,308	-0,05
326,771	-0,04
327,233	-0,03
327,696	-0,02
328,159	-0,01
328,622	-0
329,084	0
329,547	0,01
330,009	0,02
330,472	0,02
330,934	0,03
331,397	0,04
331,859	0,04
332,322	0,03
332,784	0,04
333,246	0,04
333,709	0,05
334,171	0,05
334,633	0,06
335,096	0,06
335,558	0,07
336,02	0,07
336,482	0,07
336,944	0,07
337,406	0,08
337,868	0,08
338,331	0,09
338,793	0,09
339,255	0,1
339,717	0,11
340,178	0,11
340,64	0,12
341,102	0,12
341,564	0,13
342,026	0,14
342,488	0,15
342,949	0,17
343,411	0,19
343,873	0,21
344,335	0,23
344,796	0,26
345,258	0,29
345,719	0,33
346,181	0,36
346,643	0,4
347,104	0,43
347,566	0,45
348,027	0,47
348,488	0,49
348,95	0,51
349,411	0,52
349,873	0,54
350,334	0,55
350,795	0,57
351,256	0,57
351,718	0,58
352,179	0,58
352,64	0,59
353,101	0,59
353,562	0,59
354,023	0,59
354,484	0,59
354,945	0,59
355,406	0,6
355,867	0,6
356,328	0,6
356,789	0,6
357,25	0,6
357,711	0,6
358,172	0,61
358,633	0,61
359,093	0,61
359,554	0,61
360,015	0,61
360,476	0,61
360,936	0,61
361,397	0,61
361,858	0,61
362,318	0,61
362,779	0,61
363,239	0,61
363,7	0,61
364,16	0,61
364,621	0,61
365,081	0,61
365,541	0,61
366,002	0,61
366,462	0,61
366,922	0,61
367,383	0,61
367,843	0,61
368,303	0,61
368,763	0,61
369,223	0,61
369,684	0,61
370,144	0,61
370,604	0,61
371,064	0,61
371,524	0,61
371,984	0,61
372,444	0,61
372,904	0,61
373,363	0,61
373,823	0,61
374,283	0,61
374,743	0,61
375,203	0,61
375,663	0,61
376,122	0,61
376,582	0,61
377,042	0,61
377,501	0,61
377,961	0,61
378,42	0,61
378,88	0,61
379,34	0,61
379,799	0,61
380,259	0,61
380,718	0,61
381,177	0,61
381,637	0,61
382,096	0,6
382,555	0,6
383,015	0,6
383,474	0,6
383,933	0,6
384,393	0,6
384,852	0,6
385,311	0,6
385,77	0,6
386,229	0,6
386,688	0,6
387,147	0,6
387,606	0,6
388,065	0,6
388,524	0,6
388,983	0,6
389,442	0,6
389,901	0,6
390,36	0,6
390,819	0,6
391,277	0,6
391,736	0,6
392,195	0,6
392,654	0,6
393,112	0,6
393,571	0,6
394,03	0,6
394,488	0,6
394,947	0,6
395,405	0,6
395,864	0,6
396,322	0,6
396,781	0,6
397,239	0,6
397,698	0,6
398,156	0,59
398,614	0,59
399,073	0,59
399,531	0,59
399,989	0,59
400,447	0,59
400,905	0,59
401,364	0,59
401,822	0,59
402,28	0,59
402,738	0,59
403,196	0,59
403,654	0,59
404,112	0,59
404,57	0,59
405,028	0,59
405,486	0,59
405,944	0,59
406,402	0,59
406,859	0,59
407,317	0,59
407,775	0,59
408,233	0,59
408,691	0,59
409,148	0,59
409,606	0,59
410,064	0,59
410,521	0,59
410,979	0,59
411,436	0,59
411,894	0,59
412,351	0,59
412,809	0,59
413,266	0,59
413,724	0,59
414,181	0,59
414,638	0,59
415,096	0,59
415,553	0,59
416,01	0,58
416,467	0,58
416,925	0,58
417,382	0,58
417,839	0,58
418,296	0,58
418,753	0,58
419,21	0,58
419,667	0,58
420,124	0,58
420,581	0,58
421,038	0,58
421,495	0,58
421,952	0,58
422,409	0,58
422,866	0,58
423,322	0,58
423,779	0,58
424,236	0,58
424,693	0,58
425,149	0,58
425,606	0,58
426,063	0,58
426,519	0,58
426,976	0,58
427,433	0,58
427,889	0,58
428,346	0,58
428,802	0,58
429,258	0,58
429,715	0,58
430,171	0,58
430,628	0,58
431,084	0,58
431,54	0,58
431,997	0,58
432,453	0,58
432,909	0,58
433,365	0,58
433,821	0,58
434,277	0,58
434,734	0,58
435,19	0,58
435,646	0,58
436,102	0,58
436,558	0,58
437,014	0,58
437,47	0,58
437,925	0,58
438,381	0,58
438,837	0,58
439,293	0,58
439,749	0,58
440,205	0,58
440,66	0,58
441,116	0,58
441,572	0,58
442,027	0,58
442,483	0,58
442,939	0,58
443,394	0,58
443,85	0,58
444,305	0,58
444,761	0,58
445,216	0,58
445,672	0,58
446,127	0,58
446,582	0,58
447,038	0,58
447,493	0,58
447,948	0,58
448,403	0,58
448,859	0,58
449,314	0,58
449,769	0,58
450,224	0,58
450,679	0,58
451,134	0,58
451,589	0,58
452,044	0,58
452,499	0,58
452,954	0,58
453,409	0,58
453,864	0,58
454,319	0,58
454,774	0,58
455,229	0,59
455,684	0,59
456,138	0,58
456,593	0,58
457,048	0,58
457,503	0,58
457,957	0,58
458,412	0,58
458,866	0,58
459,321	0,59
459,776	0,59
460,23	0,59
460,685	0,59
461,139	0,59
461,593	0,59
462,048	0,59
462,502	0,59
462,957	0,59
463,411	0,59
463,865	0,59
464,319	0,59
464,774	0,59
465,228	0,59
465,682	0,59
466,136	0,6
466,59	0,6
467,044	0,6
467,499	0,6
467,953	0,6
468,407	0,6
468,861	0,6
469,315	0,6
469,768	0,6
470,222	0,6
470,676	0,6
471,13	0,6
471,584	0,6
472,038	0,6
472,491	0,6
472,945	0,6
473,399	0,61
473,852	0,61
474,306	0,61
474,76	0,61
475,213	0,61
475,667	0,61
476,12	0,61
476,574	0,61
477,027	0,61
477,481	0,61
477,934	0,61
478,388	0,62
478,841	0,62
479,294	0,62
479,748	0,62
480,201	0,62
480,654	0,62
481,107	0,62
481,561	0,63
482,014	0,63
482,467	0,63
482,92	0,63
483,373	0,63
483,826	0,63
484,279	0,63
484,732	0,63
485,185	0,64
485,638	0,64
486,091	0,64
486,544	0,64
486,997	0,64
487,449	0,64
487,902	0,65
488,355	0,65
488,808	0,65
489,26	0,65
489,713	0,65
490,166	0,66
490,618	0,66
491,071	0,66
491,523	0,66
491,976	0,67
492,429	0,67
492,881	0,67
493,333	0,67
493,786	0,67
494,238	0,68
494,691	0,68
495,143	0,68
495,595	0,68
496,048	0,69
496,5	0,69
496,952	0,69
497,404	0,7
497,856	0,7
498,309	0,7
498,761	0,7
499,213	0,71
499,665	0,71
500,117	0,71
500,569	0,72
501,021	0,72
501,473	0,72
501,925	0,73
502,377	0,73
502,828	0,73
503,28	0,74
503,732	0,74
504,184	0,74
504,636	0,75
505,087	0,75
505,539	0,75
505,991	0,75
506,442	0,76
506,894	0,76
507,345	0,76
507,797	0,77
508,249	0,77
508,7	0,77
509,151	0,78
509,603	0,78
510,054	0,78
510,506	0,79
510,957	0,79
511,408	0,79
511,86	0,8
512,311	0,8
512,762	0,8
513,213	0,8
513,665	0,81
514,116	0,81
514,567	0,81
515,018	0,82
515,469	0,82
515,92	0,82
516,371	0,83
516,822	0,83
517,273	0,83
517,724	0,83
518,175	0,83
518,626	0,84
519,076	0,84
519,527	0,84
519,978	0,84
520,429	0,84
520,88	0,84
521,33	0,85
521,781	0,85
522,232	0,85
522,682	0,85
523,133	0,85
523,583	0,85
524,034	0,85
524,484	0,86
524,935	0,86
525,385	0,86
525,836	0,86
526,286	0,86
526,736	0,86
527,187	0,86
527,637	0,86
528,087	0,86
528,538	0,86
528,988	0,86
529,438	0,86
529,888	0,85
530,338	0,85
530,788	0,85
531,238	0,85
531,688	0,85
532,139	0,85
532,589	0,85
533,038	0,85
533,488	0,85
533,938	0,85
534,388	0,84
534,838	0,84
535,288	0,84
535,738	0,84
536,187	0,83
536,637	0,83
537,087	0,83
537,537	0,83
537,986	0,82
538,436	0,82
538,885	0,82
539,335	0,81
539,785	0,81
540,234	0,81
540,684	0,8
541,133	0,8
541,582	0,8
542,032	0,79
542,481	0,79
542,931	0,78
543,38	0,78
543,829	0,78
544,278	0,77
544,728	0,77
545,177	0,77
545,626	0,76
546,075	0,76
546,524	0,76
546,973	0,75
547,422	0,75
547,871	0,75
548,32	0,75
548,769	0,74
549,218	0,74
549,667	0,74
550,116	0,74
550,565	0,73
551,014	0,73
551,463	0,73
551,911	0,72
552,36	0,72
552,809	0,71
553,258	0,71
553,706	0,71
554,155	0,7
554,603	0,7
555,052	0,7
555,501	0,7
555,949	0,69
556,398	0,69
556,846	0,69
557,294	0,68
557,743	0,68
558,191	0,67
558,64	0,67
559,088	0,67
559,536	0,66
559,985	0,66
560,433	0,66
560,881	0,65
561,329	0,65
561,777	0,65
562,225	0,64
562,674	0,64
563,122	0,64
563,57	0,63
564,018	0,63
564,466	0,63
564,914	0,63
565,362	0,62
565,809	0,62
566,257	0,62
566,705	0,61
567,153	0,61
567,601	0,61
568,048	0,6
568,496	0,6
568,944	0,6
569,392	0,6
569,839	0,59
570,287	0,59
570,734	0,59
571,182	0,59
571,63	0,58
572,077	0,58
572,525	0,58
572,972	0,57
573,419	0,57
573,867	0,57
574,314	0,57
574,761	0,56
575,209	0,56
575,656	0,56
576,103	0,56
576,551	0,55
576,998	0,55
577,445	0,55
577,892	0,55
578,339	0,55
578,786	0,54
579,233	0,54
579,68	0,54
580,127	0,54
580,574	0,53
581,021	0,53
581,468	0,53
581,915	0,53
582,362	0,53
582,809	0,52
583,255	0,52
583,702	0,52
584,149	0,52
584,596	0,52
585,042	0,52
585,489	0,51
585,936	0,51
586,382	0,51
586,829	0,51
587,275	0,51
587,722	0,51
588,168	0,5
588,615	0,5
589,061	0,5
589,508	0,5
589,954	0,5
590,4	0,5
590,847	0,5
591,293	0,49
591,739	0,49
592,185	0,49
592,632	0,49
593,078	0,49
593,524	0,49
593,97	0,49
594,416	0,49
594,862	0,49
595,308	0,48
595,754	0,48
596,2	0,48
596,646	0,48
597,092	0,48
597,538	0,48
597,984	0,48
598,43	0,48
598,876	0,48
599,321	0,47
599,767	0,47
600,213	0,47
600,659	0,47
601,104	0,47
601,55	0,47
601,995	0,47
602,441	0,47
602,887	0,47
603,332	0,46
603,778	0,46
604,223	0,46
604,668	0,46
605,114	0,46
605,559	0,46
606,005	0,46
606,45	0,46
606,895	0,46
607,341	0,46
607,786	0,46
608,231	0,46
608,676	0,45
609,121	0,45
609,566	0,44
610,012	0,44
610,457	0,44
610,902	0,43
611,347	0,43
611,792	0,43
612,237	0,43
612,682	0,43
613,127	0,43
613,571	0,43
614,016	0,43
614,461	0,43
614,906	0,43
615,351	0,43
615,795	0,43
616,24	0,43
616,685	0,44
617,129	0,44
617,574	0,44
618,019	0,44
618,463	0,44
618,908	0,44
619,352	0,44
619,797	0,43
620,241	0,43
620,686	0,43
621,13	0,43
621,574	0,43
622,019	0,43
622,463	0,43
622,907	0,43
623,352	0,43
623,796	0,43
624,24	0,43
624,684	0,43
625,128	0,43
625,572	0,43
626,016	0,43
626,461	0,43
626,905	0,43
627,349	0,43
627,793	0,43
628,236	0,43
628,68	0,43
629,124	0,42
629,568	0,42
630,012	0,42
630,456	0,42
630,9	0,42
631,343	0,42
631,787	0,42
632,231	0,42
632,674	0,42
633,118	0,42
633,562	0,42
634,005	0,42
634,449	0,42
634,892	0,42
635,336	0,42
635,779	0,42
636,223	0,42
636,666	0,42
637,109	0,42
637,553	0,42
637,996	0,42
638,439	0,42
638,883	0,42
639,326	0,42
639,769	0,42
640,212	0,42
640,655	0,42
641,099	0,41
641,542	0,41
641,985	0,41
642,428	0,41
642,871	0,41
643,314	0,41
643,757	0,41
644,2	0,41
644,643	0,41
645,085	0,41
645,528	0,41
645,971	0,41
646,414	0,41
646,857	0,41
647,299	0,41
647,742	0,41
648,185	0,41
648,627	0,41
649,07	0,41
649,513	0,41
649,955	0,41
650,398	0,41
650,84	0,41
651,283	0,41
651,725	0,41
652,168	0,41
652,61	0,41
653,052	0,41
653,495	0,41
653,937	0,32
654,379	0,26
654,821	0,27
655,264	0,27
655,706	0,27
656,148	0,27
656,59	0,27
657,032	0,27
657,474	0,27
657,916	0,27
658,358	0,26
658,8	0,32
659,242	0,4
659,684	0,41
660,126	0,4
660,568	0,4
661,01	0,4
661,452	0,4
661,894	0,4
662,335	0,4
662,777	0,4
663,219	0,4
663,661	0,4
664,102	0,4
664,544	0,4
664,985	0,4
665,427	0,4
665,869	0,4
666,31	0,4
666,752	0,4
667,193	0,4
667,634	0,4
668,076	0,4
668,517	0,4
668,959	0,4
669,4	0,4
669,841	0,4
670,282	0,4
670,724	0,4
671,165	0,4
671,606	0,4
672,047	0,4
672,488	0,4
672,929	0,4
673,37	0,4
673,811	0,4
674,252	0,4
674,693	0,4
675,134	0,39
675,575	0,39
676,016	0,39
676,457	0,39
676,898	0,39
677,339	0,39
677,78	0,39
678,22	0,39
678,661	0,39
679,102	0,39
679,542	0,39
679,983	0,39
680,424	0,39
680,864	0,39
681,305	0,39
681,745	0,39
682,186	0,39
682,626	0,39
683,067	0,39
683,507	0,39
683,948	0,39
684,388	0,39
684,828	0,39
685,269	0,39
685,709	0,39
686,149	0,39
686,589	0,39
687,029	0,39
687,47	0,38
687,91	0,38
688,35	0,38
688,79	0,38
689,23	0,38
689,67	0,38
690,11	0,38
690,55	0,38
690,99	0,38
691,43	0,38
691,87	0,38
692,31	0,38
692,749	0,38
693,189	0,38
693,629	0,38
694,069	0,38
694,508	0,38
694,948	0,38
695,388	0,38
695,827	0,38
696,267	0,38
696,706	0,38
697,146	0,38
697,586	0,38
698,025	0,38
698,464	0,38
698,904	0,38
699,343	0,38
699,783	0,38
700,222	0,39
700,661	0,39
701,101	0,39
701,54	0,39
701,979	0,39
702,418	0,39
702,857	0,39
703,297	0,39
703,736	0,39
704,175	0,39
704,614	0,39
705,053	0,38
705,492	0,38
705,931	0,38
706,37	0,38
706,809	0,38
707,248	0,38
707,687	0,38
708,125	0,38
708,564	0,38
709,003	0,38
709,442	0,38
709,88	0,38
710,319	0,38
710,758	0,38
711,196	0,38
711,635	0,37
712,074	0,37
712,512	0,37
712,951	0,37
713,389	0,37
713,828	0,37
714,266	0,37
714,705	0,37
715,143	0,37
715,581	0,37
716,02	0,37
716,458	0,37
716,896	0,37
717,334	0,37
717,773	0,37
718,211	0,37
718,649	0,37
719,087	0,37
719,525	0,37
719,963	0,37
720,401	0,37
720,839	0,37
721,277	0,37
721,715	0,37
722,153	0,37
722,591	0,37
723,029	0,37
723,467	0,37
723,905	0,37
724,342	0,37
724,78	0,37
725,218	0,37
725,656	0,37
726,093	0,37
726,531	0,37
726,969	0,37
727,406	0,37
727,844	0,37
728,281	0,37
728,719	0,37
729,156	0,37
729,594	0,37
730,031	0,37
730,469	0,37
730,906	0,37
731,343	0,37
731,781	0,37
732,218	0,37
732,655	0,37
733,092	0,36
733,53	0,36
733,967	0,36
734,404	0,36
734,841	0,36
735,278	0,36
735,715	0,36
736,152	0,36
736,589	0,36
737,026	0,36
737,463	0,36
737,9	0,36
738,337	0,36
738,774	0,36
739,211	0,36
739,647	0,36
740,084	0,36
740,521	0,36
740,958	0,36
741,394	0,36
741,831	0,36
742,268	0,35
742,704	0,35
743,141	0,35
743,577	0,35
744,014	0,35
744,45	0,35
744,887	0,35
745,323	0,35
745,76	0,35
746,196	0,35
746,632	0,35
747,069	0,34
747,505	0,34
747,941	0,34
748,378	0,35
748,814	0,35
749,25	0,35
749,686	0,35
750,122	0,35
750,558	0,35
750,994	0,35
751,43	0,35
751,866	0,36
752,302	0,36
752,738	0,36
753,174	0,36
753,61	0,36
754,046	0,36
754,482	0,36
754,918	0,36
755,354	0,36
755,789	0,36
756,225	0,36
756,661	0,36
757,096	0,36
757,532	0,35
757,968	0,35
758,403	0,35
758,839	0,35
759,274	0,35
759,71	0,34
760,145	0,34
760,581	0,33
761,016	0,33
761,452	0,32
761,887	0,32
762,322	0,32
762,758	0,31
763,193	0,31
763,628	0,3
764,063	0,3
764,499	0,29
764,934	0,29
765,369	0,28
765,804	0,28
766,239	0,27
766,674	0,27
767,109	0,26
767,544	0,25
767,979	0,25
768,414	0,24
768,849	0,23
769,284	0,22
769,719	0,21
770,154	0,2
770,588	0,2
771,023	0,18
771,458	0,17
771,893	0,16
772,327	0,15
772,762	0,14
773,197	0,13
773,631	0,13
774,066	0,12
774,5	0,12
774,935	0,1
775,369	0,1
775,804	0,09
776,238	0,08
776,673	0,07
777,107	0,06
777,541	0,06
777,976	0,05
778,41	0,04
778,844	0,03
779,279	0,03
779,713	0,02
780,147	0,01
780,581	0,01
781,015	-0
781,449	-0,01
781,883	-0,02
782,317	-0,04
782,751	-0,04
783,185	-0,05
783,619	-0,06
784,053	-0,07
784,487	-0,08
784,921	-0,09
785,355	-0,09
785,789	-0,09
786,223	-0,1
786,656	-0,11
787,09	-0,12
787,524	-0,13
787,957	-0,15
788,391	-0,16
788,825	-0,18
789,258	-0,19
789,692	-0,21
790,125	-0,23
790,559	-0,24
790,992	-0,26
791,426	-0,28
791,859	-0,29
792,293	-0,32
792,726	-0,34
793,159	-0,36
793,593	-0,38
794,026	-0,4
794,459	-0,43
794,892	-0,45
795,326	-0,48
795,759	-0,52
796,192	-0,56
796,625	-0,61
797,058	-0,63
797,491	-0,67
797,924	-0,71
798,357	-0,76
798,79	-0,8
799,223	-0,84
799,656	-0,9
800,089	-0,95
800,522	-0,99
800,955	-1,04
801,387	-1,09
801,82	-1,15
802,253	-1,21
802,686	-1,29
803,118	-1,35
803,551	-1,4
803,984	-1,44
804,416	-1,48
804,849	-1,51
805,281	-1,61
805,714	-1,95
806,146	-2,42
806,579	-2,69
807,011	-2,86
807,444	-2,96
807,876	-3,05
808,308	-3,08
808,741	-3,11
809,173	-3,16
809,605	-3,18
810,037	-3,26
810,47	-3,18
810,902	-2,99
811,334	-2,84
811,766	-2,69
812,198	-2,46
812,63	-2,03
813,062	-1,8
813,494	-1,7
813,926	-1,62
814,358	-1,56
814,79	-1,48
815,222	-1,42
815,654	-1,37
816,086	-1,31
816,518	-1,25
816,949	-1,2
817,381	-1,15
817,813	-1,13
818,245	-1,09
818,676	-1,05
819,108	-1,02
819,54	-1
819,971	-0,98
820,403	-0,93
820,834	-0,91
821,266	-0,87
821,697	-0,84
822,129	-0,83
822,56	-0,8
822,991	-0,78
823,423	-0,75
823,854	-0,75
824,286	-0,72
824,717	-0,71
825,148	-0,69
825,579	-0,68
826,01	-0,67
826,442	-0,66
826,873	-0,64
827,304	-0,6
827,735	-0,6
828,166	-0,6
828,597	-0,6
829,028	-0,59
829,459	-0,59
829,89	-0,6
830,321	-0,55
830,752	-0,56
831,183	-0,54
831,613	-0,54
832,044	-0,54
832,475	-0,53
832,906	-0,55
833,336	-0,55
833,767	-0,56
834,198	-0,54
834,628	-0,52
835,059	-0,55
835,49	-0,56
835,92	-0,54
836,351	-0,54
836,781	-0,53
837,212	-0,55
837,642	-0,54
838,072	-0,52
838,503	-0,52
838,933	-0,5
839,364	-0,51
839,794	-0,49
840,224	-0,48
840,654	-0,52
841,085	-0,53
841,515	-0,5
841,945	-0,5
842,375	-0,47
842,805	-0,46
843,235	-0,45
843,665	-0,47
844,095	-0,45
844,525	-0,46
844,955	-0,48
845,385	-0,45
845,815	-0,43
846,245	-0,45
846,675	-0,46
847,105	-0,48
847,534	-0,48
847,964	-0,46
848,394	-0,44
848,824	-0,47
849,253	-0,47
849,683	-0,47
850,112	-0,49
850,542	-0,51
850,972	-0,52
851,401	-0,49
851,831	-0,46
852,26	-0,47
852,69	-0,51
853,119	-0,51
853,548	-0,51
853,978	-0,51
854,407	-0,49
854,836	-0,49
855,266	-0,48
855,695	-0,5
856,124	-0,52
856,553	-0,53
856,983	-0,55
857,412	-0,55
857,841	-0,56
858,27	-0,56
858,699	-0,56
859,128	-0,59
859,557	-0,61
859,986	-0,62
860,415	-0,59
860,844	-0,57
861,273	-0,56
861,702	-0,57
862,13	-0,55
862,559	-0,56
862,988	-0,54
863,417	-0,54
863,845	-0,53
864,274	-0,54
864,703	-0,53
865,131	-0,53
865,56	-0,54
865,989	-0,57
866,417	-0,55
866,846	-0,55
867,274	-0,54
867,703	-0,56
868,131	-0,56
868,559	-0,56
868,988	-0,58
869,416	-0,58
869,844	-0,59
870,273	-0,61
870,701	-0,59
871,129	-0,62
871,557	-0,65
871,986	-0,65
872,414	-0,67
872,842	-0,64
873,27	-0,62
873,698	-0,58
874,126	-0,62
874,554	-0,61
874,982	-0,6
875,41	-0,64
875,838	-0,59
876,266	-0,57
876,694	-0,57
877,122	-0,55
877,549	-0,61
877,977	-0,58
878,405	-0,61
878,833	-0,58
879,26	-0,57
879,688	-0,57
880,116	-0,55
880,543	-0,53
880,971	-0,53
881,399	-0,55
881,826	-0,56
882,254	-0,54
882,681	-0,57
883,109	-0,53
883,536	-0,54
883,963	-0,56
884,391	-0,54
884,818	-0,52
885,245	-0,56
885,673	-0,57
886,1	-0,54
886,527	-0,53
886,954	-0,5
887,381	-0,52
887,809	-0,53
888,236	-0,54
888,663	-0,55
889,09	-0,59
889,517	-0,61
889,944	-0,61
890,371	-0,59
890,798	-0,6
891,225	-0,6
891,652	-0,64
892,078	-0,61
892,505	-0,64
892,932	-0,61
893,359	-0,61
893,786	-0,61
894,212	-0,58
894,639	-0,59
895,066	-0,61
895,492	-0,55
895,919	-0,55
896,346	-0,54
896,772	-0,54
897,199	-0,5
897,625	-0,53
898,052	-0,49
898,478	-0,47
898,904	-0,48
899,331	-0,49
899,757	-0,51
900,183	-0,54
900,61	-0,53
901,036	-0,53
901,462	-0,53
901,888	-0,54
902,315	-0,52
902,741	-0,58
903,167	-0,57
903,593	-0,6
904,019	-0,58
904,445	-0,55
904,871	-0,58
905,297	-0,6
905,723	-0,59
906,149	-0,58
906,575	-0,59
907,001	-0,59
907,427	-0,55
907,852	-0,55
908,278	-0,55
908,704	-0,54
909,13	-0,53
909,555	-0,52
909,981	-0,51
910,407	-0,51
910,832	-0,5
911,258	-0,5
911,684	-0,5
912,109	-0,5
912,535	-0,52
912,96	-0,48
913,386	-0,51
913,811	-0,51
914,236	-0,52
914,662	-0,5
915,087	-0,54
915,512	-0,54
915,938	-0,56
916,363	-0,55
916,788	-0,57
917,213	-0,54
917,639	-0,6
918,064	-0,57
918,489	-0,58
918,914	-0,59
919,339	-0,61
919,764	-0,58
920,189	-0,59
920,614	-0,61
921,039	-0,62
921,464	-0,57
921,889	-0,6
922,314	-0,6
922,738	-0,64
923,163	-0,65
923,588	-0,65
924,013	-0,64
924,437	-0,63
924,862	-0,64
925,287	-0,6
925,711	-0,61
926,136	-0,64
926,561	-0,62
926,985	-0,61
927,41	-0,58
927,834	-0,55
928,259	-0,52
928,683	-0,51
929,108	-0,48
929,532	-0,49
929,956	-0,48
930,381	-0,47
930,805	-0,45
931,229	-0,45
931,653	-0,43
932,078	-0,43
932,502	-0,44
932,926	-0,44
933,35	-0,44
933,774	-0,43
934,198	-0,42
934,622	-0,41
935,046	-0,42
935,47	-0,43
935,894	-0,42
936,318	-0,42
936,742	-0,42
937,166	-0,42
937,59	-0,42
938,014	-0,45
938,437	-0,45
938,861	-0,47
939,285	-0,48
939,709	-0,47
940,132	-0,47
940,556	-0,48
940,98	-0,48
941,403	-0,47
941,827	-0,47
942,25	-0,47
942,674	-0,46
943,097	-0,46
943,521	-0,45
943,944	-0,46
944,368	-0,45
944,791	-0,42
945,214	-0,44
945,638	-0,44
946,061	-0,48
946,484	-0,49
946,907	-0,48
947,331	-0,48
947,754	-0,52
948,177	-0,49
948,6	-0,5
949,023	-0,5
949,446	-0,51
949,869	-0,49
950,292	-0,5
950,715	-0,46
951,138	-0,45
951,561	-0,42
951,984	-0,42
952,407	-0,4
952,83	-0,39
953,252	-0,34
953,675	-0,34
954,098	-0,35
954,521	-0,34
954,943	-0,33
955,366	-0,34
955,789	-0,32
956,211	-0,35
956,634	-0,36
957,056	-0,34
957,479	-0,35
957,902	-0,38
958,324	-0,38
958,746	-0,36
959,169	-0,37
959,591	-0,37
960,014	-0,37
960,436	-0,37
960,858	-0,36
961,281	-0,36
961,703	-0,37
962,125	-0,37
962,547	-0,35
962,969	-0,36
963,391	-0,36
963,814	-0,37
964,236	-0,37
964,658	-0,34
965,08	-0,35
965,502	-0,35
965,924	-0,32
966,346	-0,32
966,768	-0,31
967,189	-0,33
967,611	-0,32
968,033	-0,32
968,455	-0,31
968,877	-0,31
969,298	-0,32
969,72	-0,32
970,142	-0,31
970,563	-0,31
970,985	-0,29
971,407	-0,28
971,828	-0,26
972,25	-0,25
972,671	-0,24
973,093	-0,24
973,514	-0,23
973,936	-0,22
974,357	-0,21
974,778	-0,21
975,2	-0,21
975,621	-0,2
976,042	-0,19
976,464	-0,18
976,885	-0,18
977,306	-0,17
977,727	-0,16
978,148	-0,15
978,57	-0,14
978,991	-0,13
979,412	-0,11
979,833	-0,1
980,254	-0,1
980,675	-0,1
981,096	-0,1
981,517	-0,08
981,937	-0,08
982,358	-0,06
982,779	-0,05
983,2	-0,05
983,621	-0,05
984,042	-0,03
984,462	-0,02
984,883	-0
985,304	0,01
985,724	0,02
986,145	0,04
986,565	0,05
986,986	0,06
987,407	0,07
987,827	0,08
988,248	0,1
988,668	0,11
989,088	0,12
989,509	0,13
989,929	0,14
990,35	0,14
990,77	0,15
991,19	0,16
991,61	0,17
992,031	0,18
992,451	0,19
992,871	0,2
993,291	0,2
993,711	0,21
994,131	0,22
994,551	0,22
994,971	0,23
995,391	0,24
995,811	0,24
996,231	0,24
996,651	0,25
997,071	0,25
997,491	0,26
997,911	0,26
998,331	0,27
998,75	0,28
999,17	0,28
999,59	0,28
1000,009	0,29
1000,429	0,29
1000,849	0,3
1001,268	0,3
1001,688	0,3
1002,107	0,31
1002,527	0,31
1002,946	0,31
1003,366	0,31
1003,785	0,32
1004,205	0,32
1004,624	0,32
1005,044	0,32
1005,463	0,33
1005,882	0,33
1006,301	0,33
1006,721	0,33
1007,14	0,33
1007,559	0,33
1007,978	0,33
1008,397	0,33
1008,816	0,33
1009,235	0,33
1009,655	0,33
1010,074	0,33
1010,492	0,33
1010,911	0,33
1011,33	0,33
1011,749	0,33
1012,168	0,33
1012,587	0,33
1013,006	0,32
1013,425	0,32
1013,843	0,32
1014,262	0,32
1014,681	0,32
1015,099	0,32
1015,518	0,32
1015,937	0,32
1016,355	0,32
1016,774	0,32
1017,192	0,32
1017,611	0,32
1018,029	0,32
1018,448	0,32
1018,866	0,32
1019,285	0,32
1019,703	0,32
1020,121	0,32
1020,54	0,32
1020,958	0,32
1021,376	0,32
1021,794	0,32
1022,213	0,32
1022,631	0,32
1023,049	0,32
1023,467	0,32
1023,885	0,32
1024,303	0,32
1024,721	0,32
1025,139	0,32
1025,557	0,32
1025,975	0,32
1026,393	0,32
1026,811	0,31
1027,229	0,31
1027,647	0,31
1028,065	0,31
1028,482	0,31
1028,9	0,31
1029,318	0,31
1029,735	0,31
1030,153	0,31
1030,571	0,31
1030,988	0,31
1031,406	0,31
1031,823	0,31
1032,241	0,31
1032,659	0,31
1033,076	0,31
1033,493	0,31
1033,911	0,31
1034,328	0,31
1034,746	0,31
1035,163	0,31
1035,58	0,31
1035,997	0,31
1036,415	0,31
1036,832	0,31
1037,249	0,31
1037,666	0,31
1038,083	0,31
1038,501	0,31
1038,918	0,31
1039,335	0,31
1039,752	0,31
1040,169	0,31
1040,586	0,31
1041,003	0,31
1041,419	0,31
1041,836	0,31
1042,253	0,31
1042,67	0,31
1043,087	0,31
1043,504	0,31
1043,92	0,31
1044,337	0,31
1044,754	0,31
1045,17	0,31
1045,587	0,31
1046,004	0,31
1046,42	0,31
1046,837	0,31
1047,253	0,31
1047,67	0,31
1048,086	0,31
1048,503	0,31
1048,919	0,31
1049,335	0,31
1049,752	0,31
1050,168	0,31
1050,584	0,31
1051,001	0,31
1051,417	0,31
1051,833	0,31
1052,249	0,31
1052,665	0,31
1053,081	0,31
1053,497	0,31
1053,914	0,31
1054,33	0,31
1054,746	0,31
1055,162	0,31
1055,578	0,31
1055,993	0,32
1056,409	0,32
1056,825	0,32
1057,241	0,32
1057,657	0,32
1058,073	0,32
1058,488	0,32
1058,904	0,32
1059,32	0,32
1059,736	0,32
1060,151	0,32
1060,567	0,32
1060,982	0,32
1061,398	0,32
1061,813	0,32
1062,229	0,32
1062,644	0,32
1063,06	0,32
1063,475	0,32
1063,891	0,31
1064,306	0,31
1064,721	0,31
1065,137	0,31
1065,552	0,31
1065,967	0,31
1066,382	0,31
1066,798	0,31
1067,213	0,31
1067,628	0,31
1068,043	0,31
1068,458	0,32
1068,873	0,32
1069,288	0,32
1069,703	0,32
1070,118	0,32
1070,533	0,32
1070,948	0,32
1071,363	0,32
1071,778	0,32
1072,193	0,32
1072,607	0,32
1073,022	0,32
1073,437	0,32
1073,852	0,32
1074,266	0,32
1074,681	0,32
1075,096	0,32
1075,51	0,32
1075,925	0,32
1076,339	0,32
1076,754	0,31
1077,168	0,31
1077,583	0,31
1077,997	0,31
1078,412	0,31
1078,826	0,31
1079,24	0,31
1079,655	0,31
1080,069	0,31
1080,483	0,31
1080,897	0,31
1081,312	0,31
1081,726	0,31
1082,14	0,31
1082,554	0,31
1082,968	0,31
1083,382	0,31
1083,796	0,3
1084,21	0,3
1084,624	0,3
1085,038	0,3
1085,452	0,3
1085,866	0,3
1086,28	0,3
1086,694	0,3
1087,108	0,3
1087,521	0,3
1087,935	0,29
1088,349	0,29
1088,763	0,29
1089,176	0,29
1089,59	0,29
1090,004	0,28
1090,417	0,28
1090,831	0,28
1091,244	0,27
1091,658	0,27
1092,071	0,27
1092,485	0,27
1092,898	0,26
1093,312	0,26
1093,725	0,26
1094,138	0,26
1094,552	0,26
1094,965	0,26
1095,378	0,26
1095,791	0,26
1096,205	0,25
1096,618	0,25
1097,031	0,25
1097,444	0,25
1097,857	0,24
1098,27	0,24
1098,683	0,24
1099,096	0,24
1099,509	0,23
1099,922	0,23
1100,335	0,22
1100,748	0,22
1101,161	0,22
1101,574	0,21
1101,986	0,21
1102,399	0,21
1102,812	0,2
1103,225	0,2
1103,637	0,2
1104,05	0,2
1104,463	0,2
1104,875	0,2
1105,288	0,19
1105,7	0,18
1106,113	0,18
1106,525	0,18
1106,938	0,18
1107,35	0,17
1107,763	0,17
1108,175	0,17
1108,588	0,16
1109	0,16
1109,412	0,15
1109,824	0,16
1110,237	0,16
1110,649	0,16
1111,061	0,14
