Data from 18C-808nm-8A-cont_Absorbance__547__01976.txt Node

Date: Mon Jul 17 17:39:23 CEST 2023
User: Laser008
Spectrometer: MAYP115816
Trigger mode: 0
Integration Time (sec): 2,500000E-1
Scans to average: 10
Electric dark correction enabled: true
Nonlinearity correction enabled: true
Boxcar width: 5
XAxis mode: Wavelengths
Number of Pixels in Spectrum: 2068
>>>>>Begin Spectral Data<<<<<
198,914	-0,78
199,384	-0,54
199,855	-0,39
200,325	-0,3
200,796	-0,27
201,266	-0,22
201,737	-0,2
202,207	-0,19
202,677	-0,18
203,147	-0,17
203,618	-0,13
204,088	-0,11
204,558	-0,1
205,028	-0,1
205,498	-0,1
205,968	-0,1
206,439	-0,12
206,909	-0,11
207,379	-0,11
207,849	-0,11
208,319	-0,12
208,789	-0,13
209,258	-0,12
209,728	-0,14
210,198	-0,14
210,668	-0,13
211,138	-0,13
211,608	-0,13
212,077	-0,13
212,547	-0,13
213,017	-0,13
213,486	-0,13
213,956	-0,13
214,426	-0,14
214,895	-0,13
215,365	-0,14
215,834	-0,15
216,304	-0,16
216,773	-0,15
217,243	-0,17
217,712	-0,19
218,181	-0,19
218,651	-0,19
219,12	-0,19
219,589	-0,19
220,058	-0,17
220,528	-0,19
220,997	-0,19
221,466	-0,2
221,935	-0,21
222,404	-0,2
222,873	-0,18
223,342	-0,18
223,812	-0,18
224,281	-0,18
224,749	-0,19
225,218	-0,21
225,687	-0,21
226,156	-0,2
226,625	-0,19
227,094	-0,19
227,563	-0,19
228,031	-0,21
228,5	-0,21
228,969	-0,22
229,438	-0,21
229,906	-0,2
230,375	-0,2
230,844	-0,2
231,312	-0,2
231,781	-0,21
232,249	-0,2
232,718	-0,2
233,186	-0,18
233,655	-0,18
234,123	-0,17
234,591	-0,17
235,06	-0,17
235,528	-0,18
235,996	-0,17
236,465	-0,17
236,933	-0,16
237,401	-0,16
237,869	-0,15
238,337	-0,15
238,805	-0,14
239,274	-0,13
239,742	-0,13
240,21	-0,13
240,678	-0,12
241,146	-0,11
241,614	-0,12
242,081	-0,11
242,549	-0,1
243,017	-0,11
243,485	-0,12
243,953	-0,11
244,421	-0,11
244,888	-0,11
245,356	-0,11
245,824	-0,11
246,291	-0,11
246,759	-0,11
247,227	-0,11
247,694	-0,11
248,162	-0,11
248,629	-0,09
249,097	-0,1
249,564	-0,11
250,032	-0,12
250,499	-0,12
250,967	-0,13
251,434	-0,13
251,901	-0,13
252,369	-0,13
252,836	-0,14
253,303	-0,15
253,77	-0,16
254,237	-0,16
254,705	-0,16
255,172	-0,16
255,639	-0,16
256,106	-0,17
256,573	-0,18
257,04	-0,18
257,507	-0,18
257,974	-0,18
258,441	-0,16
258,908	-0,17
259,375	-0,19
259,841	-0,18
260,308	-0,19
260,775	-0,19
261,242	-0,18
261,709	-0,18
262,175	-0,2
262,642	-0,19
263,109	-0,19
263,575	-0,21
264,042	-0,19
264,508	-0,19
264,975	-0,2
265,441	-0,21
265,908	-0,23
266,374	-0,22
266,841	-0,23
267,307	-0,22
267,773	-0,21
268,24	-0,22
268,706	-0,22
269,172	-0,23
269,639	-0,24
270,105	-0,22
270,571	-0,22
271,037	-0,22
271,503	-0,23
271,969	-0,22
272,435	-0,22
272,902	-0,24
273,368	-0,25
273,834	-0,24
274,3	-0,25
274,765	-0,25
275,231	-0,25
275,697	-0,24
276,163	-0,24
276,629	-0,24
277,095	-0,26
277,56	-0,25
278,026	-0,26
278,492	-0,24
278,958	-0,24
279,423	-0,24
279,889	-0,23
280,354	-0,23
280,82	-0,23
281,286	-0,24
281,751	-0,25
282,217	-0,23
282,682	-0,23
283,147	-0,23
283,613	-0,23
284,078	-0,23
284,544	-0,24
285,009	-0,25
285,474	-0,24
285,939	-0,25
286,405	-0,24
286,87	-0,22
287,335	-0,23
287,8	-0,23
288,265	-0,21
288,73	-0,22
289,195	-0,25
289,66	-0,24
290,125	-0,23
290,59	-0,23
291,055	-0,21
291,52	-0,22
291,985	-0,23
292,45	-0,24
292,915	-0,24
293,38	-0,23
293,844	-0,22
294,309	-0,2
294,774	-0,18
295,239	-0,19
295,703	-0,2
296,168	-0,2
296,632	-0,19
297,097	-0,18
297,562	-0,17
298,026	-0,17
298,491	-0,17
298,955	-0,16
299,419	-0,16
299,884	-0,16
300,348	-0,16
300,813	-0,15
301,277	-0,15
301,741	-0,15
302,205	-0,15
302,67	-0,14
303,134	-0,14
303,598	-0,14
304,062	-0,14
304,526	-0,14
304,99	-0,15
305,454	-0,16
305,919	-0,15
306,383	-0,15
306,847	-0,15
307,31	-0,16
307,774	-0,17
308,238	-0,17
308,702	-0,16
309,166	-0,18
309,63	-0,17
310,094	-0,14
310,557	-0,13
311,021	-0,13
311,485	-0,13
311,948	-0,13
312,412	-0,12
312,876	-0,11
313,339	-0,12
313,803	-0,12
314,266	-0,12
314,73	-0,13
315,193	-0,13
315,657	-0,12
316,12	-0,13
316,584	-0,11
317,047	-0,11
317,51	-0,1
317,973	-0,1
318,437	-0,08
318,9	-0,07
319,363	-0,07
319,826	-0,06
320,29	-0,07
320,753	-0,08
321,216	-0,07
321,679	-0,07
322,142	-0,06
322,605	-0,08
323,068	-0,08
323,531	-0,09
323,994	-0,08
324,457	-0,07
324,92	-0,06
325,382	-0,05
325,845	-0,05
326,308	-0,04
326,771	-0,04
327,233	-0,03
327,696	-0,02
328,159	-0,01
328,622	0
329,084	-0
329,547	-0
330,009	0
330,472	0,01
330,934	0,01
331,397	0,01
331,859	0,02
332,322	0,02
332,784	0,03
333,246	0,04
333,709	0,04
334,171	0,05
334,633	0,05
335,096	0,04
335,558	0,05
336,02	0,05
336,482	0,05
336,944	0,06
337,406	0,07
337,868	0,07
338,331	0,08
338,793	0,1
339,255	0,1
339,717	0,1
340,178	0,12
340,64	0,12
341,102	0,14
341,564	0,15
342,026	0,16
342,488	0,17
342,949	0,19
343,411	0,21
343,873	0,23
344,335	0,26
344,796	0,31
345,258	0,35
345,719	0,39
346,181	0,44
346,643	0,48
347,104	0,51
347,566	0,55
348,027	0,58
348,488	0,6
348,95	0,62
349,411	0,65
349,873	0,67
350,334	0,69
350,795	0,71
351,256	0,72
351,718	0,73
352,179	0,74
352,64	0,74
353,101	0,74
353,562	0,75
354,023	0,75
354,484	0,75
354,945	0,76
355,406	0,76
355,867	0,76
356,328	0,76
356,789	0,77
357,25	0,78
357,711	0,78
358,172	0,78
358,633	0,78
359,093	0,78
359,554	0,78
360,015	0,78
360,476	0,78
360,936	0,79
361,397	0,79
361,858	0,78
362,318	0,78
362,779	0,78
363,239	0,79
363,7	0,79
364,16	0,79
364,621	0,79
365,081	0,79
365,541	0,79
366,002	0,79
366,462	0,79
366,922	0,78
367,383	0,78
367,843	0,78
368,303	0,78
368,763	0,79
369,223	0,79
369,684	0,79
370,144	0,79
370,604	0,79
371,064	0,79
371,524	0,79
371,984	0,79
372,444	0,79
372,904	0,78
373,363	0,78
373,823	0,78
374,283	0,78
374,743	0,78
375,203	0,78
375,663	0,78
376,122	0,78
376,582	0,78
377,042	0,78
377,501	0,78
377,961	0,78
378,42	0,78
378,88	0,78
379,34	0,78
379,799	0,78
380,259	0,78
380,718	0,78
381,177	0,78
381,637	0,78
382,096	0,78
382,555	0,78
383,015	0,77
383,474	0,77
383,933	0,77
384,393	0,77
384,852	0,77
385,311	0,77
385,77	0,77
386,229	0,77
386,688	0,77
387,147	0,77
387,606	0,77
388,065	0,77
388,524	0,77
388,983	0,77
389,442	0,77
389,901	0,77
390,36	0,77
390,819	0,77
391,277	0,77
391,736	0,77
392,195	0,77
392,654	0,77
393,112	0,77
393,571	0,77
394,03	0,76
394,488	0,76
394,947	0,76
395,405	0,76
395,864	0,76
396,322	0,76
396,781	0,76
397,239	0,76
397,698	0,76
398,156	0,76
398,614	0,76
399,073	0,76
399,531	0,76
399,989	0,76
400,447	0,76
400,905	0,76
401,364	0,76
401,822	0,76
402,28	0,76
402,738	0,76
403,196	0,76
403,654	0,76
404,112	0,76
404,57	0,76
405,028	0,76
405,486	0,76
405,944	0,75
406,402	0,75
406,859	0,75
407,317	0,75
407,775	0,75
408,233	0,75
408,691	0,75
409,148	0,75
409,606	0,75
410,064	0,75
410,521	0,75
410,979	0,75
411,436	0,75
411,894	0,75
412,351	0,75
412,809	0,75
413,266	0,75
413,724	0,75
414,181	0,75
414,638	0,75
415,096	0,75
415,553	0,75
416,01	0,75
416,467	0,75
416,925	0,75
417,382	0,75
417,839	0,75
418,296	0,75
418,753	0,75
419,21	0,75
419,667	0,75
420,124	0,75
420,581	0,75
421,038	0,75
421,495	0,75
421,952	0,75
422,409	0,75
422,866	0,75
423,322	0,75
423,779	0,75
424,236	0,75
424,693	0,75
425,149	0,75
425,606	0,75
426,063	0,75
426,519	0,75
426,976	0,75
427,433	0,75
427,889	0,75
428,346	0,75
428,802	0,75
429,258	0,75
429,715	0,75
430,171	0,75
430,628	0,74
431,084	0,74
431,54	0,74
431,997	0,74
432,453	0,74
432,909	0,74
433,365	0,74
433,821	0,74
434,277	0,74
434,734	0,74
435,19	0,74
435,646	0,74
436,102	0,74
436,558	0,74
437,014	0,74
437,47	0,74
437,925	0,74
438,381	0,74
438,837	0,74
439,293	0,74
439,749	0,74
440,205	0,74
440,66	0,74
441,116	0,74
441,572	0,74
442,027	0,74
442,483	0,74
442,939	0,74
443,394	0,74
443,85	0,74
444,305	0,74
444,761	0,74
445,216	0,74
445,672	0,75
446,127	0,75
446,582	0,75
447,038	0,75
447,493	0,75
447,948	0,75
448,403	0,75
448,859	0,75
449,314	0,75
449,769	0,75
450,224	0,75
450,679	0,75
451,134	0,75
451,589	0,75
452,044	0,75
452,499	0,75
452,954	0,75
453,409	0,75
453,864	0,75
454,319	0,75
454,774	0,75
455,229	0,75
455,684	0,75
456,138	0,75
456,593	0,75
457,048	0,75
457,503	0,75
457,957	0,75
458,412	0,75
458,866	0,75
459,321	0,75
459,776	0,75
460,23	0,76
460,685	0,76
461,139	0,76
461,593	0,76
462,048	0,76
462,502	0,76
462,957	0,76
463,411	0,76
463,865	0,76
464,319	0,76
464,774	0,76
465,228	0,77
465,682	0,77
466,136	0,77
466,59	0,77
467,044	0,77
467,499	0,77
467,953	0,77
468,407	0,77
468,861	0,77
469,315	0,77
469,768	0,77
470,222	0,78
470,676	0,78
471,13	0,78
471,584	0,78
472,038	0,78
472,491	0,78
472,945	0,78
473,399	0,78
473,852	0,78
474,306	0,78
474,76	0,79
475,213	0,79
475,667	0,79
476,12	0,79
476,574	0,79
477,027	0,79
477,481	0,79
477,934	0,8
478,388	0,8
478,841	0,8
479,294	0,8
479,748	0,81
480,201	0,81
480,654	0,81
481,107	0,81
481,561	0,81
482,014	0,81
482,467	0,82
482,92	0,82
483,373	0,82
483,826	0,82
484,279	0,82
484,732	0,83
485,185	0,83
485,638	0,83
486,091	0,83
486,544	0,84
486,997	0,84
487,449	0,84
487,902	0,84
488,355	0,85
488,808	0,85
489,26	0,85
489,713	0,85
490,166	0,86
490,618	0,86
491,071	0,86
491,523	0,87
491,976	0,87
492,429	0,87
492,881	0,88
493,333	0,88
493,786	0,88
494,238	0,89
494,691	0,89
495,143	0,89
495,595	0,9
496,048	0,9
496,5	0,91
496,952	0,91
497,404	0,91
497,856	0,92
498,309	0,92
498,761	0,93
499,213	0,93
499,665	0,94
500,117	0,94
500,569	0,94
501,021	0,95
501,473	0,95
501,925	0,96
502,377	0,96
502,828	0,97
503,28	0,97
503,732	0,98
504,184	0,98
504,636	0,98
505,087	0,99
505,539	0,99
505,991	1
506,442	1
506,894	1
507,345	1,01
507,797	1,01
508,249	1,02
508,7	1,02
509,151	1,03
509,603	1,03
510,054	1,04
510,506	1,04
510,957	1,05
511,408	1,05
511,86	1,05
512,311	1,06
512,762	1,06
513,213	1,06
513,665	1,07
514,116	1,07
514,567	1,07
515,018	1,08
515,469	1,08
515,92	1,09
516,371	1,09
516,822	1,09
517,273	1,1
517,724	1,1
518,175	1,1
518,626	1,11
519,076	1,11
519,527	1,11
519,978	1,11
520,429	1,12
520,88	1,12
521,33	1,12
521,781	1,12
522,232	1,12
522,682	1,12
523,133	1,13
523,583	1,13
524,034	1,13
524,484	1,13
524,935	1,13
525,385	1,13
525,836	1,13
526,286	1,13
526,736	1,13
527,187	1,13
527,637	1,13
528,087	1,13
528,538	1,13
528,988	1,13
529,438	1,13
529,888	1,13
530,338	1,13
530,788	1,12
531,238	1,12
531,688	1,12
532,139	1,12
532,589	1,12
533,038	1,12
533,488	1,12
533,938	1,11
534,388	1,11
534,838	1,11
535,288	1,1
535,738	1,1
536,187	1,1
536,637	1,09
537,087	1,09
537,537	1,08
537,986	1,08
538,436	1,07
538,885	1,07
539,335	1,06
539,785	1,06
540,234	1,05
540,684	1,05
541,133	1,04
541,582	1,04
542,032	1,03
542,481	1,03
542,931	1,02
543,38	1,01
543,829	1,01
544,278	1
544,728	1
545,177	0,99
545,626	0,99
546,075	0,98
546,524	0,98
546,973	0,97
547,422	0,97
547,871	0,96
548,32	0,96
548,769	0,96
549,218	0,95
549,667	0,95
550,116	0,94
550,565	0,94
551,014	0,93
551,463	0,93
551,911	0,92
552,36	0,92
552,809	0,91
553,258	0,9
553,706	0,9
554,155	0,89
554,603	0,89
555,052	0,88
555,501	0,88
555,949	0,87
556,398	0,87
556,846	0,86
557,294	0,86
557,743	0,85
558,191	0,85
558,64	0,84
559,088	0,83
559,536	0,83
559,985	0,82
560,433	0,82
560,881	0,81
561,329	0,81
561,777	0,8
562,225	0,8
562,674	0,79
563,122	0,79
563,57	0,78
564,018	0,78
564,466	0,77
564,914	0,77
565,362	0,76
565,809	0,76
566,257	0,75
566,705	0,75
567,153	0,74
567,601	0,74
568,048	0,73
568,496	0,73
568,944	0,72
569,392	0,72
569,839	0,72
570,287	0,71
570,734	0,71
571,182	0,7
571,63	0,7
572,077	0,7
572,525	0,69
572,972	0,69
573,419	0,68
573,867	0,68
574,314	0,68
574,761	0,67
575,209	0,67
575,656	0,66
576,103	0,66
576,551	0,66
576,998	0,65
577,445	0,65
577,892	0,65
578,339	0,64
578,786	0,64
579,233	0,63
579,68	0,63
580,127	0,63
580,574	0,62
581,021	0,62
581,468	0,62
581,915	0,61
582,362	0,61
582,809	0,61
583,255	0,61
583,702	0,6
584,149	0,6
584,596	0,6
585,042	0,59
585,489	0,59
585,936	0,59
586,382	0,59
586,829	0,59
587,275	0,58
587,722	0,58
588,168	0,58
588,615	0,57
589,061	0,57
589,508	0,57
589,954	0,57
590,4	0,57
590,847	0,56
591,293	0,56
591,739	0,56
592,185	0,56
592,632	0,56
593,078	0,55
593,524	0,55
593,97	0,55
594,416	0,55
594,862	0,55
595,308	0,55
595,754	0,54
596,2	0,54
596,646	0,54
597,092	0,54
597,538	0,53
597,984	0,53
598,43	0,53
598,876	0,53
599,321	0,53
599,767	0,53
600,213	0,52
600,659	0,52
601,104	0,52
601,55	0,52
601,995	0,52
602,441	0,52
602,887	0,51
603,332	0,51
603,778	0,51
604,223	0,51
604,668	0,51
605,114	0,51
605,559	0,51
606,005	0,51
606,45	0,5
606,895	0,5
607,341	0,5
607,786	0,5
608,231	0,5
608,676	0,49
609,121	0,49
609,566	0,48
610,012	0,48
610,457	0,47
610,902	0,47
611,347	0,47
611,792	0,47
612,237	0,46
612,682	0,46
613,127	0,46
613,571	0,46
614,016	0,46
614,461	0,47
614,906	0,47
615,351	0,47
615,795	0,47
616,24	0,47
616,685	0,47
617,129	0,47
617,574	0,47
618,019	0,47
618,463	0,47
618,908	0,47
619,352	0,47
619,797	0,47
620,241	0,47
620,686	0,47
621,13	0,46
621,574	0,46
622,019	0,46
622,463	0,46
622,907	0,46
623,352	0,46
623,796	0,46
624,24	0,46
624,684	0,45
625,128	0,45
625,572	0,45
626,016	0,45
626,461	0,45
626,905	0,45
627,349	0,45
627,793	0,45
628,236	0,45
628,68	0,45
629,124	0,45
629,568	0,45
630,012	0,45
630,456	0,45
630,9	0,45
631,343	0,45
631,787	0,45
632,231	0,45
632,674	0,45
633,118	0,45
633,562	0,45
634,005	0,44
634,449	0,44
634,892	0,44
635,336	0,44
635,779	0,44
636,223	0,44
636,666	0,44
637,109	0,44
637,553	0,44
637,996	0,44
638,439	0,44
638,883	0,44
639,326	0,44
639,769	0,44
640,212	0,44
640,655	0,44
641,099	0,43
641,542	0,43
641,985	0,43
642,428	0,43
642,871	0,43
643,314	0,43
643,757	0,43
644,2	0,43
644,643	0,43
645,085	0,43
645,528	0,43
645,971	0,43
646,414	0,43
646,857	0,43
647,299	0,43
647,742	0,42
648,185	0,42
648,627	0,42
649,07	0,42
649,513	0,42
649,955	0,42
650,398	0,42
650,84	0,42
651,283	0,42
651,725	0,42
652,168	0,42
652,61	0,42
653,052	0,42
653,495	0,42
653,937	0,34
654,379	0,28
654,821	0,29
655,264	0,29
655,706	0,29
656,148	0,29
656,59	0,29
657,032	0,29
657,474	0,29
657,916	0,28
658,358	0,28
658,8	0,34
659,242	0,42
659,684	0,42
660,126	0,42
660,568	0,42
661,01	0,42
661,452	0,42
661,894	0,42
662,335	0,42
662,777	0,42
663,219	0,41
663,661	0,41
664,102	0,41
664,544	0,41
664,985	0,41
665,427	0,41
665,869	0,41
666,31	0,41
666,752	0,41
667,193	0,41
667,634	0,41
668,076	0,41
668,517	0,41
668,959	0,41
669,4	0,41
669,841	0,41
670,282	0,41
670,724	0,41
671,165	0,41
671,606	0,41
672,047	0,41
672,488	0,41
672,929	0,41
673,37	0,41
673,811	0,41
674,252	0,41
674,693	0,41
675,134	0,41
675,575	0,41
676,016	0,41
676,457	0,41
676,898	0,41
677,339	0,41
677,78	0,4
678,22	0,41
678,661	0,41
679,102	0,41
679,542	0,41
679,983	0,41
680,424	0,41
680,864	0,41
681,305	0,41
681,745	0,41
682,186	0,41
682,626	0,41
683,067	0,41
683,507	0,41
683,948	0,41
684,388	0,41
684,828	0,41
685,269	0,41
685,709	0,4
686,149	0,4
686,589	0,4
687,029	0,4
687,47	0,4
687,91	0,4
688,35	0,4
688,79	0,4
689,23	0,4
689,67	0,4
690,11	0,4
690,55	0,4
690,99	0,39
691,43	0,39
691,87	0,39
692,31	0,39
692,749	0,39
693,189	0,39
693,629	0,39
694,069	0,39
694,508	0,39
694,948	0,39
695,388	0,39
695,827	0,39
696,267	0,39
696,706	0,39
697,146	0,39
697,586	0,39
698,025	0,39
698,464	0,39
698,904	0,39
699,343	0,39
699,783	0,39
700,222	0,39
700,661	0,39
701,101	0,39
701,54	0,39
701,979	0,39
702,418	0,39
702,857	0,39
703,297	0,39
703,736	0,39
704,175	0,39
704,614	0,39
705,053	0,39
705,492	0,39
705,931	0,39
706,37	0,39
706,809	0,39
707,248	0,39
707,687	0,39
708,125	0,39
708,564	0,39
709,003	0,39
709,442	0,39
709,88	0,39
710,319	0,39
710,758	0,39
711,196	0,39
711,635	0,39
712,074	0,39
712,512	0,39
712,951	0,39
713,389	0,38
713,828	0,38
714,266	0,38
714,705	0,38
715,143	0,38
715,581	0,38
716,02	0,38
716,458	0,38
716,896	0,38
717,334	0,38
717,773	0,38
718,211	0,38
718,649	0,38
719,087	0,38
719,525	0,38
719,963	0,38
720,401	0,38
720,839	0,38
721,277	0,38
721,715	0,38
722,153	0,38
722,591	0,38
723,029	0,38
723,467	0,38
723,905	0,38
724,342	0,38
724,78	0,38
725,218	0,38
725,656	0,38
726,093	0,38
726,531	0,38
726,969	0,38
727,406	0,38
727,844	0,38
728,281	0,38
728,719	0,38
729,156	0,38
729,594	0,38
730,031	0,38
730,469	0,38
730,906	0,38
731,343	0,38
731,781	0,38
732,218	0,38
732,655	0,38
733,092	0,37
733,53	0,37
733,967	0,37
734,404	0,37
734,841	0,37
735,278	0,37
735,715	0,37
736,152	0,37
736,589	0,37
737,026	0,37
737,463	0,37
737,9	0,37
738,337	0,37
738,774	0,37
739,211	0,37
739,647	0,37
740,084	0,37
740,521	0,37
740,958	0,38
741,394	0,38
741,831	0,38
742,268	0,38
742,704	0,38
743,141	0,38
743,577	0,38
744,014	0,37
744,45	0,37
744,887	0,37
745,323	0,37
745,76	0,37
746,196	0,37
746,632	0,37
747,069	0,37
747,505	0,37
747,941	0,37
748,378	0,37
748,814	0,37
749,25	0,37
749,686	0,37
750,122	0,37
750,558	0,37
750,994	0,37
751,43	0,37
751,866	0,38
752,302	0,38
752,738	0,38
753,174	0,38
753,61	0,38
754,046	0,38
754,482	0,38
754,918	0,38
755,354	0,38
755,789	0,37
756,225	0,37
756,661	0,37
757,096	0,37
757,532	0,37
757,968	0,37
758,403	0,37
758,839	0,37
759,274	0,36
759,71	0,36
760,145	0,36
760,581	0,35
761,016	0,35
761,452	0,34
761,887	0,34
762,322	0,34
762,758	0,33
763,193	0,33
763,628	0,32
764,063	0,31
764,499	0,31
764,934	0,3
765,369	0,3
765,804	0,29
766,239	0,28
766,674	0,28
767,109	0,27
767,544	0,26
767,979	0,25
768,414	0,24
768,849	0,23
769,284	0,23
769,719	0,22
770,154	0,21
770,588	0,2
771,023	0,19
771,458	0,18
771,893	0,17
772,327	0,16
772,762	0,16
773,197	0,15
773,631	0,14
774,066	0,14
774,5	0,13
774,935	0,11
775,369	0,1
775,804	0,09
776,238	0,08
776,673	0,07
777,107	0,06
777,541	0,05
777,976	0,04
778,41	0,03
778,844	0,02
779,279	0,01
779,713	0
780,147	-0
780,581	-0,01
781,015	-0,02
781,449	-0,02
781,883	-0,03
782,317	-0,04
782,751	-0,05
783,185	-0,06
783,619	-0,06
784,053	-0,07
784,487	-0,08
784,921	-0,09
785,355	-0,09
785,789	-0,1
786,223	-0,11
786,656	-0,12
787,09	-0,13
787,524	-0,14
787,957	-0,15
788,391	-0,17
788,825	-0,18
789,258	-0,2
789,692	-0,21
790,125	-0,23
790,559	-0,25
790,992	-0,27
791,426	-0,29
791,859	-0,3
792,293	-0,33
792,726	-0,34
793,159	-0,36
793,593	-0,38
794,026	-0,4
794,459	-0,42
794,892	-0,44
795,326	-0,47
795,759	-0,5
796,192	-0,55
796,625	-0,59
797,058	-0,61
797,491	-0,65
797,924	-0,69
798,357	-0,74
798,79	-0,78
799,223	-0,82
799,656	-0,87
800,089	-0,92
800,522	-0,96
800,955	-1
801,387	-1,06
801,82	-1,11
802,253	-1,17
802,686	-1,25
803,118	-1,3
803,551	-1,36
803,984	-1,4
804,416	-1,43
804,849	-1,46
805,281	-1,59
805,714	-1,96
806,146	-2,43
806,579	-2,7
807,011	-2,86
807,444	-2,96
807,876	-3,04
808,308	-3,07
808,741	-3,1
809,173	-3,15
809,605	-3,17
810,037	-3,25
810,47	-3,17
810,902	-2,97
811,334	-2,82
811,766	-2,65
812,198	-2,39
812,63	-1,96
813,062	-1,74
813,494	-1,65
813,926	-1,56
814,358	-1,51
814,79	-1,43
815,222	-1,37
815,654	-1,32
816,086	-1,26
816,518	-1,21
816,949	-1,16
817,381	-1,11
817,813	-1,1
818,245	-1,06
818,676	-1,02
819,108	-0,98
819,54	-0,97
819,971	-0,95
820,403	-0,9
820,834	-0,89
821,266	-0,85
821,697	-0,83
822,129	-0,82
822,56	-0,79
822,991	-0,77
823,423	-0,75
823,854	-0,74
824,286	-0,72
824,717	-0,71
825,148	-0,69
825,579	-0,69
826,01	-0,67
826,442	-0,67
826,873	-0,65
827,304	-0,61
827,735	-0,61
828,166	-0,62
828,597	-0,61
829,028	-0,61
829,459	-0,62
829,89	-0,62
830,321	-0,58
830,752	-0,59
831,183	-0,57
831,613	-0,57
832,044	-0,57
832,475	-0,56
832,906	-0,58
833,336	-0,58
833,767	-0,59
834,198	-0,58
834,628	-0,56
835,059	-0,59
835,49	-0,59
835,92	-0,56
836,351	-0,56
836,781	-0,56
837,212	-0,57
837,642	-0,58
838,072	-0,56
838,503	-0,56
838,933	-0,54
839,364	-0,55
839,794	-0,53
840,224	-0,52
840,654	-0,56
841,085	-0,57
841,515	-0,54
841,945	-0,55
842,375	-0,49
842,805	-0,48
843,235	-0,47
843,665	-0,48
844,095	-0,46
844,525	-0,49
844,955	-0,5
845,385	-0,47
845,815	-0,46
846,245	-0,48
846,675	-0,48
847,105	-0,5
847,534	-0,51
847,964	-0,49
848,394	-0,47
848,824	-0,5
849,253	-0,48
849,683	-0,49
850,112	-0,49
850,542	-0,52
850,972	-0,53
851,401	-0,51
851,831	-0,49
852,26	-0,49
852,69	-0,53
853,119	-0,52
853,548	-0,53
853,978	-0,54
854,407	-0,51
854,836	-0,51
855,266	-0,51
855,695	-0,52
856,124	-0,54
856,553	-0,55
856,983	-0,57
857,412	-0,57
857,841	-0,57
858,27	-0,58
858,699	-0,58
859,128	-0,63
859,557	-0,63
859,986	-0,64
860,415	-0,62
860,844	-0,59
861,273	-0,6
861,702	-0,6
862,13	-0,58
862,559	-0,61
862,988	-0,58
863,417	-0,57
863,845	-0,56
864,274	-0,57
864,703	-0,56
865,131	-0,56
865,56	-0,57
865,989	-0,6
866,417	-0,59
866,846	-0,59
867,274	-0,58
867,703	-0,6
868,131	-0,62
868,559	-0,62
868,988	-0,64
869,416	-0,62
869,844	-0,63
870,273	-0,66
870,701	-0,64
871,129	-0,66
871,557	-0,69
871,986	-0,7
872,414	-0,72
872,842	-0,69
873,27	-0,67
873,698	-0,63
874,126	-0,67
874,554	-0,66
874,982	-0,65
875,41	-0,67
875,838	-0,63
876,266	-0,59
876,694	-0,59
877,122	-0,57
877,549	-0,62
877,977	-0,6
878,405	-0,64
878,833	-0,6
879,26	-0,58
879,688	-0,59
880,116	-0,56
880,543	-0,54
880,971	-0,54
881,399	-0,57
881,826	-0,58
882,254	-0,56
882,681	-0,59
883,109	-0,55
883,536	-0,56
883,963	-0,58
884,391	-0,56
884,818	-0,54
885,245	-0,59
885,673	-0,61
886,1	-0,58
886,527	-0,57
886,954	-0,54
887,381	-0,56
887,809	-0,57
888,236	-0,59
888,663	-0,6
889,09	-0,64
889,517	-0,67
889,944	-0,66
890,371	-0,65
890,798	-0,66
891,225	-0,65
891,652	-0,68
892,078	-0,65
892,505	-0,69
892,932	-0,64
893,359	-0,65
893,786	-0,64
894,212	-0,61
894,639	-0,63
895,066	-0,66
895,492	-0,6
895,919	-0,61
896,346	-0,61
896,772	-0,61
897,199	-0,58
897,625	-0,61
898,052	-0,58
898,478	-0,57
898,904	-0,58
899,331	-0,58
899,757	-0,59
900,183	-0,61
900,61	-0,59
901,036	-0,59
901,462	-0,59
901,888	-0,59
902,315	-0,58
902,741	-0,62
903,167	-0,61
903,593	-0,64
904,019	-0,62
904,445	-0,59
904,871	-0,62
905,297	-0,65
905,723	-0,63
906,149	-0,62
906,575	-0,63
907,001	-0,63
907,427	-0,6
907,852	-0,59
908,278	-0,59
908,704	-0,58
909,13	-0,57
909,555	-0,56
909,981	-0,55
910,407	-0,56
910,832	-0,55
911,258	-0,56
911,684	-0,55
912,109	-0,55
912,535	-0,57
912,96	-0,52
913,386	-0,56
913,811	-0,56
914,236	-0,58
914,662	-0,55
915,087	-0,59
915,512	-0,58
915,938	-0,6
916,363	-0,59
916,788	-0,6
917,213	-0,59
917,639	-0,64
918,064	-0,61
918,489	-0,62
918,914	-0,62
919,339	-0,64
919,764	-0,61
920,189	-0,62
920,614	-0,64
921,039	-0,65
921,464	-0,61
921,889	-0,64
922,314	-0,64
922,738	-0,67
923,163	-0,69
923,588	-0,68
924,013	-0,67
924,437	-0,67
924,862	-0,68
925,287	-0,63
925,711	-0,64
926,136	-0,65
926,561	-0,64
926,985	-0,63
927,41	-0,6
927,834	-0,57
928,259	-0,55
928,683	-0,53
929,108	-0,5
929,532	-0,51
929,956	-0,5
930,381	-0,5
930,805	-0,5
931,229	-0,49
931,653	-0,47
932,078	-0,47
932,502	-0,48
932,926	-0,49
933,35	-0,49
933,774	-0,49
934,198	-0,47
934,622	-0,46
935,046	-0,46
935,47	-0,46
935,894	-0,45
936,318	-0,45
936,742	-0,45
937,166	-0,47
937,59	-0,46
938,014	-0,48
938,437	-0,48
938,861	-0,5
939,285	-0,5
939,709	-0,5
940,132	-0,51
940,556	-0,53
940,98	-0,52
941,403	-0,51
941,827	-0,51
942,25	-0,52
942,674	-0,5
943,097	-0,5
943,521	-0,5
943,944	-0,52
944,368	-0,51
944,791	-0,5
945,214	-0,5
945,638	-0,51
946,061	-0,54
946,484	-0,54
946,907	-0,53
947,331	-0,53
947,754	-0,57
948,177	-0,54
948,6	-0,54
949,023	-0,53
949,446	-0,53
949,869	-0,51
950,292	-0,51
950,715	-0,47
951,138	-0,46
951,561	-0,44
951,984	-0,44
952,407	-0,43
952,83	-0,42
953,252	-0,37
953,675	-0,37
954,098	-0,38
954,521	-0,36
954,943	-0,36
955,366	-0,37
955,789	-0,35
956,211	-0,37
956,634	-0,37
957,056	-0,35
957,479	-0,37
957,902	-0,39
958,324	-0,39
958,746	-0,37
959,169	-0,38
959,591	-0,39
960,014	-0,4
960,436	-0,4
960,858	-0,4
961,281	-0,4
961,703	-0,41
962,125	-0,4
962,547	-0,38
962,969	-0,39
963,391	-0,4
963,814	-0,42
964,236	-0,41
964,658	-0,38
965,08	-0,39
965,502	-0,38
965,924	-0,35
966,346	-0,35
966,768	-0,34
967,189	-0,37
967,611	-0,36
968,033	-0,35
968,455	-0,32
968,877	-0,33
969,298	-0,33
969,72	-0,34
970,142	-0,33
970,563	-0,34
970,985	-0,33
971,407	-0,33
971,828	-0,31
972,25	-0,31
972,671	-0,3
973,093	-0,3
973,514	-0,29
973,936	-0,27
974,357	-0,26
974,778	-0,26
975,2	-0,25
975,621	-0,25
976,042	-0,22
976,464	-0,21
976,885	-0,19
977,306	-0,19
977,727	-0,18
978,148	-0,17
978,57	-0,16
978,991	-0,15
979,412	-0,13
979,833	-0,12
980,254	-0,12
980,675	-0,12
981,096	-0,11
981,517	-0,1
981,937	-0,1
982,358	-0,08
982,779	-0,06
983,2	-0,06
983,621	-0,05
984,042	-0,03
984,462	-0,02
984,883	-0
985,304	0,02
985,724	0,03
986,145	0,05
986,565	0,06
986,986	0,07
987,407	0,08
987,827	0,09
988,248	0,1
988,668	0,11
989,088	0,12
989,509	0,14
989,929	0,14
990,35	0,15
990,77	0,16
991,19	0,17
991,61	0,18
992,031	0,19
992,451	0,2
992,871	0,21
993,291	0,22
993,711	0,23
994,131	0,23
994,551	0,24
994,971	0,25
995,391	0,25
995,811	0,26
996,231	0,27
996,651	0,27
997,071	0,28
997,491	0,28
997,911	0,29
998,331	0,3
998,75	0,3
999,17	0,31
999,59	0,31
1000,009	0,32
1000,429	0,33
1000,849	0,33
1001,268	0,33
1001,688	0,34
1002,107	0,34
1002,527	0,34
1002,946	0,35
1003,366	0,35
1003,785	0,35
1004,205	0,36
1004,624	0,36
1005,044	0,36
1005,463	0,36
1005,882	0,37
1006,301	0,37
1006,721	0,37
1007,14	0,37
1007,559	0,37
1007,978	0,37
1008,397	0,37
1008,816	0,37
1009,235	0,37
1009,655	0,37
1010,074	0,37
1010,492	0,37
1010,911	0,37
1011,33	0,37
1011,749	0,37
1012,168	0,37
1012,587	0,36
1013,006	0,36
1013,425	0,36
1013,843	0,36
1014,262	0,36
1014,681	0,36
1015,099	0,36
1015,518	0,36
1015,937	0,36
1016,355	0,36
1016,774	0,36
1017,192	0,36
1017,611	0,36
1018,029	0,36
1018,448	0,36
1018,866	0,36
1019,285	0,36
1019,703	0,36
1020,121	0,36
1020,54	0,36
1020,958	0,36
1021,376	0,36
1021,794	0,36
1022,213	0,36
1022,631	0,36
1023,049	0,36
1023,467	0,36
1023,885	0,36
1024,303	0,36
1024,721	0,36
1025,139	0,36
1025,557	0,36
1025,975	0,36
1026,393	0,36
1026,811	0,35
1027,229	0,35
1027,647	0,35
1028,065	0,35
1028,482	0,35
1028,9	0,35
1029,318	0,35
1029,735	0,35
1030,153	0,35
1030,571	0,35
1030,988	0,35
1031,406	0,35
1031,823	0,35
1032,241	0,35
1032,659	0,35
1033,076	0,35
1033,493	0,35
1033,911	0,35
1034,328	0,35
1034,746	0,35
1035,163	0,35
1035,58	0,35
1035,997	0,35
1036,415	0,35
1036,832	0,36
1037,249	0,35
1037,666	0,35
1038,083	0,35
1038,501	0,35
1038,918	0,35
1039,335	0,35
1039,752	0,35
1040,169	0,35
1040,586	0,35
1041,003	0,35
1041,419	0,35
1041,836	0,35
1042,253	0,35
1042,67	0,35
1043,087	0,35
1043,504	0,35
1043,92	0,35
1044,337	0,35
1044,754	0,35
1045,17	0,35
1045,587	0,34
1046,004	0,34
1046,42	0,34
1046,837	0,34
1047,253	0,34
1047,67	0,34
1048,086	0,34
1048,503	0,34
1048,919	0,34
1049,335	0,34
1049,752	0,34
1050,168	0,34
1050,584	0,34
1051,001	0,34
1051,417	0,34
1051,833	0,34
1052,249	0,35
1052,665	0,35
1053,081	0,35
1053,497	0,35
1053,914	0,35
1054,33	0,35
1054,746	0,35
1055,162	0,35
1055,578	0,36
1055,993	0,36
1056,409	0,36
1056,825	0,36
1057,241	0,36
1057,657	0,36
1058,073	0,36
1058,488	0,36
1058,904	0,36
1059,32	0,36
1059,736	0,36
1060,151	0,36
1060,567	0,36
1060,982	0,36
1061,398	0,36
1061,813	0,36
1062,229	0,36
1062,644	0,36
1063,06	0,36
1063,475	0,36
1063,891	0,35
1064,306	0,35
1064,721	0,35
1065,137	0,35
1065,552	0,35
1065,967	0,35
1066,382	0,35
1066,798	0,35
1067,213	0,35
1067,628	0,35
1068,043	0,35
1068,458	0,35
1068,873	0,35
1069,288	0,35
1069,703	0,35
1070,118	0,35
1070,533	0,35
1070,948	0,35
1071,363	0,35
1071,778	0,35
1072,193	0,35
1072,607	0,36
1073,022	0,36
1073,437	0,36
1073,852	0,36
1074,266	0,36
1074,681	0,36
1075,096	0,36
1075,51	0,36
1075,925	0,36
1076,339	0,36
1076,754	0,36
1077,168	0,36
1077,583	0,35
1077,997	0,35
1078,412	0,35
1078,826	0,35
1079,24	0,35
1079,655	0,35
1080,069	0,35
1080,483	0,35
1080,897	0,35
1081,312	0,35
1081,726	0,35
1082,14	0,35
1082,554	0,35
1082,968	0,34
1083,382	0,34
1083,796	0,34
1084,21	0,34
1084,624	0,34
1085,038	0,34
1085,452	0,34
1085,866	0,34
1086,28	0,34
1086,694	0,33
1087,108	0,33
1087,521	0,33
1087,935	0,33
1088,349	0,33
1088,763	0,33
1089,176	0,33
1089,59	0,32
1090,004	0,32
1090,417	0,32
1090,831	0,31
1091,244	0,31
1091,658	0,31
1092,071	0,31
1092,485	0,31
1092,898	0,3
1093,312	0,3
1093,725	0,3
1094,138	0,3
1094,552	0,29
1094,965	0,29
1095,378	0,29
1095,791	0,28
1096,205	0,28
1096,618	0,28
1097,031	0,28
1097,444	0,27
1097,857	0,27
1098,27	0,27
1098,683	0,26
1099,096	0,26
1099,509	0,26
1099,922	0,25
1100,335	0,25
1100,748	0,24
1101,161	0,24
1101,574	0,24
1101,986	0,23
1102,399	0,23
1102,812	0,23
1103,225	0,23
1103,637	0,22
1104,05	0,22
1104,463	0,22
1104,875	0,22
1105,288	0,21
1105,7	0,21
1106,113	0,21
1106,525	0,21
1106,938	0,2
1107,35	0,2
1107,763	0,2
1108,175	0,2
1108,588	0,19
1109	0,18
1109,412	0,18
1109,824	0,19
1110,237	0,19
1110,649	0,18
1111,061	0,18
