Data from 18C-808nm-8A-cont_Absorbance__715__02144.txt Node

Date: Mon Jul 17 17:46:23 CEST 2023
User: Laser008
Spectrometer: MAYP115816
Trigger mode: 0
Integration Time (sec): 2,500000E-1
Scans to average: 10
Electric dark correction enabled: true
Nonlinearity correction enabled: true
Boxcar width: 5
XAxis mode: Wavelengths
Number of Pixels in Spectrum: 2068
>>>>>Begin Spectral Data<<<<<
198,914	-0,69
199,384	-0,49
199,855	-0,34
200,325	-0,27
200,796	-0,23
201,266	-0,18
201,737	-0,15
202,207	-0,14
202,677	-0,13
203,147	-0,11
203,618	-0,08
204,088	-0,07
204,558	-0,04
205,028	-0,03
205,498	-0,03
205,968	-0,04
206,439	-0,06
206,909	-0,05
207,379	-0,06
207,849	-0,06
208,319	-0,07
208,789	-0,08
209,258	-0,08
209,728	-0,1
210,198	-0,1
210,668	-0,1
211,138	-0,09
211,608	-0,09
212,077	-0,1
212,547	-0,09
213,017	-0,1
213,486	-0,09
213,956	-0,09
214,426	-0,1
214,895	-0,1
215,365	-0,11
215,834	-0,1
216,304	-0,11
216,773	-0,11
217,243	-0,12
217,712	-0,14
218,181	-0,14
218,651	-0,15
219,12	-0,15
219,589	-0,15
220,058	-0,13
220,528	-0,15
220,997	-0,15
221,466	-0,17
221,935	-0,18
222,404	-0,17
222,873	-0,16
223,342	-0,16
223,812	-0,16
224,281	-0,16
224,749	-0,15
225,218	-0,17
225,687	-0,17
226,156	-0,16
226,625	-0,14
227,094	-0,14
227,563	-0,14
228,031	-0,16
228,5	-0,16
228,969	-0,15
229,438	-0,15
229,906	-0,15
230,375	-0,14
230,844	-0,14
231,312	-0,14
231,781	-0,14
232,249	-0,13
232,718	-0,14
233,186	-0,12
233,655	-0,12
234,123	-0,12
234,591	-0,12
235,06	-0,12
235,528	-0,12
235,996	-0,11
236,465	-0,12
236,933	-0,11
237,401	-0,11
237,869	-0,1
238,337	-0,1
238,805	-0,09
239,274	-0,08
239,742	-0,07
240,21	-0,07
240,678	-0,06
241,146	-0,06
241,614	-0,07
242,081	-0,06
242,549	-0,06
243,017	-0,06
243,485	-0,06
243,953	-0,06
244,421	-0,06
244,888	-0,06
245,356	-0,07
245,824	-0,07
246,291	-0,07
246,759	-0,08
247,227	-0,08
247,694	-0,08
248,162	-0,07
248,629	-0,07
249,097	-0,07
249,564	-0,08
250,032	-0,09
250,499	-0,08
250,967	-0,09
251,434	-0,09
251,901	-0,07
252,369	-0,08
252,836	-0,09
253,303	-0,1
253,77	-0,12
254,237	-0,11
254,705	-0,12
255,172	-0,11
255,639	-0,12
256,106	-0,14
256,573	-0,14
257,04	-0,14
257,507	-0,15
257,974	-0,15
258,441	-0,13
258,908	-0,14
259,375	-0,15
259,841	-0,15
260,308	-0,16
260,775	-0,16
261,242	-0,14
261,709	-0,15
262,175	-0,16
262,642	-0,16
263,109	-0,15
263,575	-0,17
264,042	-0,15
264,508	-0,14
264,975	-0,16
265,441	-0,16
265,908	-0,17
266,374	-0,16
266,841	-0,17
267,307	-0,16
267,773	-0,16
268,24	-0,16
268,706	-0,16
269,172	-0,17
269,639	-0,18
270,105	-0,17
270,571	-0,17
271,037	-0,17
271,503	-0,19
271,969	-0,18
272,435	-0,18
272,902	-0,2
273,368	-0,21
273,834	-0,2
274,3	-0,21
274,765	-0,21
275,231	-0,21
275,697	-0,19
276,163	-0,19
276,629	-0,19
277,095	-0,19
277,56	-0,19
278,026	-0,19
278,492	-0,17
278,958	-0,17
279,423	-0,18
279,889	-0,17
280,354	-0,18
280,82	-0,18
281,286	-0,19
281,751	-0,2
282,217	-0,19
282,682	-0,19
283,147	-0,19
283,613	-0,19
284,078	-0,2
284,544	-0,21
285,009	-0,22
285,474	-0,21
285,939	-0,23
286,405	-0,22
286,87	-0,21
287,335	-0,21
287,8	-0,2
288,265	-0,19
288,73	-0,21
289,195	-0,22
289,66	-0,22
290,125	-0,21
290,59	-0,21
291,055	-0,2
291,52	-0,19
291,985	-0,2
292,45	-0,21
292,915	-0,22
293,38	-0,22
293,844	-0,19
294,309	-0,18
294,774	-0,17
295,239	-0,18
295,703	-0,19
296,168	-0,17
296,632	-0,17
297,097	-0,15
297,562	-0,13
298,026	-0,13
298,491	-0,13
298,955	-0,12
299,419	-0,12
299,884	-0,11
300,348	-0,1
300,813	-0,09
301,277	-0,09
301,741	-0,1
302,205	-0,1
302,67	-0,09
303,134	-0,1
303,598	-0,1
304,062	-0,09
304,526	-0,09
304,99	-0,11
305,454	-0,12
305,919	-0,11
306,383	-0,12
306,847	-0,11
307,31	-0,12
307,774	-0,14
308,238	-0,12
308,702	-0,12
309,166	-0,14
309,63	-0,13
310,094	-0,11
310,557	-0,1
311,021	-0,09
311,485	-0,09
311,948	-0,08
312,412	-0,07
312,876	-0,06
313,339	-0,07
313,803	-0,08
314,266	-0,07
314,73	-0,07
315,193	-0,08
315,657	-0,07
316,12	-0,07
316,584	-0,05
317,047	-0,06
317,51	-0,06
317,973	-0,05
318,437	-0,04
318,9	-0,02
319,363	-0,01
319,826	-0
320,29	-0
320,753	-0
321,216	-0,01
321,679	-0,01
322,142	-0
322,605	-0,01
323,068	-0,01
323,531	-0,02
323,994	-0,01
324,457	-0,02
324,92	-0,01
325,382	-0,01
325,845	-0,01
326,308	0
326,771	0
327,233	0
327,696	0,02
328,159	0,02
328,622	0,03
329,084	0,03
329,547	0,03
330,009	0,04
330,472	0,04
330,934	0,05
331,397	0,06
331,859	0,07
332,322	0,08
332,784	0,08
333,246	0,09
333,709	0,09
334,171	0,09
334,633	0,1
335,096	0,09
335,558	0,1
336,02	0,09
336,482	0,09
336,944	0,1
337,406	0,1
337,868	0,11
338,331	0,11
338,793	0,12
339,255	0,12
339,717	0,12
340,178	0,14
340,64	0,15
341,102	0,16
341,564	0,17
342,026	0,19
342,488	0,2
342,949	0,21
343,411	0,24
343,873	0,27
344,335	0,3
344,796	0,34
345,258	0,4
345,719	0,44
346,181	0,5
346,643	0,55
347,104	0,59
347,566	0,63
348,027	0,66
348,488	0,69
348,95	0,72
349,411	0,75
349,873	0,78
350,334	0,8
350,795	0,82
351,256	0,83
351,718	0,84
352,179	0,85
352,64	0,86
353,101	0,86
353,562	0,86
354,023	0,87
354,484	0,87
354,945	0,88
355,406	0,88
355,867	0,88
356,328	0,89
356,789	0,9
357,25	0,9
357,711	0,9
358,172	0,91
358,633	0,91
359,093	0,91
359,554	0,91
360,015	0,91
360,476	0,91
360,936	0,92
361,397	0,92
361,858	0,91
362,318	0,92
362,779	0,92
363,239	0,92
363,7	0,92
364,16	0,92
364,621	0,92
365,081	0,92
365,541	0,92
366,002	0,92
366,462	0,92
366,922	0,92
367,383	0,92
367,843	0,92
368,303	0,92
368,763	0,92
369,223	0,92
369,684	0,92
370,144	0,92
370,604	0,92
371,064	0,92
371,524	0,92
371,984	0,92
372,444	0,92
372,904	0,92
373,363	0,92
373,823	0,92
374,283	0,92
374,743	0,92
375,203	0,92
375,663	0,92
376,122	0,92
376,582	0,92
377,042	0,92
377,501	0,92
377,961	0,92
378,42	0,92
378,88	0,92
379,34	0,92
379,799	0,92
380,259	0,91
380,718	0,91
381,177	0,91
381,637	0,91
382,096	0,91
382,555	0,91
383,015	0,91
383,474	0,91
383,933	0,91
384,393	0,91
384,852	0,91
385,311	0,91
385,77	0,91
386,229	0,91
386,688	0,91
387,147	0,91
387,606	0,91
388,065	0,91
388,524	0,91
388,983	0,91
389,442	0,91
389,901	0,91
390,36	0,91
390,819	0,91
391,277	0,91
391,736	0,91
392,195	0,9
392,654	0,9
393,112	0,9
393,571	0,9
394,03	0,9
394,488	0,9
394,947	0,9
395,405	0,9
395,864	0,9
396,322	0,9
396,781	0,9
397,239	0,9
397,698	0,9
398,156	0,9
398,614	0,9
399,073	0,9
399,531	0,9
399,989	0,9
400,447	0,9
400,905	0,9
401,364	0,9
401,822	0,9
402,28	0,9
402,738	0,9
403,196	0,9
403,654	0,9
404,112	0,9
404,57	0,9
405,028	0,9
405,486	0,9
405,944	0,9
406,402	0,9
406,859	0,9
407,317	0,9
407,775	0,9
408,233	0,9
408,691	0,9
409,148	0,9
409,606	0,9
410,064	0,89
410,521	0,89
410,979	0,89
411,436	0,89
411,894	0,89
412,351	0,89
412,809	0,89
413,266	0,89
413,724	0,89
414,181	0,89
414,638	0,89
415,096	0,89
415,553	0,89
416,01	0,89
416,467	0,89
416,925	0,89
417,382	0,89
417,839	0,89
418,296	0,89
418,753	0,89
419,21	0,89
419,667	0,89
420,124	0,89
420,581	0,89
421,038	0,89
421,495	0,89
421,952	0,89
422,409	0,89
422,866	0,89
423,322	0,89
423,779	0,89
424,236	0,89
424,693	0,89
425,149	0,89
425,606	0,89
426,063	0,89
426,519	0,89
426,976	0,89
427,433	0,89
427,889	0,89
428,346	0,89
428,802	0,89
429,258	0,89
429,715	0,89
430,171	0,89
430,628	0,89
431,084	0,89
431,54	0,89
431,997	0,89
432,453	0,89
432,909	0,89
433,365	0,89
433,821	0,88
434,277	0,88
434,734	0,88
435,19	0,88
435,646	0,88
436,102	0,88
436,558	0,88
437,014	0,88
437,47	0,88
437,925	0,88
438,381	0,89
438,837	0,89
439,293	0,89
439,749	0,89
440,205	0,89
440,66	0,89
441,116	0,89
441,572	0,89
442,027	0,89
442,483	0,89
442,939	0,89
443,394	0,89
443,85	0,89
444,305	0,89
444,761	0,89
445,216	0,89
445,672	0,89
446,127	0,89
446,582	0,89
447,038	0,89
447,493	0,89
447,948	0,89
448,403	0,89
448,859	0,89
449,314	0,89
449,769	0,89
450,224	0,89
450,679	0,9
451,134	0,9
451,589	0,9
452,044	0,9
452,499	0,9
452,954	0,9
453,409	0,9
453,864	0,9
454,319	0,9
454,774	0,9
455,229	0,9
455,684	0,9
456,138	0,9
456,593	0,9
457,048	0,9
457,503	0,9
457,957	0,9
458,412	0,9
458,866	0,9
459,321	0,9
459,776	0,9
460,23	0,9
460,685	0,9
461,139	0,9
461,593	0,91
462,048	0,91
462,502	0,91
462,957	0,91
463,411	0,91
463,865	0,91
464,319	0,91
464,774	0,91
465,228	0,91
465,682	0,91
466,136	0,92
466,59	0,92
467,044	0,92
467,499	0,92
467,953	0,92
468,407	0,92
468,861	0,92
469,315	0,92
469,768	0,92
470,222	0,92
470,676	0,92
471,13	0,92
471,584	0,93
472,038	0,93
472,491	0,93
472,945	0,93
473,399	0,93
473,852	0,93
474,306	0,93
474,76	0,93
475,213	0,94
475,667	0,94
476,12	0,94
476,574	0,94
477,027	0,94
477,481	0,94
477,934	0,95
478,388	0,95
478,841	0,95
479,294	0,95
479,748	0,95
480,201	0,96
480,654	0,96
481,107	0,96
481,561	0,96
482,014	0,96
482,467	0,97
482,92	0,97
483,373	0,97
483,826	0,97
484,279	0,97
484,732	0,98
485,185	0,98
485,638	0,98
486,091	0,98
486,544	0,98
486,997	0,99
487,449	0,99
487,902	0,99
488,355	1
488,808	1
489,26	1
489,713	1
490,166	1,01
490,618	1,01
491,071	1,01
491,523	1,02
491,976	1,02
492,429	1,02
492,881	1,03
493,333	1,03
493,786	1,03
494,238	1,04
494,691	1,04
495,143	1,05
495,595	1,05
496,048	1,05
496,5	1,06
496,952	1,06
497,404	1,07
497,856	1,07
498,309	1,07
498,761	1,08
499,213	1,08
499,665	1,09
500,117	1,09
500,569	1,09
501,021	1,1
501,473	1,1
501,925	1,11
502,377	1,11
502,828	1,12
503,28	1,12
503,732	1,13
504,184	1,13
504,636	1,13
505,087	1,14
505,539	1,14
505,991	1,15
506,442	1,15
506,894	1,16
507,345	1,16
507,797	1,17
508,249	1,17
508,7	1,17
509,151	1,18
509,603	1,18
510,054	1,19
510,506	1,19
510,957	1,2
511,408	1,2
511,86	1,21
512,311	1,21
512,762	1,21
513,213	1,22
513,665	1,22
514,116	1,22
514,567	1,23
515,018	1,23
515,469	1,23
515,92	1,24
516,371	1,24
516,822	1,24
517,273	1,25
517,724	1,25
518,175	1,25
518,626	1,26
519,076	1,26
519,527	1,26
519,978	1,26
520,429	1,27
520,88	1,27
521,33	1,27
521,781	1,27
522,232	1,27
522,682	1,28
523,133	1,28
523,583	1,28
524,034	1,28
524,484	1,28
524,935	1,28
525,385	1,28
525,836	1,28
526,286	1,28
526,736	1,28
527,187	1,29
527,637	1,28
528,087	1,28
528,538	1,28
528,988	1,28
529,438	1,28
529,888	1,28
530,338	1,28
530,788	1,27
531,238	1,27
531,688	1,27
532,139	1,27
532,589	1,27
533,038	1,27
533,488	1,27
533,938	1,26
534,388	1,26
534,838	1,26
535,288	1,25
535,738	1,25
536,187	1,25
536,637	1,24
537,087	1,24
537,537	1,23
537,986	1,23
538,436	1,22
538,885	1,22
539,335	1,21
539,785	1,2
540,234	1,2
540,684	1,19
541,133	1,19
541,582	1,18
542,032	1,18
542,481	1,17
542,931	1,16
543,38	1,16
543,829	1,15
544,278	1,14
544,728	1,14
545,177	1,13
545,626	1,13
546,075	1,12
546,524	1,12
546,973	1,11
547,422	1,11
547,871	1,1
548,32	1,1
548,769	1,1
549,218	1,09
549,667	1,09
550,116	1,09
550,565	1,08
551,014	1,08
551,463	1,07
551,911	1,07
552,36	1,07
552,809	1,06
553,258	1,05
553,706	1,05
554,155	1,05
554,603	1,04
555,052	1,04
555,501	1,03
555,949	1,02
556,398	1,02
556,846	1,01
557,294	1,01
557,743	1
558,191	0,99
558,64	0,99
559,088	0,98
559,536	0,98
559,985	0,97
560,433	0,97
560,881	0,96
561,329	0,96
561,777	0,95
562,225	0,95
562,674	0,94
563,122	0,94
563,57	0,93
564,018	0,93
564,466	0,92
564,914	0,92
565,362	0,91
565,809	0,91
566,257	0,9
566,705	0,9
567,153	0,89
567,601	0,89
568,048	0,88
568,496	0,88
568,944	0,87
569,392	0,87
569,839	0,87
570,287	0,86
570,734	0,86
571,182	0,85
571,63	0,85
572,077	0,84
572,525	0,84
572,972	0,84
573,419	0,83
573,867	0,83
574,314	0,82
574,761	0,82
575,209	0,81
575,656	0,81
576,103	0,81
576,551	0,8
576,998	0,8
577,445	0,8
577,892	0,79
578,339	0,79
578,786	0,78
579,233	0,78
579,68	0,78
580,127	0,77
580,574	0,77
581,021	0,77
581,468	0,76
581,915	0,76
582,362	0,76
582,809	0,76
583,255	0,75
583,702	0,75
584,149	0,75
584,596	0,74
585,042	0,74
585,489	0,73
585,936	0,73
586,382	0,73
586,829	0,73
587,275	0,72
587,722	0,72
588,168	0,72
588,615	0,72
589,061	0,71
589,508	0,71
589,954	0,71
590,4	0,71
590,847	0,71
591,293	0,7
591,739	0,7
592,185	0,7
592,632	0,7
593,078	0,7
593,524	0,69
593,97	0,69
594,416	0,69
594,862	0,69
595,308	0,69
595,754	0,69
596,2	0,68
596,646	0,68
597,092	0,68
597,538	0,68
597,984	0,68
598,43	0,67
598,876	0,67
599,321	0,67
599,767	0,67
600,213	0,67
600,659	0,67
601,104	0,66
601,55	0,66
601,995	0,66
602,441	0,66
602,887	0,66
603,332	0,66
603,778	0,65
604,223	0,65
604,668	0,65
605,114	0,65
605,559	0,65
606,005	0,65
606,45	0,65
606,895	0,65
607,341	0,65
607,786	0,64
608,231	0,64
608,676	0,64
609,121	0,63
609,566	0,62
610,012	0,61
610,457	0,61
610,902	0,6
611,347	0,6
611,792	0,6
612,237	0,59
612,682	0,59
613,127	0,59
613,571	0,6
614,016	0,6
614,461	0,6
614,906	0,61
615,351	0,61
615,795	0,61
616,24	0,61
616,685	0,61
617,129	0,61
617,574	0,61
618,019	0,61
618,463	0,61
618,908	0,61
619,352	0,61
619,797	0,61
620,241	0,61
620,686	0,61
621,13	0,61
621,574	0,61
622,019	0,61
622,463	0,6
622,907	0,6
623,352	0,6
623,796	0,6
624,24	0,6
624,684	0,6
625,128	0,6
625,572	0,6
626,016	0,6
626,461	0,6
626,905	0,6
627,349	0,6
627,793	0,59
628,236	0,59
628,68	0,59
629,124	0,59
629,568	0,59
630,012	0,59
630,456	0,59
630,9	0,59
631,343	0,59
631,787	0,59
632,231	0,59
632,674	0,59
633,118	0,59
633,562	0,59
634,005	0,59
634,449	0,59
634,892	0,59
635,336	0,59
635,779	0,59
636,223	0,59
636,666	0,59
637,109	0,59
637,553	0,58
637,996	0,58
638,439	0,58
638,883	0,58
639,326	0,58
639,769	0,58
640,212	0,58
640,655	0,58
641,099	0,58
641,542	0,58
641,985	0,58
642,428	0,58
642,871	0,58
643,314	0,58
643,757	0,58
644,2	0,58
644,643	0,58
645,085	0,58
645,528	0,58
645,971	0,58
646,414	0,57
646,857	0,57
647,299	0,57
647,742	0,57
648,185	0,57
648,627	0,57
649,07	0,57
649,513	0,57
649,955	0,57
650,398	0,57
650,84	0,57
651,283	0,57
651,725	0,57
652,168	0,57
652,61	0,57
653,052	0,57
653,495	0,56
653,937	0,47
654,379	0,42
654,821	0,42
655,264	0,43
655,706	0,43
656,148	0,43
656,59	0,43
657,032	0,43
657,474	0,43
657,916	0,43
658,358	0,42
658,8	0,48
659,242	0,57
659,684	0,56
660,126	0,56
660,568	0,56
661,01	0,56
661,452	0,56
661,894	0,56
662,335	0,56
662,777	0,56
663,219	0,56
663,661	0,56
664,102	0,56
664,544	0,56
664,985	0,56
665,427	0,56
665,869	0,56
666,31	0,56
666,752	0,56
667,193	0,56
667,634	0,56
668,076	0,56
668,517	0,56
668,959	0,56
669,4	0,56
669,841	0,56
670,282	0,56
670,724	0,56
671,165	0,56
671,606	0,56
672,047	0,56
672,488	0,56
672,929	0,56
673,37	0,56
673,811	0,55
674,252	0,55
674,693	0,55
675,134	0,55
675,575	0,55
676,016	0,55
676,457	0,55
676,898	0,55
677,339	0,55
677,78	0,55
678,22	0,55
678,661	0,55
679,102	0,55
679,542	0,55
679,983	0,55
680,424	0,55
680,864	0,55
681,305	0,56
681,745	0,56
682,186	0,56
682,626	0,56
683,067	0,56
683,507	0,56
683,948	0,56
684,388	0,56
684,828	0,56
685,269	0,55
685,709	0,55
686,149	0,55
686,589	0,55
687,029	0,55
687,47	0,55
687,91	0,55
688,35	0,55
688,79	0,55
689,23	0,55
689,67	0,55
690,11	0,55
690,55	0,55
690,99	0,55
691,43	0,54
691,87	0,54
692,31	0,54
692,749	0,54
693,189	0,54
693,629	0,54
694,069	0,54
694,508	0,54
694,948	0,54
695,388	0,54
695,827	0,54
696,267	0,54
696,706	0,54
697,146	0,54
697,586	0,54
698,025	0,54
698,464	0,55
698,904	0,55
699,343	0,55
699,783	0,55
700,222	0,55
700,661	0,55
701,101	0,55
701,54	0,55
701,979	0,55
702,418	0,55
702,857	0,55
703,297	0,55
703,736	0,55
704,175	0,55
704,614	0,55
705,053	0,55
705,492	0,55
705,931	0,54
706,37	0,54
706,809	0,54
707,248	0,54
707,687	0,54
708,125	0,54
708,564	0,54
709,003	0,54
709,442	0,54
709,88	0,53
710,319	0,53
710,758	0,53
711,196	0,53
711,635	0,53
712,074	0,53
712,512	0,53
712,951	0,53
713,389	0,53
713,828	0,53
714,266	0,53
714,705	0,53
715,143	0,53
715,581	0,53
716,02	0,53
716,458	0,53
716,896	0,53
717,334	0,53
717,773	0,53
718,211	0,53
718,649	0,53
719,087	0,53
719,525	0,53
719,963	0,53
720,401	0,53
720,839	0,53
721,277	0,53
721,715	0,53
722,153	0,53
722,591	0,53
723,029	0,53
723,467	0,53
723,905	0,53
724,342	0,53
724,78	0,53
725,218	0,53
725,656	0,53
726,093	0,53
726,531	0,53
726,969	0,53
727,406	0,53
727,844	0,53
728,281	0,53
728,719	0,53
729,156	0,53
729,594	0,53
730,031	0,53
730,469	0,52
730,906	0,52
731,343	0,52
731,781	0,52
732,218	0,52
732,655	0,52
733,092	0,52
733,53	0,52
733,967	0,52
734,404	0,52
734,841	0,52
735,278	0,52
735,715	0,52
736,152	0,52
736,589	0,52
737,026	0,52
737,463	0,52
737,9	0,52
738,337	0,52
738,774	0,52
739,211	0,52
739,647	0,52
740,084	0,52
740,521	0,52
740,958	0,52
741,394	0,52
741,831	0,52
742,268	0,52
742,704	0,52
743,141	0,52
743,577	0,52
744,014	0,52
744,45	0,52
744,887	0,52
745,323	0,52
745,76	0,52
746,196	0,51
746,632	0,51
747,069	0,51
747,505	0,51
747,941	0,51
748,378	0,51
748,814	0,51
749,25	0,51
749,686	0,51
750,122	0,51
750,558	0,52
750,994	0,52
751,43	0,52
751,866	0,52
752,302	0,51
752,738	0,51
753,174	0,51
753,61	0,51
754,046	0,51
754,482	0,51
754,918	0,51
755,354	0,51
755,789	0,51
756,225	0,51
756,661	0,5
757,096	0,5
757,532	0,5
757,968	0,5
758,403	0,5
758,839	0,49
759,274	0,49
759,71	0,49
760,145	0,48
760,581	0,47
761,016	0,47
761,452	0,46
761,887	0,46
762,322	0,45
762,758	0,45
763,193	0,44
763,628	0,43
764,063	0,43
764,499	0,42
764,934	0,41
765,369	0,4
765,804	0,4
766,239	0,39
766,674	0,39
767,109	0,38
767,544	0,37
767,979	0,36
768,414	0,34
768,849	0,33
769,284	0,32
769,719	0,31
770,154	0,3
770,588	0,29
771,023	0,27
771,458	0,26
771,893	0,25
772,327	0,23
772,762	0,23
773,197	0,22
773,631	0,21
774,066	0,2
774,5	0,19
774,935	0,17
775,369	0,16
775,804	0,15
776,238	0,14
776,673	0,13
777,107	0,12
777,541	0,1
777,976	0,1
778,41	0,09
778,844	0,08
779,279	0,07
779,713	0,06
780,147	0,05
780,581	0,05
781,015	0,04
781,449	0,03
781,883	0,02
782,317	0,01
782,751	-0
783,185	-0,02
783,619	-0,03
784,053	-0,04
784,487	-0,04
784,921	-0,05
785,355	-0,06
785,789	-0,07
786,223	-0,08
786,656	-0,09
787,09	-0,1
787,524	-0,11
787,957	-0,12
788,391	-0,13
788,825	-0,15
789,258	-0,16
789,692	-0,18
790,125	-0,19
790,559	-0,21
790,992	-0,23
791,426	-0,25
791,859	-0,26
792,293	-0,3
792,726	-0,31
793,159	-0,34
793,593	-0,36
794,026	-0,38
794,459	-0,41
794,892	-0,44
795,326	-0,47
795,759	-0,51
796,192	-0,55
796,625	-0,6
797,058	-0,63
797,491	-0,67
797,924	-0,7
798,357	-0,75
798,79	-0,79
799,223	-0,84
799,656	-0,89
800,089	-0,94
800,522	-0,98
800,955	-1,03
801,387	-1,08
801,82	-1,13
802,253	-1,2
802,686	-1,28
803,118	-1,33
803,551	-1,39
803,984	-1,43
804,416	-1,47
804,849	-1,5
805,281	-1,6
805,714	-1,94
806,146	-2,41
806,579	-2,69
807,011	-2,85
807,444	-2,95
807,876	-3,05
808,308	-3,09
808,741	-3,12
809,173	-3,17
809,605	-3,19
810,037	-3,27
810,47	-3,19
810,902	-3
811,334	-2,86
811,766	-2,71
812,198	-2,5
812,63	-2,06
813,062	-1,81
813,494	-1,7
813,926	-1,61
814,358	-1,56
814,79	-1,48
815,222	-1,42
815,654	-1,37
816,086	-1,31
816,518	-1,25
816,949	-1,2
817,381	-1,15
817,813	-1,14
818,245	-1,1
818,676	-1,06
819,108	-1,02
819,54	-1,01
819,971	-0,98
820,403	-0,93
820,834	-0,92
821,266	-0,88
821,697	-0,86
822,129	-0,84
822,56	-0,81
822,991	-0,79
823,423	-0,77
823,854	-0,76
824,286	-0,73
824,717	-0,71
825,148	-0,69
825,579	-0,69
826,01	-0,67
826,442	-0,66
826,873	-0,63
827,304	-0,6
827,735	-0,59
828,166	-0,6
828,597	-0,59
829,028	-0,59
829,459	-0,6
829,89	-0,61
830,321	-0,56
830,752	-0,56
831,183	-0,56
831,613	-0,55
832,044	-0,55
832,475	-0,54
832,906	-0,55
833,336	-0,55
833,767	-0,55
834,198	-0,54
834,628	-0,51
835,059	-0,54
835,49	-0,55
835,92	-0,52
836,351	-0,52
836,781	-0,52
837,212	-0,53
837,642	-0,53
838,072	-0,51
838,503	-0,53
838,933	-0,5
839,364	-0,51
839,794	-0,49
840,224	-0,48
840,654	-0,52
841,085	-0,53
841,515	-0,5
841,945	-0,5
842,375	-0,46
842,805	-0,44
843,235	-0,43
843,665	-0,45
844,095	-0,44
844,525	-0,45
844,955	-0,46
845,385	-0,44
845,815	-0,42
846,245	-0,44
846,675	-0,46
847,105	-0,49
847,534	-0,5
847,964	-0,48
848,394	-0,47
848,824	-0,51
849,253	-0,5
849,683	-0,51
850,112	-0,52
850,542	-0,55
850,972	-0,54
851,401	-0,51
851,831	-0,49
852,26	-0,49
852,69	-0,53
853,119	-0,52
853,548	-0,52
853,978	-0,53
854,407	-0,5
854,836	-0,51
855,266	-0,5
855,695	-0,52
856,124	-0,53
856,553	-0,55
856,983	-0,57
857,412	-0,55
857,841	-0,56
858,27	-0,57
858,699	-0,57
859,128	-0,61
859,557	-0,62
859,986	-0,63
860,415	-0,61
860,844	-0,59
861,273	-0,59
861,702	-0,6
862,13	-0,58
862,559	-0,6
862,988	-0,57
863,417	-0,56
863,845	-0,55
864,274	-0,55
864,703	-0,55
865,131	-0,55
865,56	-0,56
865,989	-0,59
866,417	-0,55
866,846	-0,56
867,274	-0,54
867,703	-0,56
868,131	-0,57
868,559	-0,58
868,988	-0,6
869,416	-0,59
869,844	-0,6
870,273	-0,63
870,701	-0,6
871,129	-0,64
871,557	-0,66
871,986	-0,66
872,414	-0,67
872,842	-0,64
873,27	-0,62
873,698	-0,59
874,126	-0,64
874,554	-0,62
874,982	-0,61
875,41	-0,65
875,838	-0,61
876,266	-0,58
876,694	-0,59
877,122	-0,58
877,549	-0,63
877,977	-0,61
878,405	-0,64
878,833	-0,6
879,26	-0,58
879,688	-0,58
880,116	-0,56
880,543	-0,54
880,971	-0,52
881,399	-0,54
881,826	-0,55
882,254	-0,53
882,681	-0,56
883,109	-0,52
883,536	-0,53
883,963	-0,55
884,391	-0,53
884,818	-0,52
885,245	-0,56
885,673	-0,58
886,1	-0,55
886,527	-0,54
886,954	-0,5
887,381	-0,52
887,809	-0,54
888,236	-0,55
888,663	-0,57
889,09	-0,61
889,517	-0,63
889,944	-0,64
890,371	-0,63
890,798	-0,64
891,225	-0,64
891,652	-0,67
892,078	-0,64
892,505	-0,67
892,932	-0,62
893,359	-0,62
893,786	-0,62
894,212	-0,59
894,639	-0,6
895,066	-0,62
895,492	-0,56
895,919	-0,57
896,346	-0,56
896,772	-0,56
897,199	-0,53
897,625	-0,56
898,052	-0,52
898,478	-0,5
898,904	-0,51
899,331	-0,51
899,757	-0,53
900,183	-0,55
900,61	-0,53
901,036	-0,54
901,462	-0,54
901,888	-0,53
902,315	-0,52
902,741	-0,57
903,167	-0,56
903,593	-0,58
904,019	-0,57
904,445	-0,53
904,871	-0,56
905,297	-0,58
905,723	-0,58
906,149	-0,58
906,575	-0,59
907,001	-0,59
907,427	-0,56
907,852	-0,55
908,278	-0,56
908,704	-0,53
909,13	-0,53
909,555	-0,52
909,981	-0,51
910,407	-0,51
910,832	-0,5
911,258	-0,51
911,684	-0,51
912,109	-0,51
912,535	-0,52
912,96	-0,48
913,386	-0,53
913,811	-0,52
914,236	-0,54
914,662	-0,52
915,087	-0,54
915,512	-0,54
915,938	-0,56
916,363	-0,55
916,788	-0,57
917,213	-0,55
917,639	-0,61
918,064	-0,58
918,489	-0,59
918,914	-0,59
919,339	-0,61
919,764	-0,58
920,189	-0,57
920,614	-0,59
921,039	-0,59
921,464	-0,55
921,889	-0,58
922,314	-0,58
922,738	-0,61
923,163	-0,62
923,588	-0,62
924,013	-0,61
924,437	-0,61
924,862	-0,63
925,287	-0,59
925,711	-0,6
926,136	-0,61
926,561	-0,59
926,985	-0,58
927,41	-0,54
927,834	-0,53
928,259	-0,5
928,683	-0,48
929,108	-0,45
929,532	-0,45
929,956	-0,46
930,381	-0,45
930,805	-0,46
931,229	-0,45
931,653	-0,44
932,078	-0,44
932,502	-0,45
932,926	-0,45
933,35	-0,46
933,774	-0,45
934,198	-0,44
934,622	-0,42
935,046	-0,42
935,47	-0,43
935,894	-0,43
936,318	-0,42
936,742	-0,43
937,166	-0,43
937,59	-0,43
938,014	-0,45
938,437	-0,45
938,861	-0,47
939,285	-0,48
939,709	-0,47
940,132	-0,46
940,556	-0,47
940,98	-0,47
941,403	-0,46
941,827	-0,46
942,25	-0,48
942,674	-0,47
943,097	-0,47
943,521	-0,47
943,944	-0,48
944,368	-0,48
944,791	-0,46
945,214	-0,49
945,638	-0,48
946,061	-0,51
946,484	-0,52
946,907	-0,5
947,331	-0,5
947,754	-0,53
948,177	-0,5
948,6	-0,5
949,023	-0,5
949,446	-0,5
949,869	-0,48
950,292	-0,48
950,715	-0,45
951,138	-0,42
951,561	-0,4
951,984	-0,41
952,407	-0,39
952,83	-0,37
953,252	-0,33
953,675	-0,34
954,098	-0,34
954,521	-0,33
954,943	-0,32
955,366	-0,33
955,789	-0,32
956,211	-0,34
956,634	-0,33
957,056	-0,31
957,479	-0,32
957,902	-0,35
958,324	-0,35
958,746	-0,34
959,169	-0,35
959,591	-0,35
960,014	-0,36
960,436	-0,36
960,858	-0,36
961,281	-0,36
961,703	-0,37
962,125	-0,37
962,547	-0,35
962,969	-0,35
963,391	-0,36
963,814	-0,37
964,236	-0,36
964,658	-0,33
965,08	-0,35
965,502	-0,34
965,924	-0,31
966,346	-0,31
966,768	-0,31
967,189	-0,32
967,611	-0,31
968,033	-0,3
968,455	-0,28
968,877	-0,29
969,298	-0,29
969,72	-0,3
970,142	-0,29
970,563	-0,3
970,985	-0,28
971,407	-0,27
971,828	-0,26
972,25	-0,25
972,671	-0,24
973,093	-0,24
973,514	-0,21
973,936	-0,2
974,357	-0,19
974,778	-0,19
975,2	-0,19
975,621	-0,19
976,042	-0,17
976,464	-0,15
976,885	-0,14
977,306	-0,14
977,727	-0,12
978,148	-0,11
978,57	-0,1
978,991	-0,08
979,412	-0,07
979,833	-0,06
980,254	-0,05
980,675	-0,05
981,096	-0,05
981,517	-0,03
981,937	-0,02
982,358	-0,01
982,779	0,01
983,2	0,01
983,621	0,02
984,042	0,04
984,462	0,05
984,883	0,07
985,304	0,09
985,724	0,1
986,145	0,11
986,565	0,13
986,986	0,14
987,407	0,15
987,827	0,17
988,248	0,18
988,668	0,19
989,088	0,2
989,509	0,22
989,929	0,23
990,35	0,25
990,77	0,26
991,19	0,27
991,61	0,28
992,031	0,29
992,451	0,3
992,871	0,31
993,291	0,32
993,711	0,33
994,131	0,34
994,551	0,35
994,971	0,36
995,391	0,37
995,811	0,38
996,231	0,38
996,651	0,39
997,071	0,4
997,491	0,4
997,911	0,41
998,331	0,43
998,75	0,43
999,17	0,44
999,59	0,45
1000,009	0,45
1000,429	0,46
1000,849	0,46
1001,268	0,47
1001,688	0,48
1002,107	0,48
1002,527	0,48
1002,946	0,49
1003,366	0,49
1003,785	0,49
1004,205	0,5
1004,624	0,5
1005,044	0,5
1005,463	0,51
1005,882	0,51
1006,301	0,51
1006,721	0,52
1007,14	0,52
1007,559	0,52
1007,978	0,52
1008,397	0,52
1008,816	0,52
1009,235	0,52
1009,655	0,52
1010,074	0,52
1010,492	0,52
1010,911	0,52
1011,33	0,52
1011,749	0,52
1012,168	0,52
1012,587	0,52
1013,006	0,52
1013,425	0,51
1013,843	0,51
1014,262	0,51
1014,681	0,51
1015,099	0,51
1015,518	0,51
1015,937	0,51
1016,355	0,51
1016,774	0,51
1017,192	0,51
1017,611	0,51
1018,029	0,51
1018,448	0,51
1018,866	0,51
1019,285	0,51
1019,703	0,51
1020,121	0,51
1020,54	0,51
1020,958	0,51
1021,376	0,51
1021,794	0,51
1022,213	0,51
1022,631	0,51
1023,049	0,51
1023,467	0,51
1023,885	0,51
1024,303	0,5
1024,721	0,5
1025,139	0,5
1025,557	0,5
1025,975	0,5
1026,393	0,5
1026,811	0,5
1027,229	0,5
1027,647	0,5
1028,065	0,49
1028,482	0,49
1028,9	0,49
1029,318	0,49
1029,735	0,49
1030,153	0,49
1030,571	0,49
1030,988	0,49
1031,406	0,49
1031,823	0,49
1032,241	0,49
1032,659	0,49
1033,076	0,49
1033,493	0,49
1033,911	0,49
1034,328	0,5
1034,746	0,5
1035,163	0,5
1035,58	0,49
1035,997	0,5
1036,415	0,5
1036,832	0,5
1037,249	0,49
1037,666	0,49
1038,083	0,49
1038,501	0,49
1038,918	0,49
1039,335	0,49
1039,752	0,49
1040,169	0,49
1040,586	0,49
1041,003	0,49
1041,419	0,49
1041,836	0,49
1042,253	0,49
1042,67	0,49
1043,087	0,49
1043,504	0,49
1043,92	0,49
1044,337	0,49
1044,754	0,49
1045,17	0,49
1045,587	0,49
1046,004	0,49
1046,42	0,49
1046,837	0,49
1047,253	0,49
1047,67	0,49
1048,086	0,49
1048,503	0,49
1048,919	0,49
1049,335	0,49
1049,752	0,49
1050,168	0,49
1050,584	0,49
1051,001	0,49
1051,417	0,49
1051,833	0,49
1052,249	0,49
1052,665	0,49
1053,081	0,5
1053,497	0,5
1053,914	0,5
1054,33	0,5
1054,746	0,5
1055,162	0,5
1055,578	0,5
1055,993	0,51
1056,409	0,51
1056,825	0,51
1057,241	0,51
1057,657	0,51
1058,073	0,51
1058,488	0,51
1058,904	0,51
1059,32	0,51
1059,736	0,51
1060,151	0,51
1060,567	0,51
1060,982	0,51
1061,398	0,51
1061,813	0,51
1062,229	0,51
1062,644	0,51
1063,06	0,51
1063,475	0,51
1063,891	0,51
1064,306	0,51
1064,721	0,51
1065,137	0,5
1065,552	0,5
1065,967	0,5
1066,382	0,5
1066,798	0,5
1067,213	0,5
1067,628	0,5
1068,043	0,5
1068,458	0,5
1068,873	0,5
1069,288	0,5
1069,703	0,5
1070,118	0,5
1070,533	0,5
1070,948	0,5
1071,363	0,5
1071,778	0,5
1072,193	0,5
1072,607	0,5
1073,022	0,5
1073,437	0,5
1073,852	0,5
1074,266	0,5
1074,681	0,5
1075,096	0,5
1075,51	0,5
1075,925	0,5
1076,339	0,5
1076,754	0,5
1077,168	0,5
1077,583	0,5
1077,997	0,5
1078,412	0,5
1078,826	0,5
1079,24	0,49
1079,655	0,49
1080,069	0,49
1080,483	0,49
1080,897	0,49
1081,312	0,49
1081,726	0,49
1082,14	0,49
1082,554	0,49
1082,968	0,48
1083,382	0,48
1083,796	0,48
1084,21	0,48
1084,624	0,48
1085,038	0,48
1085,452	0,48
1085,866	0,48
1086,28	0,47
1086,694	0,47
1087,108	0,47
1087,521	0,47
1087,935	0,46
1088,349	0,46
1088,763	0,46
1089,176	0,46
1089,59	0,45
1090,004	0,45
1090,417	0,44
1090,831	0,44
1091,244	0,44
1091,658	0,44
1092,071	0,44
1092,485	0,43
1092,898	0,43
1093,312	0,43
1093,725	0,43
1094,138	0,42
1094,552	0,42
1094,965	0,42
1095,378	0,42
1095,791	0,42
1096,205	0,41
1096,618	0,41
1097,031	0,41
1097,444	0,4
1097,857	0,4
1098,27	0,39
1098,683	0,39
1099,096	0,39
1099,509	0,38
1099,922	0,38
1100,335	0,37
1100,748	0,36
1101,161	0,36
1101,574	0,35
1101,986	0,35
1102,399	0,35
1102,812	0,35
1103,225	0,34
1103,637	0,33
1104,05	0,33
1104,463	0,33
1104,875	0,33
1105,288	0,32
1105,7	0,32
1106,113	0,31
1106,525	0,31
1106,938	0,3
1107,35	0,29
1107,763	0,29
1108,175	0,29
1108,588	0,29
1109	0,28
1109,412	0,27
1109,824	0,27
1110,237	0,26
1110,649	0,26
1111,061	0,27
