Data from 18C-808nm-8A-cont_Absorbance__389__01818.txt Node

Date: Mon Jul 17 17:32:48 CEST 2023
User: Laser008
Spectrometer: MAYP115816
Trigger mode: 0
Integration Time (sec): 2,500000E-1
Scans to average: 10
Electric dark correction enabled: true
Nonlinearity correction enabled: true
Boxcar width: 5
XAxis mode: Wavelengths
Number of Pixels in Spectrum: 2068
>>>>>Begin Spectral Data<<<<<
198,914	-0,65
199,384	-0,44
199,855	-0,32
200,325	-0,25
200,796	-0,23
201,266	-0,19
201,737	-0,17
202,207	-0,17
202,677	-0,16
203,147	-0,14
203,618	-0,11
204,088	-0,1
204,558	-0,09
205,028	-0,08
205,498	-0,09
205,968	-0,08
206,439	-0,1
206,909	-0,08
207,379	-0,08
207,849	-0,09
208,319	-0,1
208,789	-0,11
209,258	-0,1
209,728	-0,11
210,198	-0,11
210,668	-0,11
211,138	-0,1
211,608	-0,1
212,077	-0,12
212,547	-0,1
213,017	-0,1
213,486	-0,1
213,956	-0,1
214,426	-0,12
214,895	-0,12
215,365	-0,12
215,834	-0,13
216,304	-0,15
216,773	-0,15
217,243	-0,16
217,712	-0,18
218,181	-0,18
218,651	-0,17
219,12	-0,17
219,589	-0,16
220,058	-0,15
220,528	-0,17
220,997	-0,17
221,466	-0,18
221,935	-0,19
222,404	-0,19
222,873	-0,17
223,342	-0,18
223,812	-0,18
224,281	-0,19
224,749	-0,2
225,218	-0,21
225,687	-0,21
226,156	-0,2
226,625	-0,18
227,094	-0,18
227,563	-0,18
228,031	-0,19
228,5	-0,19
228,969	-0,2
229,438	-0,19
229,906	-0,17
230,375	-0,17
230,844	-0,16
231,312	-0,16
231,781	-0,16
232,249	-0,16
232,718	-0,17
233,186	-0,14
233,655	-0,14
234,123	-0,13
234,591	-0,13
235,06	-0,14
235,528	-0,15
235,996	-0,16
236,465	-0,15
236,933	-0,15
237,401	-0,15
237,869	-0,13
238,337	-0,14
238,805	-0,12
239,274	-0,12
239,742	-0,12
240,21	-0,11
240,678	-0,09
241,146	-0,08
241,614	-0,08
242,081	-0,07
242,549	-0,07
243,017	-0,08
243,485	-0,08
243,953	-0,08
244,421	-0,08
244,888	-0,09
245,356	-0,1
245,824	-0,09
246,291	-0,09
246,759	-0,1
247,227	-0,11
247,694	-0,1
248,162	-0,09
248,629	-0,08
249,097	-0,09
249,564	-0,1
250,032	-0,1
250,499	-0,11
250,967	-0,11
251,434	-0,12
251,901	-0,11
252,369	-0,1
252,836	-0,11
253,303	-0,13
253,77	-0,15
254,237	-0,14
254,705	-0,14
255,172	-0,13
255,639	-0,12
256,106	-0,13
256,573	-0,14
257,04	-0,14
257,507	-0,15
257,974	-0,15
258,441	-0,13
258,908	-0,14
259,375	-0,14
259,841	-0,15
260,308	-0,16
260,775	-0,16
261,242	-0,15
261,709	-0,16
262,175	-0,17
262,642	-0,16
263,109	-0,16
263,575	-0,17
264,042	-0,16
264,508	-0,16
264,975	-0,18
265,441	-0,18
265,908	-0,19
266,374	-0,18
266,841	-0,19
267,307	-0,19
267,773	-0,18
268,24	-0,19
268,706	-0,19
269,172	-0,2
269,639	-0,21
270,105	-0,19
270,571	-0,2
271,037	-0,2
271,503	-0,22
271,969	-0,22
272,435	-0,22
272,902	-0,24
273,368	-0,26
273,834	-0,25
274,3	-0,25
274,765	-0,25
275,231	-0,25
275,697	-0,24
276,163	-0,24
276,629	-0,23
277,095	-0,24
277,56	-0,23
278,026	-0,24
278,492	-0,21
278,958	-0,21
279,423	-0,21
279,889	-0,2
280,354	-0,2
280,82	-0,21
281,286	-0,22
281,751	-0,23
282,217	-0,21
282,682	-0,21
283,147	-0,21
283,613	-0,21
284,078	-0,22
284,544	-0,24
285,009	-0,24
285,474	-0,23
285,939	-0,24
286,405	-0,22
286,87	-0,21
287,335	-0,22
287,8	-0,22
288,265	-0,2
288,73	-0,22
289,195	-0,23
289,66	-0,23
290,125	-0,23
290,59	-0,22
291,055	-0,21
291,52	-0,22
291,985	-0,22
292,45	-0,23
292,915	-0,23
293,38	-0,23
293,844	-0,21
294,309	-0,19
294,774	-0,17
295,239	-0,18
295,703	-0,18
296,168	-0,18
296,632	-0,17
297,097	-0,16
297,562	-0,15
298,026	-0,15
298,491	-0,16
298,955	-0,15
299,419	-0,15
299,884	-0,15
300,348	-0,14
300,813	-0,14
301,277	-0,15
301,741	-0,16
302,205	-0,15
302,67	-0,14
303,134	-0,14
303,598	-0,14
304,062	-0,14
304,526	-0,14
304,99	-0,15
305,454	-0,15
305,919	-0,15
306,383	-0,14
306,847	-0,13
307,31	-0,14
307,774	-0,15
308,238	-0,15
308,702	-0,14
309,166	-0,15
309,63	-0,15
310,094	-0,12
310,557	-0,12
311,021	-0,12
311,485	-0,12
311,948	-0,11
312,412	-0,11
312,876	-0,1
313,339	-0,11
313,803	-0,12
314,266	-0,11
314,73	-0,11
315,193	-0,12
315,657	-0,11
316,12	-0,11
316,584	-0,09
317,047	-0,09
317,51	-0,08
317,973	-0,07
318,437	-0,06
318,9	-0,04
319,363	-0,04
319,826	-0,03
320,29	-0,03
320,753	-0,03
321,216	-0,03
321,679	-0,03
322,142	-0,03
322,605	-0,04
323,068	-0,05
323,531	-0,05
323,994	-0,05
324,457	-0,05
324,92	-0,03
325,382	-0,03
325,845	-0,03
326,308	-0,03
326,771	-0,03
327,233	-0,02
327,696	0
328,159	0
328,622	0,02
329,084	0,02
329,547	0,03
330,009	0,02
330,472	0,04
330,934	0,04
331,397	0,05
331,859	0,06
332,322	0,04
332,784	0,05
333,246	0,06
333,709	0,05
334,171	0,05
334,633	0,05
335,096	0,06
335,558	0,06
336,02	0,06
336,482	0,07
336,944	0,08
337,406	0,09
337,868	0,09
338,331	0,09
338,793	0,1
339,255	0,11
339,717	0,11
340,178	0,13
340,64	0,13
341,102	0,14
341,564	0,15
342,026	0,16
342,488	0,18
342,949	0,19
343,411	0,22
343,873	0,25
344,335	0,28
344,796	0,32
345,258	0,36
345,719	0,4
346,181	0,45
346,643	0,5
347,104	0,54
347,566	0,57
348,027	0,6
348,488	0,62
348,95	0,65
349,411	0,67
349,873	0,7
350,334	0,72
350,795	0,74
351,256	0,75
351,718	0,76
352,179	0,77
352,64	0,77
353,101	0,78
353,562	0,78
354,023	0,78
354,484	0,79
354,945	0,79
355,406	0,79
355,867	0,79
356,328	0,8
356,789	0,81
357,25	0,81
357,711	0,81
358,172	0,81
358,633	0,81
359,093	0,81
359,554	0,81
360,015	0,82
360,476	0,82
360,936	0,82
361,397	0,82
361,858	0,82
362,318	0,82
362,779	0,82
363,239	0,82
363,7	0,82
364,16	0,82
364,621	0,82
365,081	0,82
365,541	0,82
366,002	0,82
366,462	0,82
366,922	0,82
367,383	0,82
367,843	0,82
368,303	0,82
368,763	0,82
369,223	0,82
369,684	0,82
370,144	0,82
370,604	0,82
371,064	0,82
371,524	0,82
371,984	0,82
372,444	0,82
372,904	0,82
373,363	0,82
373,823	0,82
374,283	0,82
374,743	0,82
375,203	0,82
375,663	0,82
376,122	0,82
376,582	0,82
377,042	0,82
377,501	0,82
377,961	0,82
378,42	0,82
378,88	0,82
379,34	0,82
379,799	0,82
380,259	0,82
380,718	0,81
381,177	0,81
381,637	0,81
382,096	0,81
382,555	0,81
383,015	0,81
383,474	0,81
383,933	0,81
384,393	0,81
384,852	0,81
385,311	0,81
385,77	0,81
386,229	0,81
386,688	0,81
387,147	0,81
387,606	0,81
388,065	0,81
388,524	0,81
388,983	0,81
389,442	0,81
389,901	0,81
390,36	0,81
390,819	0,81
391,277	0,81
391,736	0,81
392,195	0,81
392,654	0,81
393,112	0,8
393,571	0,8
394,03	0,8
394,488	0,8
394,947	0,8
395,405	0,8
395,864	0,8
396,322	0,8
396,781	0,8
397,239	0,8
397,698	0,8
398,156	0,8
398,614	0,8
399,073	0,8
399,531	0,8
399,989	0,8
400,447	0,8
400,905	0,8
401,364	0,8
401,822	0,8
402,28	0,8
402,738	0,8
403,196	0,8
403,654	0,8
404,112	0,8
404,57	0,8
405,028	0,8
405,486	0,8
405,944	0,8
406,402	0,8
406,859	0,8
407,317	0,8
407,775	0,8
408,233	0,8
408,691	0,8
409,148	0,8
409,606	0,8
410,064	0,8
410,521	0,8
410,979	0,8
411,436	0,79
411,894	0,79
412,351	0,79
412,809	0,79
413,266	0,79
413,724	0,79
414,181	0,79
414,638	0,79
415,096	0,79
415,553	0,79
416,01	0,79
416,467	0,79
416,925	0,79
417,382	0,79
417,839	0,79
418,296	0,79
418,753	0,79
419,21	0,79
419,667	0,79
420,124	0,79
420,581	0,79
421,038	0,79
421,495	0,79
421,952	0,79
422,409	0,79
422,866	0,79
423,322	0,79
423,779	0,79
424,236	0,79
424,693	0,79
425,149	0,79
425,606	0,79
426,063	0,79
426,519	0,79
426,976	0,79
427,433	0,79
427,889	0,79
428,346	0,79
428,802	0,79
429,258	0,79
429,715	0,79
430,171	0,79
430,628	0,79
431,084	0,79
431,54	0,79
431,997	0,79
432,453	0,79
432,909	0,79
433,365	0,79
433,821	0,79
434,277	0,78
434,734	0,78
435,19	0,78
435,646	0,78
436,102	0,78
436,558	0,78
437,014	0,78
437,47	0,78
437,925	0,79
438,381	0,79
438,837	0,79
439,293	0,79
439,749	0,79
440,205	0,79
440,66	0,79
441,116	0,79
441,572	0,79
442,027	0,79
442,483	0,79
442,939	0,79
443,394	0,79
443,85	0,79
444,305	0,79
444,761	0,79
445,216	0,79
445,672	0,79
446,127	0,79
446,582	0,79
447,038	0,79
447,493	0,79
447,948	0,79
448,403	0,79
448,859	0,79
449,314	0,79
449,769	0,79
450,224	0,79
450,679	0,79
451,134	0,79
451,589	0,79
452,044	0,79
452,499	0,79
452,954	0,8
453,409	0,8
453,864	0,8
454,319	0,8
454,774	0,8
455,229	0,8
455,684	0,8
456,138	0,8
456,593	0,8
457,048	0,8
457,503	0,8
457,957	0,8
458,412	0,8
458,866	0,8
459,321	0,8
459,776	0,8
460,23	0,8
460,685	0,8
461,139	0,8
461,593	0,8
462,048	0,8
462,502	0,8
462,957	0,81
463,411	0,81
463,865	0,81
464,319	0,81
464,774	0,81
465,228	0,81
465,682	0,81
466,136	0,81
466,59	0,81
467,044	0,81
467,499	0,81
467,953	0,81
468,407	0,81
468,861	0,82
469,315	0,82
469,768	0,82
470,222	0,82
470,676	0,82
471,13	0,82
471,584	0,82
472,038	0,82
472,491	0,82
472,945	0,82
473,399	0,82
473,852	0,83
474,306	0,83
474,76	0,83
475,213	0,83
475,667	0,83
476,12	0,83
476,574	0,83
477,027	0,84
477,481	0,84
477,934	0,84
478,388	0,84
478,841	0,84
479,294	0,85
479,748	0,85
480,201	0,85
480,654	0,85
481,107	0,85
481,561	0,85
482,014	0,86
482,467	0,86
482,92	0,86
483,373	0,86
483,826	0,86
484,279	0,86
484,732	0,87
485,185	0,87
485,638	0,87
486,091	0,87
486,544	0,87
486,997	0,88
487,449	0,88
487,902	0,88
488,355	0,89
488,808	0,89
489,26	0,89
489,713	0,89
490,166	0,9
490,618	0,9
491,071	0,9
491,523	0,91
491,976	0,91
492,429	0,91
492,881	0,91
493,333	0,92
493,786	0,92
494,238	0,92
494,691	0,93
495,143	0,93
495,595	0,94
496,048	0,94
496,5	0,94
496,952	0,95
497,404	0,95
497,856	0,95
498,309	0,96
498,761	0,96
499,213	0,96
499,665	0,97
500,117	0,97
500,569	0,98
501,021	0,98
501,473	0,98
501,925	0,99
502,377	0,99
502,828	1
503,28	1
503,732	1
504,184	1,01
504,636	1,01
505,087	1,02
505,539	1,02
505,991	1,02
506,442	1,03
506,894	1,03
507,345	1,04
507,797	1,04
508,249	1,04
508,7	1,05
509,151	1,05
509,603	1,06
510,054	1,06
510,506	1,07
510,957	1,07
511,408	1,07
511,86	1,08
512,311	1,08
512,762	1,08
513,213	1,09
513,665	1,09
514,116	1,09
514,567	1,1
515,018	1,1
515,469	1,1
515,92	1,11
516,371	1,11
516,822	1,11
517,273	1,12
517,724	1,12
518,175	1,12
518,626	1,12
519,076	1,13
519,527	1,13
519,978	1,13
520,429	1,13
520,88	1,14
521,33	1,14
521,781	1,14
522,232	1,14
522,682	1,14
523,133	1,15
523,583	1,15
524,034	1,15
524,484	1,15
524,935	1,15
525,385	1,15
525,836	1,15
526,286	1,15
526,736	1,15
527,187	1,15
527,637	1,15
528,087	1,15
528,538	1,15
528,988	1,15
529,438	1,15
529,888	1,15
530,338	1,15
530,788	1,14
531,238	1,14
531,688	1,14
532,139	1,14
532,589	1,14
533,038	1,14
533,488	1,14
533,938	1,13
534,388	1,13
534,838	1,13
535,288	1,12
535,738	1,12
536,187	1,12
536,637	1,11
537,087	1,11
537,537	1,11
537,986	1,1
538,436	1,1
538,885	1,09
539,335	1,09
539,785	1,08
540,234	1,08
540,684	1,07
541,133	1,07
541,582	1,06
542,032	1,06
542,481	1,05
542,931	1,05
543,38	1,04
543,829	1,04
544,278	1,03
544,728	1,03
545,177	1,02
545,626	1,02
546,075	1,01
546,524	1,01
546,973	1,01
547,422	1
547,871	1
548,32	0,99
548,769	0,99
549,218	0,99
549,667	0,98
550,116	0,98
550,565	0,97
551,014	0,97
551,463	0,96
551,911	0,96
552,36	0,95
552,809	0,95
553,258	0,95
553,706	0,94
554,155	0,94
554,603	0,93
555,052	0,93
555,501	0,92
555,949	0,92
556,398	0,92
556,846	0,91
557,294	0,91
557,743	0,9
558,191	0,9
558,64	0,89
559,088	0,88
559,536	0,88
559,985	0,87
560,433	0,87
560,881	0,86
561,329	0,86
561,777	0,85
562,225	0,85
562,674	0,85
563,122	0,84
563,57	0,84
564,018	0,83
564,466	0,83
564,914	0,82
565,362	0,82
565,809	0,82
566,257	0,81
566,705	0,81
567,153	0,8
567,601	0,8
568,048	0,79
568,496	0,79
568,944	0,79
569,392	0,78
569,839	0,78
570,287	0,77
570,734	0,77
571,182	0,77
571,63	0,76
572,077	0,76
572,525	0,76
572,972	0,75
573,419	0,75
573,867	0,74
574,314	0,74
574,761	0,74
575,209	0,73
575,656	0,73
576,103	0,72
576,551	0,72
576,998	0,72
577,445	0,72
577,892	0,71
578,339	0,71
578,786	0,71
579,233	0,7
579,68	0,7
580,127	0,7
580,574	0,69
581,021	0,69
581,468	0,69
581,915	0,69
582,362	0,68
582,809	0,68
583,255	0,68
583,702	0,68
584,149	0,67
584,596	0,67
585,042	0,67
585,489	0,66
585,936	0,66
586,382	0,66
586,829	0,66
587,275	0,66
587,722	0,65
588,168	0,65
588,615	0,65
589,061	0,65
589,508	0,64
589,954	0,64
590,4	0,64
590,847	0,64
591,293	0,63
591,739	0,63
592,185	0,63
592,632	0,63
593,078	0,63
593,524	0,63
593,97	0,63
594,416	0,62
594,862	0,62
595,308	0,62
595,754	0,62
596,2	0,62
596,646	0,62
597,092	0,61
597,538	0,61
597,984	0,61
598,43	0,61
598,876	0,61
599,321	0,61
599,767	0,61
600,213	0,6
600,659	0,6
601,104	0,6
601,55	0,6
601,995	0,6
602,441	0,6
602,887	0,59
603,332	0,59
603,778	0,59
604,223	0,59
604,668	0,59
605,114	0,59
605,559	0,59
606,005	0,59
606,45	0,59
606,895	0,58
607,341	0,58
607,786	0,58
608,231	0,58
608,676	0,57
609,121	0,57
609,566	0,56
610,012	0,56
610,457	0,55
610,902	0,55
611,347	0,55
611,792	0,55
612,237	0,54
612,682	0,54
613,127	0,54
613,571	0,54
614,016	0,55
614,461	0,55
614,906	0,55
615,351	0,55
615,795	0,55
616,24	0,55
616,685	0,55
617,129	0,55
617,574	0,55
618,019	0,55
618,463	0,55
618,908	0,55
619,352	0,55
619,797	0,55
620,241	0,55
620,686	0,55
621,13	0,55
621,574	0,55
622,019	0,55
622,463	0,54
622,907	0,54
623,352	0,54
623,796	0,54
624,24	0,54
624,684	0,54
625,128	0,54
625,572	0,54
626,016	0,54
626,461	0,54
626,905	0,54
627,349	0,54
627,793	0,54
628,236	0,54
628,68	0,54
629,124	0,54
629,568	0,53
630,012	0,53
630,456	0,53
630,9	0,53
631,343	0,53
631,787	0,53
632,231	0,53
632,674	0,53
633,118	0,53
633,562	0,53
634,005	0,53
634,449	0,53
634,892	0,53
635,336	0,53
635,779	0,53
636,223	0,53
636,666	0,53
637,109	0,53
637,553	0,53
637,996	0,53
638,439	0,53
638,883	0,53
639,326	0,53
639,769	0,53
640,212	0,53
640,655	0,53
641,099	0,53
641,542	0,52
641,985	0,52
642,428	0,52
642,871	0,52
643,314	0,52
643,757	0,52
644,2	0,52
644,643	0,52
645,085	0,52
645,528	0,52
645,971	0,52
646,414	0,52
646,857	0,52
647,299	0,52
647,742	0,52
648,185	0,52
648,627	0,51
649,07	0,51
649,513	0,51
649,955	0,51
650,398	0,51
650,84	0,51
651,283	0,52
651,725	0,52
652,168	0,52
652,61	0,52
653,052	0,52
653,495	0,52
653,937	0,43
654,379	0,37
654,821	0,38
655,264	0,38
655,706	0,38
656,148	0,38
656,59	0,38
657,032	0,38
657,474	0,38
657,916	0,38
658,358	0,37
658,8	0,43
659,242	0,51
659,684	0,51
660,126	0,51
660,568	0,51
661,01	0,51
661,452	0,51
661,894	0,51
662,335	0,51
662,777	0,51
663,219	0,51
663,661	0,51
664,102	0,51
664,544	0,51
664,985	0,51
665,427	0,51
665,869	0,51
666,31	0,51
666,752	0,51
667,193	0,51
667,634	0,51
668,076	0,51
668,517	0,51
668,959	0,51
669,4	0,51
669,841	0,51
670,282	0,51
670,724	0,51
671,165	0,51
671,606	0,51
672,047	0,51
672,488	0,51
672,929	0,51
673,37	0,51
673,811	0,5
674,252	0,5
674,693	0,5
675,134	0,5
675,575	0,5
676,016	0,5
676,457	0,5
676,898	0,5
677,339	0,49
677,78	0,49
678,22	0,49
678,661	0,49
679,102	0,49
679,542	0,49
679,983	0,49
680,424	0,49
680,864	0,49
681,305	0,5
681,745	0,5
682,186	0,5
682,626	0,5
683,067	0,5
683,507	0,5
683,948	0,5
684,388	0,5
684,828	0,5
685,269	0,5
685,709	0,5
686,149	0,49
686,589	0,49
687,029	0,49
687,47	0,49
687,91	0,49
688,35	0,49
688,79	0,49
689,23	0,49
689,67	0,49
690,11	0,49
690,55	0,49
690,99	0,49
691,43	0,49
691,87	0,49
692,31	0,49
692,749	0,48
693,189	0,48
693,629	0,48
694,069	0,48
694,508	0,48
694,948	0,48
695,388	0,48
695,827	0,48
696,267	0,48
696,706	0,48
697,146	0,48
697,586	0,48
698,025	0,48
698,464	0,48
698,904	0,49
699,343	0,49
699,783	0,49
700,222	0,49
700,661	0,49
701,101	0,49
701,54	0,49
701,979	0,49
702,418	0,49
702,857	0,49
703,297	0,49
703,736	0,49
704,175	0,49
704,614	0,49
705,053	0,49
705,492	0,48
705,931	0,48
706,37	0,48
706,809	0,48
707,248	0,48
707,687	0,48
708,125	0,48
708,564	0,48
709,003	0,48
709,442	0,48
709,88	0,48
710,319	0,48
710,758	0,48
711,196	0,48
711,635	0,48
712,074	0,47
712,512	0,47
712,951	0,47
713,389	0,47
713,828	0,47
714,266	0,47
714,705	0,47
715,143	0,47
715,581	0,47
716,02	0,47
716,458	0,47
716,896	0,47
717,334	0,47
717,773	0,47
718,211	0,47
718,649	0,47
719,087	0,47
719,525	0,48
719,963	0,48
720,401	0,48
720,839	0,48
721,277	0,48
721,715	0,48
722,153	0,48
722,591	0,48
723,029	0,48
723,467	0,47
723,905	0,47
724,342	0,47
724,78	0,47
725,218	0,48
725,656	0,48
726,093	0,48
726,531	0,48
726,969	0,48
727,406	0,48
727,844	0,48
728,281	0,48
728,719	0,47
729,156	0,47
729,594	0,47
730,031	0,47
730,469	0,47
730,906	0,47
731,343	0,47
731,781	0,47
732,218	0,47
732,655	0,47
733,092	0,47
733,53	0,46
733,967	0,46
734,404	0,46
734,841	0,46
735,278	0,46
735,715	0,46
736,152	0,46
736,589	0,46
737,026	0,46
737,463	0,46
737,9	0,46
738,337	0,46
738,774	0,46
739,211	0,46
739,647	0,46
740,084	0,46
740,521	0,46
740,958	0,46
741,394	0,46
741,831	0,46
742,268	0,46
742,704	0,46
743,141	0,46
743,577	0,46
744,014	0,46
744,45	0,46
744,887	0,46
745,323	0,45
745,76	0,45
746,196	0,45
746,632	0,45
747,069	0,45
747,505	0,45
747,941	0,45
748,378	0,45
748,814	0,45
749,25	0,45
749,686	0,45
750,122	0,45
750,558	0,45
750,994	0,45
751,43	0,46
751,866	0,46
752,302	0,46
752,738	0,46
753,174	0,46
753,61	0,46
754,046	0,46
754,482	0,46
754,918	0,46
755,354	0,46
755,789	0,46
756,225	0,46
756,661	0,46
757,096	0,45
757,532	0,45
757,968	0,45
758,403	0,45
758,839	0,44
759,274	0,44
759,71	0,44
760,145	0,43
760,581	0,42
761,016	0,42
761,452	0,41
761,887	0,41
762,322	0,4
762,758	0,4
763,193	0,4
763,628	0,39
764,063	0,38
764,499	0,38
764,934	0,37
765,369	0,36
765,804	0,35
766,239	0,35
766,674	0,34
767,109	0,33
767,544	0,32
767,979	0,31
768,414	0,3
768,849	0,29
769,284	0,28
769,719	0,27
770,154	0,27
770,588	0,26
771,023	0,25
771,458	0,23
771,893	0,22
772,327	0,21
772,762	0,19
773,197	0,18
773,631	0,17
774,066	0,17
774,5	0,16
774,935	0,14
775,369	0,13
775,804	0,12
776,238	0,12
776,673	0,1
777,107	0,09
777,541	0,08
777,976	0,07
778,41	0,06
778,844	0,05
779,279	0,05
779,713	0,03
780,147	0,02
780,581	0,01
781,015	0
781,449	-0,01
781,883	-0,01
782,317	-0,02
782,751	-0,03
783,185	-0,04
783,619	-0,04
784,053	-0,05
784,487	-0,06
784,921	-0,06
785,355	-0,07
785,789	-0,08
786,223	-0,09
786,656	-0,1
787,09	-0,11
787,524	-0,13
787,957	-0,14
788,391	-0,16
788,825	-0,18
789,258	-0,2
789,692	-0,21
790,125	-0,22
790,559	-0,24
790,992	-0,26
791,426	-0,28
791,859	-0,29
792,293	-0,33
792,726	-0,34
793,159	-0,36
793,593	-0,38
794,026	-0,4
794,459	-0,43
794,892	-0,46
795,326	-0,48
795,759	-0,52
796,192	-0,56
796,625	-0,61
797,058	-0,63
797,491	-0,68
797,924	-0,71
798,357	-0,76
798,79	-0,8
799,223	-0,84
799,656	-0,9
800,089	-0,95
800,522	-0,99
800,955	-1,03
801,387	-1,09
801,82	-1,14
802,253	-1,21
802,686	-1,29
803,118	-1,35
803,551	-1,4
803,984	-1,44
804,416	-1,48
804,849	-1,51
805,281	-1,64
805,714	-2
806,146	-2,46
806,579	-2,71
807,011	-2,87
807,444	-2,97
807,876	-3,05
808,308	-3,08
808,741	-3,11
809,173	-3,16
809,605	-3,18
810,037	-3,26
810,47	-3,18
810,902	-2,98
811,334	-2,82
811,766	-2,66
812,198	-2,41
812,63	-1,98
813,062	-1,78
813,494	-1,68
813,926	-1,6
814,358	-1,54
814,79	-1,46
815,222	-1,4
815,654	-1,35
816,086	-1,29
816,518	-1,24
816,949	-1,18
817,381	-1,14
817,813	-1,12
818,245	-1,08
818,676	-1,04
819,108	-1,01
819,54	-0,99
819,971	-0,97
820,403	-0,92
820,834	-0,91
821,266	-0,86
821,697	-0,84
822,129	-0,83
822,56	-0,8
822,991	-0,78
823,423	-0,75
823,854	-0,74
824,286	-0,72
824,717	-0,71
825,148	-0,7
825,579	-0,69
826,01	-0,68
826,442	-0,67
826,873	-0,66
827,304	-0,62
827,735	-0,61
828,166	-0,61
828,597	-0,62
829,028	-0,61
829,459	-0,61
829,89	-0,61
830,321	-0,57
830,752	-0,57
831,183	-0,57
831,613	-0,55
832,044	-0,56
832,475	-0,55
832,906	-0,56
833,336	-0,56
833,767	-0,56
834,198	-0,56
834,628	-0,53
835,059	-0,56
835,49	-0,57
835,92	-0,54
836,351	-0,54
836,781	-0,55
837,212	-0,56
837,642	-0,56
838,072	-0,54
838,503	-0,55
838,933	-0,53
839,364	-0,54
839,794	-0,52
840,224	-0,51
840,654	-0,56
841,085	-0,57
841,515	-0,55
841,945	-0,55
842,375	-0,5
842,805	-0,49
843,235	-0,48
843,665	-0,49
844,095	-0,47
844,525	-0,49
844,955	-0,49
845,385	-0,46
845,815	-0,44
846,245	-0,46
846,675	-0,47
847,105	-0,49
847,534	-0,48
847,964	-0,47
848,394	-0,46
848,824	-0,49
849,253	-0,49
849,683	-0,49
850,112	-0,51
850,542	-0,53
850,972	-0,54
851,401	-0,52
851,831	-0,51
852,26	-0,52
852,69	-0,56
853,119	-0,55
853,548	-0,55
853,978	-0,56
854,407	-0,54
854,836	-0,53
855,266	-0,53
855,695	-0,54
856,124	-0,55
856,553	-0,55
856,983	-0,58
857,412	-0,57
857,841	-0,59
858,27	-0,59
858,699	-0,59
859,128	-0,63
859,557	-0,64
859,986	-0,64
860,415	-0,62
860,844	-0,6
861,273	-0,6
861,702	-0,61
862,13	-0,58
862,559	-0,6
862,988	-0,57
863,417	-0,57
863,845	-0,56
864,274	-0,56
864,703	-0,56
865,131	-0,56
865,56	-0,57
865,989	-0,6
866,417	-0,57
866,846	-0,57
867,274	-0,56
867,703	-0,58
868,131	-0,59
868,559	-0,59
868,988	-0,62
869,416	-0,61
869,844	-0,63
870,273	-0,65
870,701	-0,64
871,129	-0,67
871,557	-0,69
871,986	-0,69
872,414	-0,7
872,842	-0,67
873,27	-0,65
873,698	-0,62
874,126	-0,66
874,554	-0,63
874,982	-0,63
875,41	-0,66
875,838	-0,61
876,266	-0,58
876,694	-0,59
877,122	-0,58
877,549	-0,64
877,977	-0,6
878,405	-0,63
878,833	-0,59
879,26	-0,57
879,688	-0,57
880,116	-0,55
880,543	-0,54
880,971	-0,52
881,399	-0,55
881,826	-0,56
882,254	-0,54
882,681	-0,57
883,109	-0,53
883,536	-0,54
883,963	-0,56
884,391	-0,54
884,818	-0,54
885,245	-0,57
885,673	-0,6
886,1	-0,57
886,527	-0,56
886,954	-0,52
887,381	-0,54
887,809	-0,57
888,236	-0,58
888,663	-0,59
889,09	-0,63
889,517	-0,65
889,944	-0,65
890,371	-0,63
890,798	-0,64
891,225	-0,65
891,652	-0,68
892,078	-0,65
892,505	-0,67
892,932	-0,62
893,359	-0,62
893,786	-0,62
894,212	-0,59
894,639	-0,61
895,066	-0,64
895,492	-0,58
895,919	-0,57
896,346	-0,57
896,772	-0,57
897,199	-0,55
897,625	-0,58
898,052	-0,55
898,478	-0,52
898,904	-0,54
899,331	-0,53
899,757	-0,55
900,183	-0,57
900,61	-0,55
901,036	-0,56
901,462	-0,56
901,888	-0,55
902,315	-0,54
902,741	-0,6
903,167	-0,59
903,593	-0,62
904,019	-0,6
904,445	-0,57
904,871	-0,6
905,297	-0,62
905,723	-0,61
906,149	-0,59
906,575	-0,59
907,001	-0,59
907,427	-0,56
907,852	-0,56
908,278	-0,56
908,704	-0,54
909,13	-0,54
909,555	-0,53
909,981	-0,52
910,407	-0,54
910,832	-0,54
911,258	-0,54
911,684	-0,54
912,109	-0,55
912,535	-0,57
912,96	-0,53
913,386	-0,57
913,811	-0,56
914,236	-0,58
914,662	-0,56
915,087	-0,59
915,512	-0,59
915,938	-0,61
916,363	-0,59
916,788	-0,62
917,213	-0,59
917,639	-0,65
918,064	-0,62
918,489	-0,63
918,914	-0,62
919,339	-0,62
919,764	-0,6
920,189	-0,59
920,614	-0,61
921,039	-0,61
921,464	-0,56
921,889	-0,59
922,314	-0,59
922,738	-0,62
923,163	-0,64
923,588	-0,64
924,013	-0,64
924,437	-0,63
924,862	-0,65
925,287	-0,62
925,711	-0,63
926,136	-0,65
926,561	-0,62
926,985	-0,61
927,41	-0,58
927,834	-0,55
928,259	-0,52
928,683	-0,51
929,108	-0,49
929,532	-0,5
929,956	-0,49
930,381	-0,48
930,805	-0,48
931,229	-0,48
931,653	-0,47
932,078	-0,46
932,502	-0,48
932,926	-0,49
933,35	-0,49
933,774	-0,49
934,198	-0,46
934,622	-0,45
935,046	-0,46
935,47	-0,46
935,894	-0,45
936,318	-0,44
936,742	-0,45
937,166	-0,45
937,59	-0,44
938,014	-0,45
938,437	-0,46
938,861	-0,49
939,285	-0,5
939,709	-0,49
940,132	-0,49
940,556	-0,5
940,98	-0,49
941,403	-0,48
941,827	-0,48
942,25	-0,49
942,674	-0,48
943,097	-0,48
943,521	-0,46
943,944	-0,47
944,368	-0,46
944,791	-0,45
945,214	-0,46
945,638	-0,47
946,061	-0,5
946,484	-0,51
946,907	-0,49
947,331	-0,5
947,754	-0,54
948,177	-0,51
948,6	-0,52
949,023	-0,52
949,446	-0,52
949,869	-0,51
950,292	-0,51
950,715	-0,49
951,138	-0,47
951,561	-0,45
951,984	-0,45
952,407	-0,44
952,83	-0,42
953,252	-0,38
953,675	-0,37
954,098	-0,38
954,521	-0,36
954,943	-0,35
955,366	-0,36
955,789	-0,33
956,211	-0,36
956,634	-0,36
957,056	-0,34
957,479	-0,35
957,902	-0,38
958,324	-0,38
958,746	-0,37
959,169	-0,38
959,591	-0,37
960,014	-0,38
960,436	-0,38
960,858	-0,38
961,281	-0,38
961,703	-0,39
962,125	-0,39
962,547	-0,37
962,969	-0,37
963,391	-0,38
963,814	-0,39
964,236	-0,38
964,658	-0,35
965,08	-0,36
965,502	-0,35
965,924	-0,32
966,346	-0,31
966,768	-0,31
967,189	-0,33
967,611	-0,33
968,033	-0,33
968,455	-0,3
968,877	-0,31
969,298	-0,32
969,72	-0,33
970,142	-0,32
970,563	-0,33
970,985	-0,32
971,407	-0,31
971,828	-0,29
972,25	-0,28
972,671	-0,26
973,093	-0,27
973,514	-0,25
973,936	-0,23
974,357	-0,22
974,778	-0,22
975,2	-0,21
975,621	-0,2
976,042	-0,18
976,464	-0,18
976,885	-0,16
977,306	-0,16
977,727	-0,15
978,148	-0,14
978,57	-0,13
978,991	-0,12
979,412	-0,1
979,833	-0,09
980,254	-0,09
980,675	-0,09
981,096	-0,08
981,517	-0,07
981,937	-0,06
982,358	-0,04
982,779	-0,03
983,2	-0,03
983,621	-0,03
984,042	-0,01
984,462	0
984,883	0,02
985,304	0,04
985,724	0,04
986,145	0,06
986,565	0,07
986,986	0,08
987,407	0,09
987,827	0,11
988,248	0,13
988,668	0,14
989,088	0,15
989,509	0,17
989,929	0,18
990,35	0,19
990,77	0,2
991,19	0,21
991,61	0,23
992,031	0,24
992,451	0,25
992,871	0,26
993,291	0,27
993,711	0,28
994,131	0,29
994,551	0,3
994,971	0,31
995,391	0,31
995,811	0,32
996,231	0,33
996,651	0,34
997,071	0,34
997,491	0,35
997,911	0,36
998,331	0,37
998,75	0,37
999,17	0,38
999,59	0,38
1000,009	0,39
1000,429	0,4
1000,849	0,4
1001,268	0,41
1001,688	0,41
1002,107	0,41
1002,527	0,42
1002,946	0,42
1003,366	0,43
1003,785	0,43
1004,205	0,43
1004,624	0,44
1005,044	0,44
1005,463	0,44
1005,882	0,44
1006,301	0,44
1006,721	0,45
1007,14	0,45
1007,559	0,45
1007,978	0,45
1008,397	0,45
1008,816	0,45
1009,235	0,45
1009,655	0,45
1010,074	0,45
1010,492	0,45
1010,911	0,45
1011,33	0,45
1011,749	0,45
1012,168	0,45
1012,587	0,45
1013,006	0,45
1013,425	0,45
1013,843	0,45
1014,262	0,45
1014,681	0,45
1015,099	0,45
1015,518	0,44
1015,937	0,44
1016,355	0,44
1016,774	0,44
1017,192	0,44
1017,611	0,44
1018,029	0,44
1018,448	0,44
1018,866	0,44
1019,285	0,44
1019,703	0,44
1020,121	0,44
1020,54	0,44
1020,958	0,44
1021,376	0,44
1021,794	0,44
1022,213	0,44
1022,631	0,44
1023,049	0,44
1023,467	0,43
1023,885	0,43
1024,303	0,43
1024,721	0,43
1025,139	0,43
1025,557	0,43
1025,975	0,43
1026,393	0,43
1026,811	0,43
1027,229	0,43
1027,647	0,43
1028,065	0,43
1028,482	0,42
1028,9	0,42
1029,318	0,42
1029,735	0,42
1030,153	0,42
1030,571	0,42
1030,988	0,42
1031,406	0,42
1031,823	0,42
1032,241	0,42
1032,659	0,42
1033,076	0,42
1033,493	0,43
1033,911	0,43
1034,328	0,43
1034,746	0,43
1035,163	0,43
1035,58	0,43
1035,997	0,43
1036,415	0,43
1036,832	0,43
1037,249	0,43
1037,666	0,43
1038,083	0,43
1038,501	0,43
1038,918	0,43
1039,335	0,43
1039,752	0,43
1040,169	0,43
1040,586	0,43
1041,003	0,43
1041,419	0,43
1041,836	0,43
1042,253	0,43
1042,67	0,43
1043,087	0,43
1043,504	0,43
1043,92	0,43
1044,337	0,43
1044,754	0,43
1045,17	0,43
1045,587	0,43
1046,004	0,43
1046,42	0,43
1046,837	0,43
1047,253	0,43
1047,67	0,43
1048,086	0,43
1048,503	0,43
1048,919	0,43
1049,335	0,43
1049,752	0,43
1050,168	0,43
1050,584	0,43
1051,001	0,43
1051,417	0,43
1051,833	0,43
1052,249	0,43
1052,665	0,43
1053,081	0,43
1053,497	0,43
1053,914	0,43
1054,33	0,44
1054,746	0,44
1055,162	0,44
1055,578	0,44
1055,993	0,44
1056,409	0,44
1056,825	0,44
1057,241	0,44
1057,657	0,44
1058,073	0,44
1058,488	0,44
1058,904	0,44
1059,32	0,44
1059,736	0,44
1060,151	0,44
1060,567	0,44
1060,982	0,44
1061,398	0,44
1061,813	0,44
1062,229	0,44
1062,644	0,43
1063,06	0,43
1063,475	0,43
1063,891	0,43
1064,306	0,43
1064,721	0,43
1065,137	0,43
1065,552	0,43
1065,967	0,43
1066,382	0,43
1066,798	0,43
1067,213	0,43
1067,628	0,43
1068,043	0,43
1068,458	0,43
1068,873	0,43
1069,288	0,43
1069,703	0,43
1070,118	0,43
1070,533	0,43
1070,948	0,43
1071,363	0,43
1071,778	0,43
1072,193	0,43
1072,607	0,43
1073,022	0,43
1073,437	0,43
1073,852	0,43
1074,266	0,43
1074,681	0,43
1075,096	0,43
1075,51	0,43
1075,925	0,43
1076,339	0,43
1076,754	0,43
1077,168	0,43
1077,583	0,43
1077,997	0,43
1078,412	0,43
1078,826	0,43
1079,24	0,43
1079,655	0,42
1080,069	0,43
1080,483	0,42
1080,897	0,42
1081,312	0,42
1081,726	0,42
1082,14	0,42
1082,554	0,42
1082,968	0,42
1083,382	0,42
1083,796	0,42
1084,21	0,42
1084,624	0,42
1085,038	0,42
1085,452	0,42
1085,866	0,41
1086,28	0,41
1086,694	0,41
1087,108	0,41
1087,521	0,41
1087,935	0,4
1088,349	0,4
1088,763	0,4
1089,176	0,4
1089,59	0,39
1090,004	0,39
1090,417	0,39
1090,831	0,39
1091,244	0,38
1091,658	0,38
1092,071	0,38
1092,485	0,38
1092,898	0,37
1093,312	0,37
1093,725	0,37
1094,138	0,36
1094,552	0,36
1094,965	0,36
1095,378	0,36
1095,791	0,35
1096,205	0,35
1096,618	0,35
1097,031	0,34
1097,444	0,34
1097,857	0,33
1098,27	0,33
1098,683	0,33
1099,096	0,32
1099,509	0,32
1099,922	0,31
1100,335	0,31
1100,748	0,3
1101,161	0,3
1101,574	0,29
1101,986	0,29
1102,399	0,29
1102,812	0,29
1103,225	0,29
1103,637	0,29
1104,05	0,28
1104,463	0,28
1104,875	0,28
1105,288	0,28
1105,7	0,28
1106,113	0,27
1106,525	0,27
1106,938	0,27
1107,35	0,26
1107,763	0,25
1108,175	0,25
1108,588	0,24
1109	0,24
1109,412	0,23
1109,824	0,23
1110,237	0,23
1110,649	0,23
1111,061	0,21
