Data from 18C-808nm-8A-cont_Absorbance__248__01677.txt Node

Date: Mon Jul 17 17:26:55 CEST 2023
User: Laser008
Spectrometer: MAYP115816
Trigger mode: 0
Integration Time (sec): 2,500000E-1
Scans to average: 10
Electric dark correction enabled: true
Nonlinearity correction enabled: true
Boxcar width: 5
XAxis mode: Wavelengths
Number of Pixels in Spectrum: 2068
>>>>>Begin Spectral Data<<<<<
198,914	-0,75
199,384	-0,51
199,855	-0,38
200,325	-0,29
200,796	-0,25
201,266	-0,2
201,737	-0,18
202,207	-0,16
202,677	-0,15
203,147	-0,13
203,618	-0,1
204,088	-0,09
204,558	-0,08
205,028	-0,07
205,498	-0,08
205,968	-0,08
206,439	-0,09
206,909	-0,09
207,379	-0,09
207,849	-0,1
208,319	-0,11
208,789	-0,12
209,258	-0,11
209,728	-0,12
210,198	-0,12
210,668	-0,11
211,138	-0,11
211,608	-0,11
212,077	-0,11
212,547	-0,11
213,017	-0,11
213,486	-0,1
213,956	-0,11
214,426	-0,12
214,895	-0,11
215,365	-0,13
215,834	-0,13
216,304	-0,14
216,773	-0,15
217,243	-0,16
217,712	-0,17
218,181	-0,17
218,651	-0,17
219,12	-0,17
219,589	-0,17
220,058	-0,16
220,528	-0,17
220,997	-0,18
221,466	-0,19
221,935	-0,19
222,404	-0,18
222,873	-0,17
223,342	-0,17
223,812	-0,18
224,281	-0,17
224,749	-0,18
225,218	-0,19
225,687	-0,19
226,156	-0,17
226,625	-0,16
227,094	-0,16
227,563	-0,15
228,031	-0,17
228,5	-0,16
228,969	-0,17
229,438	-0,16
229,906	-0,16
230,375	-0,15
230,844	-0,14
231,312	-0,14
231,781	-0,15
232,249	-0,14
232,718	-0,15
233,186	-0,13
233,655	-0,14
234,123	-0,13
234,591	-0,14
235,06	-0,15
235,528	-0,15
235,996	-0,15
236,465	-0,15
236,933	-0,15
237,401	-0,15
237,869	-0,14
238,337	-0,14
238,805	-0,13
239,274	-0,13
239,742	-0,12
240,21	-0,1
240,678	-0,09
241,146	-0,09
241,614	-0,08
242,081	-0,07
242,549	-0,07
243,017	-0,08
243,485	-0,08
243,953	-0,08
244,421	-0,08
244,888	-0,08
245,356	-0,08
245,824	-0,08
246,291	-0,09
246,759	-0,09
247,227	-0,09
247,694	-0,08
248,162	-0,08
248,629	-0,07
249,097	-0,08
249,564	-0,08
250,032	-0,09
250,499	-0,1
250,967	-0,1
251,434	-0,12
251,901	-0,12
252,369	-0,12
252,836	-0,13
253,303	-0,15
253,77	-0,16
254,237	-0,15
254,705	-0,15
255,172	-0,14
255,639	-0,14
256,106	-0,16
256,573	-0,15
257,04	-0,16
257,507	-0,16
257,974	-0,16
258,441	-0,14
258,908	-0,15
259,375	-0,17
259,841	-0,18
260,308	-0,18
260,775	-0,18
261,242	-0,17
261,709	-0,17
262,175	-0,18
262,642	-0,17
263,109	-0,18
263,575	-0,2
264,042	-0,18
264,508	-0,17
264,975	-0,19
265,441	-0,2
265,908	-0,2
266,374	-0,19
266,841	-0,19
267,307	-0,19
267,773	-0,18
268,24	-0,18
268,706	-0,17
269,172	-0,17
269,639	-0,2
270,105	-0,17
270,571	-0,18
271,037	-0,17
271,503	-0,2
271,969	-0,2
272,435	-0,19
272,902	-0,22
273,368	-0,23
273,834	-0,24
274,3	-0,25
274,765	-0,24
275,231	-0,25
275,697	-0,24
276,163	-0,24
276,629	-0,23
277,095	-0,24
277,56	-0,23
278,026	-0,22
278,492	-0,21
278,958	-0,21
279,423	-0,2
279,889	-0,2
280,354	-0,21
280,82	-0,21
281,286	-0,22
281,751	-0,22
282,217	-0,21
282,682	-0,21
283,147	-0,21
283,613	-0,21
284,078	-0,21
284,544	-0,22
285,009	-0,22
285,474	-0,21
285,939	-0,23
286,405	-0,21
286,87	-0,21
287,335	-0,21
287,8	-0,2
288,265	-0,2
288,73	-0,21
289,195	-0,23
289,66	-0,23
290,125	-0,22
290,59	-0,22
291,055	-0,21
291,52	-0,22
291,985	-0,23
292,45	-0,24
292,915	-0,24
293,38	-0,24
293,844	-0,23
294,309	-0,21
294,774	-0,2
295,239	-0,21
295,703	-0,21
296,168	-0,2
296,632	-0,19
297,097	-0,17
297,562	-0,16
298,026	-0,17
298,491	-0,17
298,955	-0,17
299,419	-0,15
299,884	-0,16
300,348	-0,14
300,813	-0,13
301,277	-0,14
301,741	-0,15
302,205	-0,14
302,67	-0,13
303,134	-0,12
303,598	-0,13
304,062	-0,11
304,526	-0,12
304,99	-0,12
305,454	-0,13
305,919	-0,12
306,383	-0,12
306,847	-0,12
307,31	-0,14
307,774	-0,15
308,238	-0,15
308,702	-0,14
309,166	-0,16
309,63	-0,16
310,094	-0,14
310,557	-0,13
311,021	-0,12
311,485	-0,12
311,948	-0,12
312,412	-0,11
312,876	-0,11
313,339	-0,12
313,803	-0,12
314,266	-0,11
314,73	-0,12
315,193	-0,12
315,657	-0,12
316,12	-0,12
316,584	-0,1
317,047	-0,1
317,51	-0,08
317,973	-0,08
318,437	-0,06
318,9	-0,05
319,363	-0,04
319,826	-0,03
320,29	-0,04
320,753	-0,04
321,216	-0,04
321,679	-0,04
322,142	-0,04
322,605	-0,05
323,068	-0,05
323,531	-0,05
323,994	-0,05
324,457	-0,04
324,92	-0,04
325,382	-0,02
325,845	-0,02
326,308	-0,01
326,771	-0,01
327,233	-0
327,696	0,01
328,159	0,01
328,622	0,02
329,084	0,02
329,547	0,02
330,009	0,02
330,472	0,04
330,934	0,04
331,397	0,04
331,859	0,05
332,322	0,05
332,784	0,06
333,246	0,06
333,709	0,06
334,171	0,06
334,633	0,07
335,096	0,07
335,558	0,07
336,02	0,06
336,482	0,07
336,944	0,08
337,406	0,09
337,868	0,09
338,331	0,09
338,793	0,1
339,255	0,1
339,717	0,1
340,178	0,11
340,64	0,12
341,102	0,13
341,564	0,14
342,026	0,15
342,488	0,16
342,949	0,17
343,411	0,2
343,873	0,22
344,335	0,25
344,796	0,29
345,258	0,34
345,719	0,37
346,181	0,41
346,643	0,45
347,104	0,49
347,566	0,52
348,027	0,55
348,488	0,56
348,95	0,58
349,411	0,6
349,873	0,62
350,334	0,64
350,795	0,65
351,256	0,66
351,718	0,67
352,179	0,67
352,64	0,68
353,101	0,68
353,562	0,68
354,023	0,68
354,484	0,69
354,945	0,69
355,406	0,69
355,867	0,69
356,328	0,7
356,789	0,7
357,25	0,7
357,711	0,7
358,172	0,7
358,633	0,7
359,093	0,71
359,554	0,71
360,015	0,71
360,476	0,71
360,936	0,71
361,397	0,71
361,858	0,71
362,318	0,71
362,779	0,71
363,239	0,71
363,7	0,71
364,16	0,71
364,621	0,72
365,081	0,72
365,541	0,71
366,002	0,71
366,462	0,71
366,922	0,71
367,383	0,71
367,843	0,71
368,303	0,71
368,763	0,71
369,223	0,71
369,684	0,71
370,144	0,72
370,604	0,72
371,064	0,72
371,524	0,72
371,984	0,71
372,444	0,71
372,904	0,71
373,363	0,71
373,823	0,71
374,283	0,71
374,743	0,71
375,203	0,71
375,663	0,71
376,122	0,71
376,582	0,71
377,042	0,71
377,501	0,71
377,961	0,71
378,42	0,71
378,88	0,71
379,34	0,71
379,799	0,71
380,259	0,71
380,718	0,71
381,177	0,71
381,637	0,71
382,096	0,71
382,555	0,71
383,015	0,71
383,474	0,71
383,933	0,71
384,393	0,71
384,852	0,71
385,311	0,71
385,77	0,71
386,229	0,7
386,688	0,7
387,147	0,7
387,606	0,7
388,065	0,7
388,524	0,7
388,983	0,7
389,442	0,7
389,901	0,7
390,36	0,7
390,819	0,7
391,277	0,7
391,736	0,7
392,195	0,7
392,654	0,7
393,112	0,7
393,571	0,7
394,03	0,7
394,488	0,7
394,947	0,7
395,405	0,7
395,864	0,7
396,322	0,7
396,781	0,7
397,239	0,7
397,698	0,7
398,156	0,7
398,614	0,7
399,073	0,7
399,531	0,7
399,989	0,7
400,447	0,7
400,905	0,69
401,364	0,69
401,822	0,69
402,28	0,69
402,738	0,69
403,196	0,69
403,654	0,69
404,112	0,69
404,57	0,69
405,028	0,69
405,486	0,69
405,944	0,69
406,402	0,69
406,859	0,69
407,317	0,69
407,775	0,69
408,233	0,69
408,691	0,69
409,148	0,69
409,606	0,69
410,064	0,69
410,521	0,69
410,979	0,69
411,436	0,69
411,894	0,69
412,351	0,69
412,809	0,69
413,266	0,69
413,724	0,69
414,181	0,69
414,638	0,69
415,096	0,69
415,553	0,69
416,01	0,69
416,467	0,69
416,925	0,69
417,382	0,69
417,839	0,69
418,296	0,69
418,753	0,69
419,21	0,68
419,667	0,69
420,124	0,68
420,581	0,68
421,038	0,68
421,495	0,68
421,952	0,68
422,409	0,68
422,866	0,68
423,322	0,68
423,779	0,68
424,236	0,69
424,693	0,68
425,149	0,69
425,606	0,69
426,063	0,69
426,519	0,69
426,976	0,69
427,433	0,68
427,889	0,68
428,346	0,68
428,802	0,68
429,258	0,68
429,715	0,68
430,171	0,68
430,628	0,68
431,084	0,68
431,54	0,68
431,997	0,68
432,453	0,68
432,909	0,68
433,365	0,68
433,821	0,68
434,277	0,68
434,734	0,68
435,19	0,68
435,646	0,68
436,102	0,68
436,558	0,68
437,014	0,68
437,47	0,68
437,925	0,68
438,381	0,68
438,837	0,68
439,293	0,68
439,749	0,68
440,205	0,68
440,66	0,68
441,116	0,68
441,572	0,68
442,027	0,68
442,483	0,68
442,939	0,68
443,394	0,68
443,85	0,68
444,305	0,68
444,761	0,68
445,216	0,68
445,672	0,68
446,127	0,68
446,582	0,68
447,038	0,68
447,493	0,68
447,948	0,68
448,403	0,68
448,859	0,69
449,314	0,69
449,769	0,69
450,224	0,69
450,679	0,69
451,134	0,69
451,589	0,69
452,044	0,69
452,499	0,69
452,954	0,69
453,409	0,69
453,864	0,69
454,319	0,69
454,774	0,69
455,229	0,69
455,684	0,69
456,138	0,69
456,593	0,69
457,048	0,69
457,503	0,69
457,957	0,69
458,412	0,69
458,866	0,69
459,321	0,69
459,776	0,69
460,23	0,69
460,685	0,69
461,139	0,69
461,593	0,69
462,048	0,69
462,502	0,69
462,957	0,7
463,411	0,7
463,865	0,7
464,319	0,7
464,774	0,7
465,228	0,7
465,682	0,7
466,136	0,7
466,59	0,7
467,044	0,7
467,499	0,7
467,953	0,7
468,407	0,7
468,861	0,71
469,315	0,71
469,768	0,71
470,222	0,71
470,676	0,71
471,13	0,71
471,584	0,71
472,038	0,71
472,491	0,71
472,945	0,71
473,399	0,71
473,852	0,71
474,306	0,71
474,76	0,72
475,213	0,72
475,667	0,72
476,12	0,72
476,574	0,72
477,027	0,72
477,481	0,72
477,934	0,72
478,388	0,73
478,841	0,73
479,294	0,73
479,748	0,73
480,201	0,73
480,654	0,73
481,107	0,74
481,561	0,74
482,014	0,74
482,467	0,74
482,92	0,74
483,373	0,74
483,826	0,74
484,279	0,75
484,732	0,75
485,185	0,75
485,638	0,75
486,091	0,75
486,544	0,75
486,997	0,76
487,449	0,76
487,902	0,76
488,355	0,76
488,808	0,77
489,26	0,77
489,713	0,77
490,166	0,77
490,618	0,78
491,071	0,78
491,523	0,78
491,976	0,78
492,429	0,79
492,881	0,79
493,333	0,79
493,786	0,79
494,238	0,8
494,691	0,8
495,143	0,8
495,595	0,81
496,048	0,81
496,5	0,81
496,952	0,82
497,404	0,82
497,856	0,82
498,309	0,83
498,761	0,83
499,213	0,83
499,665	0,84
500,117	0,84
500,569	0,84
501,021	0,85
501,473	0,85
501,925	0,85
502,377	0,86
502,828	0,86
503,28	0,87
503,732	0,87
504,184	0,87
504,636	0,88
505,087	0,88
505,539	0,88
505,991	0,89
506,442	0,89
506,894	0,89
507,345	0,9
507,797	0,9
508,249	0,9
508,7	0,91
509,151	0,91
509,603	0,91
510,054	0,92
510,506	0,92
510,957	0,93
511,408	0,93
511,86	0,93
512,311	0,94
512,762	0,94
513,213	0,94
513,665	0,95
514,116	0,95
514,567	0,95
515,018	0,95
515,469	0,96
515,92	0,96
516,371	0,96
516,822	0,97
517,273	0,97
517,724	0,97
518,175	0,97
518,626	0,98
519,076	0,98
519,527	0,98
519,978	0,98
520,429	0,99
520,88	0,99
521,33	0,99
521,781	0,99
522,232	0,99
522,682	0,99
523,133	1
523,583	1
524,034	1
524,484	1
524,935	1
525,385	1
525,836	1
526,286	1
526,736	1
527,187	1
527,637	1
528,087	1
528,538	1
528,988	1
529,438	1
529,888	1
530,338	1
530,788	1
531,238	1
531,688	0,99
532,139	0,99
532,589	0,99
533,038	0,99
533,488	0,99
533,938	0,99
534,388	0,99
534,838	0,98
535,288	0,98
535,738	0,98
536,187	0,97
536,637	0,97
537,087	0,97
537,537	0,96
537,986	0,96
538,436	0,96
538,885	0,95
539,335	0,95
539,785	0,94
540,234	0,94
540,684	0,93
541,133	0,93
541,582	0,93
542,032	0,92
542,481	0,92
542,931	0,91
543,38	0,91
543,829	0,9
544,278	0,9
544,728	0,9
545,177	0,89
545,626	0,89
546,075	0,89
546,524	0,88
546,973	0,88
547,422	0,87
547,871	0,87
548,32	0,87
548,769	0,87
549,218	0,86
549,667	0,86
550,116	0,86
550,565	0,85
551,014	0,85
551,463	0,84
551,911	0,84
552,36	0,84
552,809	0,83
553,258	0,83
553,706	0,82
554,155	0,82
554,603	0,82
555,052	0,81
555,501	0,81
555,949	0,8
556,398	0,8
556,846	0,8
557,294	0,79
557,743	0,79
558,191	0,78
558,64	0,78
559,088	0,77
559,536	0,77
559,985	0,76
560,433	0,76
560,881	0,76
561,329	0,75
561,777	0,75
562,225	0,75
562,674	0,74
563,122	0,74
563,57	0,74
564,018	0,73
564,466	0,73
564,914	0,72
565,362	0,72
565,809	0,72
566,257	0,71
566,705	0,71
567,153	0,71
567,601	0,7
568,048	0,7
568,496	0,7
568,944	0,69
569,392	0,69
569,839	0,69
570,287	0,68
570,734	0,68
571,182	0,68
571,63	0,67
572,077	0,67
572,525	0,67
572,972	0,66
573,419	0,66
573,867	0,66
574,314	0,65
574,761	0,65
575,209	0,65
575,656	0,64
576,103	0,64
576,551	0,64
576,998	0,64
577,445	0,63
577,892	0,63
578,339	0,63
578,786	0,63
579,233	0,62
579,68	0,62
580,127	0,62
580,574	0,62
581,021	0,61
581,468	0,61
581,915	0,61
582,362	0,61
582,809	0,6
583,255	0,6
583,702	0,6
584,149	0,6
584,596	0,6
585,042	0,59
585,489	0,59
585,936	0,59
586,382	0,59
586,829	0,58
587,275	0,58
587,722	0,58
588,168	0,58
588,615	0,58
589,061	0,57
589,508	0,57
589,954	0,57
590,4	0,57
590,847	0,57
591,293	0,57
591,739	0,56
592,185	0,56
592,632	0,56
593,078	0,56
593,524	0,56
593,97	0,56
594,416	0,56
594,862	0,56
595,308	0,55
595,754	0,55
596,2	0,55
596,646	0,55
597,092	0,55
597,538	0,55
597,984	0,55
598,43	0,54
598,876	0,54
599,321	0,54
599,767	0,54
600,213	0,54
600,659	0,54
601,104	0,54
601,55	0,54
601,995	0,53
602,441	0,53
602,887	0,53
603,332	0,53
603,778	0,53
604,223	0,53
604,668	0,53
605,114	0,53
605,559	0,53
606,005	0,53
606,45	0,52
606,895	0,52
607,341	0,52
607,786	0,52
608,231	0,52
608,676	0,51
609,121	0,51
609,566	0,5
610,012	0,5
610,457	0,5
610,902	0,49
611,347	0,49
611,792	0,49
612,237	0,49
612,682	0,49
613,127	0,49
613,571	0,49
614,016	0,49
614,461	0,49
614,906	0,5
615,351	0,5
615,795	0,5
616,24	0,5
616,685	0,5
617,129	0,5
617,574	0,5
618,019	0,5
618,463	0,5
618,908	0,5
619,352	0,5
619,797	0,5
620,241	0,49
620,686	0,49
621,13	0,49
621,574	0,49
622,019	0,49
622,463	0,49
622,907	0,49
623,352	0,49
623,796	0,49
624,24	0,49
624,684	0,49
625,128	0,48
625,572	0,48
626,016	0,48
626,461	0,48
626,905	0,48
627,349	0,48
627,793	0,48
628,236	0,48
628,68	0,48
629,124	0,48
629,568	0,48
630,012	0,48
630,456	0,48
630,9	0,48
631,343	0,48
631,787	0,48
632,231	0,48
632,674	0,48
633,118	0,48
633,562	0,48
634,005	0,48
634,449	0,48
634,892	0,48
635,336	0,48
635,779	0,48
636,223	0,48
636,666	0,48
637,109	0,48
637,553	0,48
637,996	0,48
638,439	0,48
638,883	0,48
639,326	0,48
639,769	0,48
640,212	0,48
640,655	0,47
641,099	0,47
641,542	0,47
641,985	0,47
642,428	0,47
642,871	0,47
643,314	0,47
643,757	0,47
644,2	0,47
644,643	0,47
645,085	0,47
645,528	0,47
645,971	0,47
646,414	0,47
646,857	0,47
647,299	0,46
647,742	0,46
648,185	0,46
648,627	0,46
649,07	0,46
649,513	0,46
649,955	0,46
650,398	0,46
650,84	0,46
651,283	0,46
651,725	0,46
652,168	0,47
652,61	0,47
653,052	0,47
653,495	0,46
653,937	0,38
654,379	0,32
654,821	0,33
655,264	0,33
655,706	0,33
656,148	0,33
656,59	0,33
657,032	0,33
657,474	0,33
657,916	0,33
658,358	0,32
658,8	0,38
659,242	0,46
659,684	0,46
660,126	0,46
660,568	0,46
661,01	0,46
661,452	0,46
661,894	0,46
662,335	0,46
662,777	0,46
663,219	0,46
663,661	0,46
664,102	0,45
664,544	0,45
664,985	0,45
665,427	0,45
665,869	0,45
666,31	0,45
666,752	0,45
667,193	0,45
667,634	0,45
668,076	0,45
668,517	0,45
668,959	0,46
669,4	0,46
669,841	0,46
670,282	0,46
670,724	0,46
671,165	0,46
671,606	0,46
672,047	0,46
672,488	0,46
672,929	0,46
673,37	0,46
673,811	0,45
674,252	0,45
674,693	0,45
675,134	0,45
675,575	0,45
676,016	0,45
676,457	0,45
676,898	0,45
677,339	0,45
677,78	0,44
678,22	0,44
678,661	0,44
679,102	0,44
679,542	0,44
679,983	0,44
680,424	0,45
680,864	0,45
681,305	0,45
681,745	0,45
682,186	0,45
682,626	0,45
683,067	0,45
683,507	0,45
683,948	0,45
684,388	0,45
684,828	0,45
685,269	0,45
685,709	0,45
686,149	0,44
686,589	0,44
687,029	0,44
687,47	0,44
687,91	0,44
688,35	0,44
688,79	0,44
689,23	0,44
689,67	0,44
690,11	0,44
690,55	0,44
690,99	0,44
691,43	0,44
691,87	0,44
692,31	0,44
692,749	0,43
693,189	0,43
693,629	0,43
694,069	0,43
694,508	0,43
694,948	0,43
695,388	0,43
695,827	0,43
696,267	0,43
696,706	0,43
697,146	0,43
697,586	0,43
698,025	0,43
698,464	0,44
698,904	0,44
699,343	0,44
699,783	0,44
700,222	0,44
700,661	0,44
701,101	0,44
701,54	0,44
701,979	0,44
702,418	0,44
702,857	0,44
703,297	0,44
703,736	0,44
704,175	0,44
704,614	0,44
705,053	0,44
705,492	0,44
705,931	0,44
706,37	0,44
706,809	0,43
707,248	0,43
707,687	0,43
708,125	0,43
708,564	0,43
709,003	0,43
709,442	0,43
709,88	0,43
710,319	0,43
710,758	0,43
711,196	0,43
711,635	0,43
712,074	0,43
712,512	0,43
712,951	0,42
713,389	0,42
713,828	0,42
714,266	0,42
714,705	0,42
715,143	0,42
715,581	0,42
716,02	0,42
716,458	0,42
716,896	0,42
717,334	0,42
717,773	0,42
718,211	0,42
718,649	0,42
719,087	0,42
719,525	0,42
719,963	0,42
720,401	0,42
720,839	0,42
721,277	0,43
721,715	0,43
722,153	0,43
722,591	0,42
723,029	0,42
723,467	0,42
723,905	0,42
724,342	0,42
724,78	0,42
725,218	0,42
725,656	0,42
726,093	0,42
726,531	0,42
726,969	0,42
727,406	0,42
727,844	0,42
728,281	0,42
728,719	0,42
729,156	0,42
729,594	0,42
730,031	0,42
730,469	0,42
730,906	0,42
731,343	0,42
731,781	0,42
732,218	0,42
732,655	0,42
733,092	0,42
733,53	0,42
733,967	0,41
734,404	0,41
734,841	0,41
735,278	0,41
735,715	0,41
736,152	0,41
736,589	0,41
737,026	0,41
737,463	0,41
737,9	0,41
738,337	0,41
738,774	0,41
739,211	0,41
739,647	0,41
740,084	0,41
740,521	0,41
740,958	0,41
741,394	0,41
741,831	0,41
742,268	0,41
742,704	0,41
743,141	0,41
743,577	0,41
744,014	0,41
744,45	0,41
744,887	0,41
745,323	0,4
745,76	0,4
746,196	0,4
746,632	0,4
747,069	0,4
747,505	0,4
747,941	0,4
748,378	0,4
748,814	0,4
749,25	0,4
749,686	0,4
750,122	0,4
750,558	0,4
750,994	0,4
751,43	0,41
751,866	0,41
752,302	0,41
752,738	0,41
753,174	0,41
753,61	0,41
754,046	0,41
754,482	0,41
754,918	0,41
755,354	0,41
755,789	0,41
756,225	0,41
756,661	0,41
757,096	0,41
757,532	0,4
757,968	0,4
758,403	0,4
758,839	0,4
759,274	0,4
759,71	0,39
760,145	0,39
760,581	0,38
761,016	0,38
761,452	0,37
761,887	0,37
762,322	0,36
762,758	0,36
763,193	0,36
763,628	0,35
764,063	0,34
764,499	0,34
764,934	0,33
765,369	0,32
765,804	0,32
766,239	0,31
766,674	0,31
767,109	0,3
767,544	0,29
767,979	0,28
768,414	0,27
768,849	0,26
769,284	0,25
769,719	0,24
770,154	0,24
770,588	0,22
771,023	0,21
771,458	0,2
771,893	0,19
772,327	0,18
772,762	0,17
773,197	0,16
773,631	0,16
774,066	0,15
774,5	0,14
774,935	0,13
775,369	0,12
775,804	0,12
776,238	0,11
776,673	0,1
777,107	0,09
777,541	0,09
777,976	0,07
778,41	0,06
778,844	0,05
779,279	0,04
779,713	0,03
780,147	0,02
780,581	0,01
781,015	0
781,449	-0,01
781,883	-0,01
782,317	-0,03
782,751	-0,05
783,185	-0,05
783,619	-0,06
784,053	-0,07
784,487	-0,07
784,921	-0,08
785,355	-0,09
785,789	-0,1
786,223	-0,11
786,656	-0,12
787,09	-0,13
787,524	-0,13
787,957	-0,14
788,391	-0,16
788,825	-0,17
789,258	-0,19
789,692	-0,2
790,125	-0,21
790,559	-0,23
790,992	-0,25
791,426	-0,28
791,859	-0,29
792,293	-0,32
792,726	-0,34
793,159	-0,36
793,593	-0,38
794,026	-0,4
794,459	-0,43
794,892	-0,46
795,326	-0,48
795,759	-0,52
796,192	-0,56
796,625	-0,6
797,058	-0,63
797,491	-0,67
797,924	-0,71
798,357	-0,76
798,79	-0,8
799,223	-0,84
799,656	-0,9
800,089	-0,95
800,522	-0,99
800,955	-1,04
801,387	-1,09
801,82	-1,15
802,253	-1,21
802,686	-1,29
803,118	-1,35
803,551	-1,4
803,984	-1,44
804,416	-1,48
804,849	-1,51
805,281	-1,63
805,714	-1,97
806,146	-2,43
806,579	-2,7
807,011	-2,86
807,444	-2,96
807,876	-3,05
808,308	-3,09
808,741	-3,12
809,173	-3,17
809,605	-3,19
810,037	-3,26
810,47	-3,19
810,902	-2,99
811,334	-2,85
811,766	-2,69
812,198	-2,46
812,63	-2,03
813,062	-1,8
813,494	-1,7
813,926	-1,61
814,358	-1,56
814,79	-1,48
815,222	-1,42
815,654	-1,37
816,086	-1,31
816,518	-1,25
816,949	-1,2
817,381	-1,15
817,813	-1,14
818,245	-1,1
818,676	-1,06
819,108	-1,02
819,54	-1,01
819,971	-0,98
820,403	-0,93
820,834	-0,92
821,266	-0,88
821,697	-0,86
822,129	-0,84
822,56	-0,82
822,991	-0,8
823,423	-0,77
823,854	-0,76
824,286	-0,73
824,717	-0,72
825,148	-0,7
825,579	-0,69
826,01	-0,68
826,442	-0,67
826,873	-0,65
827,304	-0,61
827,735	-0,61
828,166	-0,61
828,597	-0,61
829,028	-0,6
829,459	-0,61
829,89	-0,61
830,321	-0,57
830,752	-0,58
831,183	-0,57
831,613	-0,56
832,044	-0,56
832,475	-0,55
832,906	-0,56
833,336	-0,56
833,767	-0,57
834,198	-0,56
834,628	-0,54
835,059	-0,57
835,49	-0,58
835,92	-0,54
836,351	-0,54
836,781	-0,54
837,212	-0,55
837,642	-0,55
838,072	-0,53
838,503	-0,54
838,933	-0,51
839,364	-0,51
839,794	-0,48
840,224	-0,47
840,654	-0,52
841,085	-0,53
841,515	-0,5
841,945	-0,51
842,375	-0,47
842,805	-0,46
843,235	-0,44
843,665	-0,46
844,095	-0,44
844,525	-0,47
844,955	-0,48
845,385	-0,46
845,815	-0,44
846,245	-0,47
846,675	-0,48
847,105	-0,49
847,534	-0,5
847,964	-0,49
848,394	-0,47
848,824	-0,51
849,253	-0,49
849,683	-0,49
850,112	-0,5
850,542	-0,54
850,972	-0,53
851,401	-0,51
851,831	-0,49
852,26	-0,49
852,69	-0,52
853,119	-0,52
853,548	-0,52
853,978	-0,53
854,407	-0,52
854,836	-0,52
855,266	-0,5
855,695	-0,52
856,124	-0,53
856,553	-0,54
856,983	-0,56
857,412	-0,55
857,841	-0,56
858,27	-0,57
858,699	-0,56
859,128	-0,6
859,557	-0,61
859,986	-0,63
860,415	-0,61
860,844	-0,59
861,273	-0,59
861,702	-0,59
862,13	-0,57
862,559	-0,59
862,988	-0,56
863,417	-0,55
863,845	-0,54
864,274	-0,54
864,703	-0,53
865,131	-0,53
865,56	-0,54
865,989	-0,57
866,417	-0,54
866,846	-0,55
867,274	-0,55
867,703	-0,57
868,131	-0,58
868,559	-0,58
868,988	-0,6
869,416	-0,59
869,844	-0,61
870,273	-0,63
870,701	-0,61
871,129	-0,64
871,557	-0,66
871,986	-0,67
872,414	-0,69
872,842	-0,65
873,27	-0,63
873,698	-0,61
874,126	-0,65
874,554	-0,62
874,982	-0,62
875,41	-0,65
875,838	-0,61
876,266	-0,58
876,694	-0,57
877,122	-0,56
877,549	-0,62
877,977	-0,6
878,405	-0,62
878,833	-0,58
879,26	-0,57
879,688	-0,56
880,116	-0,54
880,543	-0,53
880,971	-0,52
881,399	-0,55
881,826	-0,56
882,254	-0,54
882,681	-0,57
883,109	-0,53
883,536	-0,54
883,963	-0,56
884,391	-0,55
884,818	-0,54
885,245	-0,58
885,673	-0,6
886,1	-0,57
886,527	-0,57
886,954	-0,54
887,381	-0,56
887,809	-0,58
888,236	-0,59
888,663	-0,59
889,09	-0,63
889,517	-0,65
889,944	-0,65
890,371	-0,63
890,798	-0,64
891,225	-0,64
891,652	-0,67
892,078	-0,64
892,505	-0,67
892,932	-0,63
893,359	-0,64
893,786	-0,63
894,212	-0,59
894,639	-0,6
895,066	-0,63
895,492	-0,57
895,919	-0,56
896,346	-0,56
896,772	-0,57
897,199	-0,54
897,625	-0,57
898,052	-0,53
898,478	-0,52
898,904	-0,54
899,331	-0,53
899,757	-0,56
900,183	-0,58
900,61	-0,56
901,036	-0,56
901,462	-0,56
901,888	-0,55
902,315	-0,54
902,741	-0,59
903,167	-0,58
903,593	-0,6
904,019	-0,59
904,445	-0,55
904,871	-0,58
905,297	-0,6
905,723	-0,6
906,149	-0,59
906,575	-0,59
907,001	-0,59
907,427	-0,56
907,852	-0,56
908,278	-0,57
908,704	-0,55
909,13	-0,55
909,555	-0,54
909,981	-0,53
910,407	-0,54
910,832	-0,54
911,258	-0,54
911,684	-0,54
912,109	-0,54
912,535	-0,56
912,96	-0,51
913,386	-0,55
913,811	-0,54
914,236	-0,56
914,662	-0,54
915,087	-0,57
915,512	-0,56
915,938	-0,58
916,363	-0,57
916,788	-0,59
917,213	-0,57
917,639	-0,62
918,064	-0,59
918,489	-0,59
918,914	-0,59
919,339	-0,6
919,764	-0,58
920,189	-0,58
920,614	-0,6
921,039	-0,6
921,464	-0,56
921,889	-0,58
922,314	-0,6
922,738	-0,63
923,163	-0,65
923,588	-0,64
924,013	-0,64
924,437	-0,63
924,862	-0,65
925,287	-0,6
925,711	-0,61
926,136	-0,62
926,561	-0,61
926,985	-0,59
927,41	-0,56
927,834	-0,54
928,259	-0,51
928,683	-0,48
929,108	-0,46
929,532	-0,47
929,956	-0,46
930,381	-0,45
930,805	-0,45
931,229	-0,44
931,653	-0,42
932,078	-0,42
932,502	-0,44
932,926	-0,45
933,35	-0,45
933,774	-0,45
934,198	-0,43
934,622	-0,43
935,046	-0,43
935,47	-0,44
935,894	-0,44
936,318	-0,44
936,742	-0,44
937,166	-0,45
937,59	-0,44
938,014	-0,46
938,437	-0,46
938,861	-0,48
939,285	-0,48
939,709	-0,48
940,132	-0,48
940,556	-0,49
940,98	-0,48
941,403	-0,47
941,827	-0,48
942,25	-0,49
942,674	-0,48
943,097	-0,47
943,521	-0,47
943,944	-0,48
944,368	-0,47
944,791	-0,46
945,214	-0,47
945,638	-0,49
946,061	-0,52
946,484	-0,52
946,907	-0,5
947,331	-0,51
947,754	-0,55
948,177	-0,52
948,6	-0,52
949,023	-0,52
949,446	-0,52
949,869	-0,5
950,292	-0,5
950,715	-0,47
951,138	-0,45
951,561	-0,44
951,984	-0,44
952,407	-0,42
952,83	-0,4
953,252	-0,36
953,675	-0,36
954,098	-0,38
954,521	-0,37
954,943	-0,35
955,366	-0,36
955,789	-0,35
956,211	-0,37
956,634	-0,37
957,056	-0,34
957,479	-0,36
957,902	-0,38
958,324	-0,37
958,746	-0,35
959,169	-0,36
959,591	-0,37
960,014	-0,37
960,436	-0,37
960,858	-0,36
961,281	-0,37
961,703	-0,39
962,125	-0,38
962,547	-0,36
962,969	-0,37
963,391	-0,38
963,814	-0,39
964,236	-0,37
964,658	-0,35
965,08	-0,36
965,502	-0,35
965,924	-0,32
966,346	-0,32
966,768	-0,31
967,189	-0,34
967,611	-0,33
968,033	-0,32
968,455	-0,3
968,877	-0,32
969,298	-0,32
969,72	-0,32
970,142	-0,32
970,563	-0,33
970,985	-0,31
971,407	-0,3
971,828	-0,28
972,25	-0,27
972,671	-0,26
973,093	-0,26
973,514	-0,24
973,936	-0,22
974,357	-0,21
974,778	-0,21
975,2	-0,2
975,621	-0,19
976,042	-0,17
976,464	-0,17
976,885	-0,16
977,306	-0,15
977,727	-0,15
978,148	-0,14
978,57	-0,13
978,991	-0,11
979,412	-0,1
979,833	-0,09
980,254	-0,09
980,675	-0,1
981,096	-0,09
981,517	-0,07
981,937	-0,07
982,358	-0,05
982,779	-0,03
983,2	-0,03
983,621	-0,03
984,042	-0,01
984,462	0,01
984,883	0,02
985,304	0,04
985,724	0,05
986,145	0,05
986,565	0,07
986,986	0,07
987,407	0,08
987,827	0,1
988,248	0,11
988,668	0,12
989,088	0,13
989,509	0,15
989,929	0,16
990,35	0,17
990,77	0,19
991,19	0,2
991,61	0,21
992,031	0,22
992,451	0,22
992,871	0,23
993,291	0,24
993,711	0,25
994,131	0,25
994,551	0,26
994,971	0,27
995,391	0,27
995,811	0,28
996,231	0,28
996,651	0,29
997,071	0,3
997,491	0,3
997,911	0,31
998,331	0,32
998,75	0,33
999,17	0,33
999,59	0,34
1000,009	0,34
1000,429	0,35
1000,849	0,35
1001,268	0,36
1001,688	0,36
1002,107	0,36
1002,527	0,37
1002,946	0,37
1003,366	0,37
1003,785	0,38
1004,205	0,38
1004,624	0,38
1005,044	0,38
1005,463	0,39
1005,882	0,39
1006,301	0,39
1006,721	0,39
1007,14	0,39
1007,559	0,39
1007,978	0,39
1008,397	0,39
1008,816	0,39
1009,235	0,39
1009,655	0,39
1010,074	0,39
1010,492	0,39
1010,911	0,39
1011,33	0,39
1011,749	0,39
1012,168	0,39
1012,587	0,39
1013,006	0,39
1013,425	0,39
1013,843	0,39
1014,262	0,39
1014,681	0,39
1015,099	0,39
1015,518	0,39
1015,937	0,38
1016,355	0,38
1016,774	0,38
1017,192	0,38
1017,611	0,38
1018,029	0,38
1018,448	0,38
1018,866	0,38
1019,285	0,38
1019,703	0,38
1020,121	0,38
1020,54	0,38
1020,958	0,38
1021,376	0,38
1021,794	0,38
1022,213	0,38
1022,631	0,38
1023,049	0,38
1023,467	0,38
1023,885	0,38
1024,303	0,38
1024,721	0,38
1025,139	0,38
1025,557	0,37
1025,975	0,37
1026,393	0,37
1026,811	0,37
1027,229	0,37
1027,647	0,37
1028,065	0,37
1028,482	0,37
1028,9	0,37
1029,318	0,37
1029,735	0,37
1030,153	0,37
1030,571	0,37
1030,988	0,37
1031,406	0,37
1031,823	0,37
1032,241	0,37
1032,659	0,37
1033,076	0,37
1033,493	0,37
1033,911	0,37
1034,328	0,37
1034,746	0,37
1035,163	0,37
1035,58	0,37
1035,997	0,37
1036,415	0,37
1036,832	0,37
1037,249	0,37
1037,666	0,37
1038,083	0,37
1038,501	0,37
1038,918	0,37
1039,335	0,37
1039,752	0,37
1040,169	0,37
1040,586	0,37
1041,003	0,37
1041,419	0,37
1041,836	0,37
1042,253	0,37
1042,67	0,37
1043,087	0,37
1043,504	0,37
1043,92	0,37
1044,337	0,37
1044,754	0,37
1045,17	0,37
1045,587	0,37
1046,004	0,37
1046,42	0,37
1046,837	0,37
1047,253	0,37
1047,67	0,37
1048,086	0,37
1048,503	0,37
1048,919	0,37
1049,335	0,37
1049,752	0,37
1050,168	0,37
1050,584	0,37
1051,001	0,37
1051,417	0,37
1051,833	0,37
1052,249	0,37
1052,665	0,37
1053,081	0,37
1053,497	0,37
1053,914	0,38
1054,33	0,38
1054,746	0,38
1055,162	0,38
1055,578	0,38
1055,993	0,38
1056,409	0,38
1056,825	0,38
1057,241	0,38
1057,657	0,38
1058,073	0,38
1058,488	0,38
1058,904	0,38
1059,32	0,38
1059,736	0,38
1060,151	0,38
1060,567	0,38
1060,982	0,38
1061,398	0,38
1061,813	0,38
1062,229	0,38
1062,644	0,38
1063,06	0,38
1063,475	0,37
1063,891	0,37
1064,306	0,37
1064,721	0,37
1065,137	0,37
1065,552	0,37
1065,967	0,37
1066,382	0,37
1066,798	0,37
1067,213	0,37
1067,628	0,37
1068,043	0,37
1068,458	0,37
1068,873	0,37
1069,288	0,37
1069,703	0,37
1070,118	0,37
1070,533	0,37
1070,948	0,37
1071,363	0,37
1071,778	0,37
1072,193	0,37
1072,607	0,37
1073,022	0,37
1073,437	0,37
1073,852	0,37
1074,266	0,37
1074,681	0,37
1075,096	0,37
1075,51	0,37
1075,925	0,37
1076,339	0,37
1076,754	0,37
1077,168	0,37
1077,583	0,37
1077,997	0,37
1078,412	0,37
1078,826	0,37
1079,24	0,37
1079,655	0,37
1080,069	0,37
1080,483	0,37
1080,897	0,37
1081,312	0,37
1081,726	0,37
1082,14	0,37
1082,554	0,37
1082,968	0,37
1083,382	0,37
1083,796	0,36
1084,21	0,37
1084,624	0,36
1085,038	0,36
1085,452	0,36
1085,866	0,36
1086,28	0,36
1086,694	0,36
1087,108	0,36
1087,521	0,35
1087,935	0,35
1088,349	0,35
1088,763	0,35
1089,176	0,34
1089,59	0,34
1090,004	0,34
1090,417	0,33
1090,831	0,33
1091,244	0,33
1091,658	0,32
1092,071	0,32
1092,485	0,32
1092,898	0,32
1093,312	0,32
1093,725	0,31
1094,138	0,31
1094,552	0,31
1094,965	0,31
1095,378	0,31
1095,791	0,3
1096,205	0,3
1096,618	0,3
1097,031	0,29
1097,444	0,29
1097,857	0,29
1098,27	0,29
1098,683	0,29
1099,096	0,28
1099,509	0,28
1099,922	0,28
1100,335	0,27
1100,748	0,27
1101,161	0,26
1101,574	0,26
1101,986	0,26
1102,399	0,26
1102,812	0,25
1103,225	0,25
1103,637	0,25
1104,05	0,24
1104,463	0,25
1104,875	0,24
1105,288	0,24
1105,7	0,23
1106,113	0,23
1106,525	0,23
1106,938	0,22
1107,35	0,21
1107,763	0,22
1108,175	0,21
1108,588	0,21
1109	0,2
1109,412	0,19
1109,824	0,19
1110,237	0,19
1110,649	0,19
1111,061	0,18
