Data from 18C-808nm-8A-cont_Absorbance__175__01604.txt Node

Date: Mon Jul 17 17:23:53 CEST 2023
User: Laser008
Spectrometer: MAYP115816
Trigger mode: 0
Integration Time (sec): 2,500000E-1
Scans to average: 10
Electric dark correction enabled: true
Nonlinearity correction enabled: true
Boxcar width: 5
XAxis mode: Wavelengths
Number of Pixels in Spectrum: 2068
>>>>>Begin Spectral Data<<<<<
198,914	-0,64
199,384	-0,46
199,855	-0,33
200,325	-0,25
200,796	-0,22
201,266	-0,18
201,737	-0,16
202,207	-0,15
202,677	-0,13
203,147	-0,12
203,618	-0,09
204,088	-0,08
204,558	-0,07
205,028	-0,06
205,498	-0,07
205,968	-0,07
206,439	-0,07
206,909	-0,07
207,379	-0,08
207,849	-0,08
208,319	-0,09
208,789	-0,09
209,258	-0,08
209,728	-0,09
210,198	-0,09
210,668	-0,09
211,138	-0,08
211,608	-0,09
212,077	-0,09
212,547	-0,08
213,017	-0,09
213,486	-0,09
213,956	-0,1
214,426	-0,12
214,895	-0,11
215,365	-0,13
215,834	-0,13
216,304	-0,14
216,773	-0,14
217,243	-0,16
217,712	-0,17
218,181	-0,16
218,651	-0,16
219,12	-0,16
219,589	-0,15
220,058	-0,14
220,528	-0,15
220,997	-0,15
221,466	-0,16
221,935	-0,16
222,404	-0,15
222,873	-0,15
223,342	-0,15
223,812	-0,16
224,281	-0,15
224,749	-0,16
225,218	-0,17
225,687	-0,17
226,156	-0,16
226,625	-0,14
227,094	-0,14
227,563	-0,14
228,031	-0,15
228,5	-0,15
228,969	-0,16
229,438	-0,15
229,906	-0,14
230,375	-0,13
230,844	-0,12
231,312	-0,12
231,781	-0,13
232,249	-0,11
232,718	-0,12
233,186	-0,1
233,655	-0,1
234,123	-0,09
234,591	-0,09
235,06	-0,1
235,528	-0,11
235,996	-0,1
236,465	-0,09
236,933	-0,09
237,401	-0,1
237,869	-0,09
238,337	-0,09
238,805	-0,08
239,274	-0,08
239,742	-0,08
240,21	-0,08
240,678	-0,07
241,146	-0,07
241,614	-0,08
242,081	-0,07
242,549	-0,07
243,017	-0,07
243,485	-0,07
243,953	-0,07
244,421	-0,07
244,888	-0,06
245,356	-0,07
245,824	-0,06
246,291	-0,06
246,759	-0,08
247,227	-0,08
247,694	-0,08
248,162	-0,08
248,629	-0,07
249,097	-0,08
249,564	-0,08
250,032	-0,09
250,499	-0,09
250,967	-0,1
251,434	-0,11
251,901	-0,1
252,369	-0,1
252,836	-0,11
253,303	-0,12
253,77	-0,14
254,237	-0,13
254,705	-0,13
255,172	-0,13
255,639	-0,13
256,106	-0,13
256,573	-0,13
257,04	-0,13
257,507	-0,15
257,974	-0,16
258,441	-0,14
258,908	-0,14
259,375	-0,16
259,841	-0,16
260,308	-0,17
260,775	-0,18
261,242	-0,18
261,709	-0,19
262,175	-0,2
262,642	-0,19
263,109	-0,18
263,575	-0,2
264,042	-0,18
264,508	-0,18
264,975	-0,19
265,441	-0,2
265,908	-0,2
266,374	-0,19
266,841	-0,19
267,307	-0,19
267,773	-0,18
268,24	-0,18
268,706	-0,18
269,172	-0,19
269,639	-0,21
270,105	-0,19
270,571	-0,19
271,037	-0,19
271,503	-0,21
271,969	-0,2
272,435	-0,2
272,902	-0,21
273,368	-0,22
273,834	-0,22
274,3	-0,22
274,765	-0,22
275,231	-0,21
275,697	-0,2
276,163	-0,21
276,629	-0,2
277,095	-0,21
277,56	-0,21
278,026	-0,22
278,492	-0,2
278,958	-0,2
279,423	-0,2
279,889	-0,19
280,354	-0,2
280,82	-0,2
281,286	-0,21
281,751	-0,21
282,217	-0,2
282,682	-0,19
283,147	-0,19
283,613	-0,2
284,078	-0,21
284,544	-0,22
285,009	-0,22
285,474	-0,21
285,939	-0,22
286,405	-0,2
286,87	-0,19
287,335	-0,19
287,8	-0,18
288,265	-0,17
288,73	-0,19
289,195	-0,2
289,66	-0,2
290,125	-0,19
290,59	-0,2
291,055	-0,2
291,52	-0,2
291,985	-0,21
292,45	-0,22
292,915	-0,22
293,38	-0,22
293,844	-0,2
294,309	-0,18
294,774	-0,18
295,239	-0,18
295,703	-0,19
296,168	-0,18
296,632	-0,16
297,097	-0,15
297,562	-0,14
298,026	-0,15
298,491	-0,15
298,955	-0,15
299,419	-0,14
299,884	-0,14
300,348	-0,13
300,813	-0,12
301,277	-0,13
301,741	-0,14
302,205	-0,14
302,67	-0,13
303,134	-0,13
303,598	-0,13
304,062	-0,12
304,526	-0,12
304,99	-0,14
305,454	-0,14
305,919	-0,13
306,383	-0,12
306,847	-0,12
307,31	-0,13
307,774	-0,14
308,238	-0,13
308,702	-0,13
309,166	-0,14
309,63	-0,14
310,094	-0,11
310,557	-0,12
311,021	-0,12
311,485	-0,12
311,948	-0,12
312,412	-0,11
312,876	-0,09
313,339	-0,11
313,803	-0,11
314,266	-0,1
314,73	-0,1
315,193	-0,11
315,657	-0,09
316,12	-0,09
316,584	-0,08
317,047	-0,07
317,51	-0,07
317,973	-0,07
318,437	-0,05
318,9	-0,05
319,363	-0,03
319,826	-0,03
320,29	-0,03
320,753	-0,04
321,216	-0,03
321,679	-0,04
322,142	-0,03
322,605	-0,04
323,068	-0,04
323,531	-0,04
323,994	-0,03
324,457	-0,03
324,92	-0,02
325,382	-0,01
325,845	-0,01
326,308	-0,01
326,771	-0
327,233	0,01
327,696	0,03
328,159	0,04
328,622	0,04
329,084	0,03
329,547	0,04
330,009	0,04
330,472	0,05
330,934	0,05
331,397	0,04
331,859	0,05
332,322	0,04
332,784	0,05
333,246	0,05
333,709	0,05
334,171	0,06
334,633	0,06
335,096	0,06
335,558	0,05
336,02	0,06
336,482	0,07
336,944	0,08
337,406	0,09
337,868	0,1
338,331	0,1
338,793	0,11
339,255	0,12
339,717	0,12
340,178	0,14
340,64	0,15
341,102	0,16
341,564	0,17
342,026	0,18
342,488	0,18
342,949	0,19
343,411	0,21
343,873	0,23
344,335	0,26
344,796	0,3
345,258	0,33
345,719	0,37
346,181	0,41
346,643	0,44
347,104	0,47
347,566	0,5
348,027	0,52
348,488	0,54
348,95	0,56
349,411	0,57
349,873	0,59
350,334	0,61
350,795	0,62
351,256	0,63
351,718	0,64
352,179	0,64
352,64	0,65
353,101	0,65
353,562	0,65
354,023	0,65
354,484	0,66
354,945	0,66
355,406	0,66
355,867	0,66
356,328	0,66
356,789	0,67
357,25	0,67
357,711	0,67
358,172	0,68
358,633	0,68
359,093	0,68
359,554	0,68
360,015	0,68
360,476	0,68
360,936	0,68
361,397	0,68
361,858	0,68
362,318	0,68
362,779	0,68
363,239	0,68
363,7	0,68
364,16	0,68
364,621	0,68
365,081	0,68
365,541	0,68
366,002	0,68
366,462	0,68
366,922	0,68
367,383	0,68
367,843	0,68
368,303	0,68
368,763	0,68
369,223	0,68
369,684	0,68
370,144	0,68
370,604	0,68
371,064	0,68
371,524	0,68
371,984	0,68
372,444	0,68
372,904	0,68
373,363	0,68
373,823	0,68
374,283	0,68
374,743	0,68
375,203	0,68
375,663	0,68
376,122	0,68
376,582	0,68
377,042	0,68
377,501	0,68
377,961	0,68
378,42	0,68
378,88	0,68
379,34	0,68
379,799	0,68
380,259	0,67
380,718	0,67
381,177	0,67
381,637	0,67
382,096	0,67
382,555	0,67
383,015	0,67
383,474	0,67
383,933	0,67
384,393	0,67
384,852	0,67
385,311	0,67
385,77	0,67
386,229	0,67
386,688	0,67
387,147	0,67
387,606	0,67
388,065	0,67
388,524	0,67
388,983	0,67
389,442	0,67
389,901	0,67
390,36	0,67
390,819	0,67
391,277	0,67
391,736	0,67
392,195	0,67
392,654	0,67
393,112	0,67
393,571	0,66
394,03	0,66
394,488	0,66
394,947	0,66
395,405	0,66
395,864	0,66
396,322	0,66
396,781	0,66
397,239	0,66
397,698	0,66
398,156	0,66
398,614	0,66
399,073	0,66
399,531	0,66
399,989	0,66
400,447	0,66
400,905	0,66
401,364	0,66
401,822	0,66
402,28	0,66
402,738	0,66
403,196	0,66
403,654	0,66
404,112	0,66
404,57	0,66
405,028	0,66
405,486	0,66
405,944	0,66
406,402	0,66
406,859	0,66
407,317	0,66
407,775	0,66
408,233	0,66
408,691	0,66
409,148	0,66
409,606	0,66
410,064	0,66
410,521	0,66
410,979	0,66
411,436	0,66
411,894	0,66
412,351	0,66
412,809	0,65
413,266	0,65
413,724	0,65
414,181	0,65
414,638	0,65
415,096	0,65
415,553	0,65
416,01	0,65
416,467	0,65
416,925	0,65
417,382	0,65
417,839	0,65
418,296	0,65
418,753	0,65
419,21	0,65
419,667	0,65
420,124	0,65
420,581	0,65
421,038	0,65
421,495	0,65
421,952	0,65
422,409	0,65
422,866	0,65
423,322	0,65
423,779	0,65
424,236	0,65
424,693	0,65
425,149	0,65
425,606	0,65
426,063	0,65
426,519	0,65
426,976	0,65
427,433	0,65
427,889	0,65
428,346	0,65
428,802	0,65
429,258	0,65
429,715	0,65
430,171	0,65
430,628	0,65
431,084	0,65
431,54	0,65
431,997	0,65
432,453	0,65
432,909	0,65
433,365	0,65
433,821	0,65
434,277	0,65
434,734	0,65
435,19	0,65
435,646	0,65
436,102	0,65
436,558	0,65
437,014	0,65
437,47	0,65
437,925	0,65
438,381	0,65
438,837	0,65
439,293	0,65
439,749	0,65
440,205	0,65
440,66	0,65
441,116	0,65
441,572	0,65
442,027	0,65
442,483	0,65
442,939	0,65
443,394	0,65
443,85	0,65
444,305	0,65
444,761	0,65
445,216	0,65
445,672	0,65
446,127	0,65
446,582	0,65
447,038	0,65
447,493	0,65
447,948	0,65
448,403	0,65
448,859	0,65
449,314	0,65
449,769	0,65
450,224	0,65
450,679	0,65
451,134	0,65
451,589	0,65
452,044	0,65
452,499	0,65
452,954	0,65
453,409	0,65
453,864	0,65
454,319	0,65
454,774	0,65
455,229	0,65
455,684	0,65
456,138	0,65
456,593	0,65
457,048	0,65
457,503	0,65
457,957	0,65
458,412	0,65
458,866	0,65
459,321	0,66
459,776	0,66
460,23	0,66
460,685	0,66
461,139	0,66
461,593	0,66
462,048	0,66
462,502	0,66
462,957	0,66
463,411	0,66
463,865	0,66
464,319	0,66
464,774	0,66
465,228	0,67
465,682	0,67
466,136	0,67
466,59	0,67
467,044	0,67
467,499	0,67
467,953	0,67
468,407	0,67
468,861	0,67
469,315	0,67
469,768	0,67
470,222	0,67
470,676	0,67
471,13	0,67
471,584	0,67
472,038	0,67
472,491	0,68
472,945	0,68
473,399	0,68
473,852	0,68
474,306	0,68
474,76	0,68
475,213	0,68
475,667	0,68
476,12	0,68
476,574	0,68
477,027	0,69
477,481	0,69
477,934	0,69
478,388	0,69
478,841	0,69
479,294	0,69
479,748	0,69
480,201	0,7
480,654	0,7
481,107	0,7
481,561	0,7
482,014	0,7
482,467	0,7
482,92	0,7
483,373	0,7
483,826	0,71
484,279	0,71
484,732	0,71
485,185	0,71
485,638	0,71
486,091	0,71
486,544	0,72
486,997	0,72
487,449	0,72
487,902	0,72
488,355	0,72
488,808	0,73
489,26	0,73
489,713	0,73
490,166	0,73
490,618	0,74
491,071	0,74
491,523	0,74
491,976	0,74
492,429	0,74
492,881	0,75
493,333	0,75
493,786	0,75
494,238	0,75
494,691	0,76
495,143	0,76
495,595	0,76
496,048	0,77
496,5	0,77
496,952	0,77
497,404	0,77
497,856	0,78
498,309	0,78
498,761	0,78
499,213	0,79
499,665	0,79
500,117	0,79
500,569	0,8
501,021	0,8
501,473	0,8
501,925	0,81
502,377	0,81
502,828	0,82
503,28	0,82
503,732	0,82
504,184	0,83
504,636	0,83
505,087	0,83
505,539	0,84
505,991	0,84
506,442	0,84
506,894	0,85
507,345	0,85
507,797	0,85
508,249	0,85
508,7	0,86
509,151	0,86
509,603	0,87
510,054	0,87
510,506	0,87
510,957	0,88
511,408	0,88
511,86	0,88
512,311	0,88
512,762	0,89
513,213	0,89
513,665	0,89
514,116	0,9
514,567	0,9
515,018	0,9
515,469	0,91
515,92	0,91
516,371	0,91
516,822	0,91
517,273	0,92
517,724	0,92
518,175	0,92
518,626	0,92
519,076	0,92
519,527	0,93
519,978	0,93
520,429	0,93
520,88	0,93
521,33	0,94
521,781	0,94
522,232	0,94
522,682	0,94
523,133	0,94
523,583	0,94
524,034	0,94
524,484	0,94
524,935	0,94
525,385	0,95
525,836	0,95
526,286	0,95
526,736	0,95
527,187	0,95
527,637	0,95
528,087	0,94
528,538	0,94
528,988	0,94
529,438	0,94
529,888	0,94
530,338	0,94
530,788	0,94
531,238	0,94
531,688	0,94
532,139	0,94
532,589	0,94
533,038	0,94
533,488	0,94
533,938	0,93
534,388	0,93
534,838	0,93
535,288	0,93
535,738	0,92
536,187	0,92
536,637	0,92
537,087	0,91
537,537	0,91
537,986	0,91
538,436	0,9
538,885	0,9
539,335	0,9
539,785	0,89
540,234	0,89
540,684	0,88
541,133	0,88
541,582	0,88
542,032	0,87
542,481	0,87
542,931	0,86
543,38	0,86
543,829	0,86
544,278	0,85
544,728	0,85
545,177	0,84
545,626	0,84
546,075	0,84
546,524	0,84
546,973	0,83
547,422	0,83
547,871	0,83
548,32	0,82
548,769	0,82
549,218	0,82
549,667	0,82
550,116	0,81
550,565	0,81
551,014	0,81
551,463	0,8
551,911	0,8
552,36	0,8
552,809	0,79
553,258	0,79
553,706	0,78
554,155	0,78
554,603	0,78
555,052	0,77
555,501	0,77
555,949	0,77
556,398	0,76
556,846	0,76
557,294	0,76
557,743	0,75
558,191	0,75
558,64	0,74
559,088	0,74
559,536	0,74
559,985	0,73
560,433	0,73
560,881	0,72
561,329	0,72
561,777	0,72
562,225	0,71
562,674	0,71
563,122	0,71
563,57	0,71
564,018	0,7
564,466	0,7
564,914	0,7
565,362	0,69
565,809	0,69
566,257	0,69
566,705	0,68
567,153	0,68
567,601	0,68
568,048	0,67
568,496	0,67
568,944	0,67
569,392	0,66
569,839	0,66
570,287	0,66
570,734	0,66
571,182	0,65
571,63	0,65
572,077	0,65
572,525	0,64
572,972	0,64
573,419	0,64
573,867	0,63
574,314	0,63
574,761	0,63
575,209	0,62
575,656	0,62
576,103	0,62
576,551	0,62
576,998	0,62
577,445	0,61
577,892	0,61
578,339	0,61
578,786	0,61
579,233	0,6
579,68	0,6
580,127	0,6
580,574	0,6
581,021	0,59
581,468	0,59
581,915	0,59
582,362	0,59
582,809	0,58
583,255	0,58
583,702	0,58
584,149	0,58
584,596	0,58
585,042	0,58
585,489	0,57
585,936	0,57
586,382	0,57
586,829	0,57
587,275	0,57
587,722	0,57
588,168	0,56
588,615	0,56
589,061	0,56
589,508	0,56
589,954	0,56
590,4	0,56
590,847	0,55
591,293	0,55
591,739	0,55
592,185	0,55
592,632	0,55
593,078	0,55
593,524	0,55
593,97	0,54
594,416	0,54
594,862	0,54
595,308	0,54
595,754	0,54
596,2	0,54
596,646	0,54
597,092	0,54
597,538	0,53
597,984	0,53
598,43	0,53
598,876	0,53
599,321	0,53
599,767	0,53
600,213	0,53
600,659	0,53
601,104	0,53
601,55	0,53
601,995	0,52
602,441	0,52
602,887	0,52
603,332	0,52
603,778	0,52
604,223	0,52
604,668	0,52
605,114	0,52
605,559	0,52
606,005	0,52
606,45	0,51
606,895	0,51
607,341	0,51
607,786	0,51
608,231	0,51
608,676	0,51
609,121	0,5
609,566	0,5
610,012	0,49
610,457	0,49
610,902	0,49
611,347	0,48
611,792	0,48
612,237	0,48
612,682	0,48
613,127	0,48
613,571	0,48
614,016	0,48
614,461	0,49
614,906	0,49
615,351	0,49
615,795	0,49
616,24	0,49
616,685	0,49
617,129	0,49
617,574	0,49
618,019	0,49
618,463	0,49
618,908	0,49
619,352	0,49
619,797	0,49
620,241	0,49
620,686	0,49
621,13	0,49
621,574	0,48
622,019	0,48
622,463	0,48
622,907	0,48
623,352	0,48
623,796	0,48
624,24	0,48
624,684	0,48
625,128	0,48
625,572	0,48
626,016	0,48
626,461	0,48
626,905	0,48
627,349	0,48
627,793	0,48
628,236	0,48
628,68	0,48
629,124	0,48
629,568	0,48
630,012	0,48
630,456	0,48
630,9	0,48
631,343	0,48
631,787	0,48
632,231	0,48
632,674	0,48
633,118	0,47
633,562	0,47
634,005	0,48
634,449	0,48
634,892	0,47
635,336	0,47
635,779	0,47
636,223	0,47
636,666	0,47
637,109	0,47
637,553	0,47
637,996	0,47
638,439	0,47
638,883	0,47
639,326	0,47
639,769	0,47
640,212	0,47
640,655	0,47
641,099	0,47
641,542	0,47
641,985	0,47
642,428	0,46
642,871	0,46
643,314	0,46
643,757	0,46
644,2	0,46
644,643	0,46
645,085	0,46
645,528	0,46
645,971	0,46
646,414	0,46
646,857	0,46
647,299	0,46
647,742	0,46
648,185	0,46
648,627	0,46
649,07	0,46
649,513	0,46
649,955	0,46
650,398	0,46
650,84	0,46
651,283	0,46
651,725	0,46
652,168	0,46
652,61	0,46
653,052	0,46
653,495	0,46
653,937	0,37
654,379	0,32
654,821	0,32
655,264	0,32
655,706	0,32
656,148	0,32
656,59	0,32
657,032	0,33
657,474	0,32
657,916	0,32
658,358	0,32
658,8	0,38
659,242	0,46
659,684	0,46
660,126	0,46
660,568	0,46
661,01	0,46
661,452	0,46
661,894	0,45
662,335	0,45
662,777	0,45
663,219	0,45
663,661	0,45
664,102	0,45
664,544	0,45
664,985	0,45
665,427	0,45
665,869	0,45
666,31	0,45
666,752	0,45
667,193	0,45
667,634	0,45
668,076	0,45
668,517	0,45
668,959	0,45
669,4	0,45
669,841	0,45
670,282	0,45
670,724	0,45
671,165	0,45
671,606	0,45
672,047	0,45
672,488	0,45
672,929	0,45
673,37	0,45
673,811	0,45
674,252	0,45
674,693	0,45
675,134	0,45
675,575	0,44
676,016	0,44
676,457	0,44
676,898	0,44
677,339	0,44
677,78	0,44
678,22	0,44
678,661	0,44
679,102	0,44
679,542	0,44
679,983	0,44
680,424	0,44
680,864	0,44
681,305	0,44
681,745	0,44
682,186	0,44
682,626	0,44
683,067	0,44
683,507	0,44
683,948	0,44
684,388	0,44
684,828	0,44
685,269	0,44
685,709	0,44
686,149	0,44
686,589	0,44
687,029	0,44
687,47	0,44
687,91	0,44
688,35	0,44
688,79	0,44
689,23	0,44
689,67	0,44
690,11	0,44
690,55	0,44
690,99	0,44
691,43	0,43
691,87	0,43
692,31	0,43
692,749	0,43
693,189	0,43
693,629	0,43
694,069	0,43
694,508	0,43
694,948	0,43
695,388	0,43
695,827	0,43
696,267	0,43
696,706	0,43
697,146	0,43
697,586	0,43
698,025	0,43
698,464	0,43
698,904	0,43
699,343	0,43
699,783	0,43
700,222	0,43
700,661	0,44
701,101	0,44
701,54	0,44
701,979	0,44
702,418	0,44
702,857	0,44
703,297	0,44
703,736	0,44
704,175	0,44
704,614	0,44
705,053	0,44
705,492	0,43
705,931	0,43
706,37	0,43
706,809	0,43
707,248	0,43
707,687	0,43
708,125	0,43
708,564	0,43
709,003	0,43
709,442	0,43
709,88	0,43
710,319	0,43
710,758	0,43
711,196	0,43
711,635	0,42
712,074	0,42
712,512	0,42
712,951	0,42
713,389	0,42
713,828	0,42
714,266	0,42
714,705	0,42
715,143	0,42
715,581	0,42
716,02	0,42
716,458	0,42
716,896	0,42
717,334	0,42
717,773	0,42
718,211	0,42
718,649	0,42
719,087	0,42
719,525	0,42
719,963	0,42
720,401	0,42
720,839	0,42
721,277	0,42
721,715	0,42
722,153	0,42
722,591	0,42
723,029	0,42
723,467	0,42
723,905	0,42
724,342	0,42
724,78	0,42
725,218	0,42
725,656	0,42
726,093	0,42
726,531	0,42
726,969	0,42
727,406	0,42
727,844	0,42
728,281	0,42
728,719	0,42
729,156	0,42
729,594	0,42
730,031	0,42
730,469	0,42
730,906	0,42
731,343	0,42
731,781	0,42
732,218	0,42
732,655	0,42
733,092	0,41
733,53	0,41
733,967	0,41
734,404	0,41
734,841	0,41
735,278	0,41
735,715	0,41
736,152	0,41
736,589	0,41
737,026	0,41
737,463	0,41
737,9	0,41
738,337	0,41
738,774	0,41
739,211	0,41
739,647	0,41
740,084	0,41
740,521	0,41
740,958	0,41
741,394	0,41
741,831	0,41
742,268	0,41
742,704	0,41
743,141	0,4
743,577	0,4
744,014	0,4
744,45	0,4
744,887	0,4
745,323	0,4
745,76	0,4
746,196	0,4
746,632	0,4
747,069	0,4
747,505	0,4
747,941	0,4
748,378	0,4
748,814	0,4
749,25	0,4
749,686	0,4
750,122	0,4
750,558	0,4
750,994	0,4
751,43	0,4
751,866	0,41
752,302	0,41
752,738	0,41
753,174	0,41
753,61	0,41
754,046	0,41
754,482	0,41
754,918	0,41
755,354	0,41
755,789	0,41
756,225	0,4
756,661	0,4
757,096	0,4
757,532	0,4
757,968	0,4
758,403	0,4
758,839	0,39
759,274	0,39
759,71	0,39
760,145	0,38
760,581	0,38
761,016	0,37
761,452	0,37
761,887	0,37
762,322	0,36
762,758	0,36
763,193	0,35
763,628	0,35
764,063	0,34
764,499	0,33
764,934	0,33
765,369	0,32
765,804	0,31
766,239	0,31
766,674	0,3
767,109	0,29
767,544	0,28
767,979	0,28
768,414	0,27
768,849	0,26
769,284	0,25
769,719	0,24
770,154	0,24
770,588	0,23
771,023	0,22
771,458	0,21
771,893	0,2
772,327	0,19
772,762	0,18
773,197	0,17
773,631	0,16
774,066	0,15
774,5	0,14
774,935	0,13
775,369	0,12
775,804	0,11
776,238	0,11
776,673	0,1
777,107	0,09
777,541	0,08
777,976	0,07
778,41	0,07
778,844	0,06
779,279	0,05
779,713	0,04
780,147	0,03
780,581	0,02
781,015	0,01
781,449	0
781,883	-0
782,317	-0,02
782,751	-0,03
783,185	-0,04
783,619	-0,05
784,053	-0,06
784,487	-0,07
784,921	-0,07
785,355	-0,08
785,789	-0,09
786,223	-0,1
786,656	-0,11
787,09	-0,12
787,524	-0,13
787,957	-0,14
788,391	-0,16
788,825	-0,17
789,258	-0,19
789,692	-0,2
790,125	-0,22
790,559	-0,23
790,992	-0,25
791,426	-0,28
791,859	-0,29
792,293	-0,32
792,726	-0,33
793,159	-0,35
793,593	-0,37
794,026	-0,39
794,459	-0,42
794,892	-0,45
795,326	-0,48
795,759	-0,52
796,192	-0,56
796,625	-0,61
797,058	-0,63
797,491	-0,68
797,924	-0,72
798,357	-0,77
798,79	-0,81
799,223	-0,86
799,656	-0,91
800,089	-0,96
800,522	-1
800,955	-1,05
801,387	-1,1
801,82	-1,16
802,253	-1,22
802,686	-1,3
803,118	-1,35
803,551	-1,41
803,984	-1,45
804,416	-1,49
804,849	-1,52
805,281	-1,63
805,714	-1,99
806,146	-2,45
806,579	-2,71
807,011	-2,87
807,444	-2,97
807,876	-3,05
808,308	-3,08
808,741	-3,11
809,173	-3,16
809,605	-3,19
810,037	-3,26
810,47	-3,18
810,902	-2,98
811,334	-2,83
811,766	-2,67
812,198	-2,43
812,63	-2
813,062	-1,8
813,494	-1,7
813,926	-1,61
814,358	-1,56
814,79	-1,48
815,222	-1,42
815,654	-1,37
816,086	-1,3
816,518	-1,25
816,949	-1,19
817,381	-1,15
817,813	-1,13
818,245	-1,09
818,676	-1,05
819,108	-1,01
819,54	-1
819,971	-0,97
820,403	-0,92
820,834	-0,9
821,266	-0,85
821,697	-0,83
822,129	-0,81
822,56	-0,79
822,991	-0,77
823,423	-0,74
823,854	-0,73
824,286	-0,71
824,717	-0,69
825,148	-0,68
825,579	-0,67
826,01	-0,66
826,442	-0,64
826,873	-0,62
827,304	-0,59
827,735	-0,58
828,166	-0,58
828,597	-0,58
829,028	-0,57
829,459	-0,58
829,89	-0,59
830,321	-0,54
830,752	-0,55
831,183	-0,54
831,613	-0,54
832,044	-0,53
832,475	-0,52
832,906	-0,53
833,336	-0,53
833,767	-0,53
834,198	-0,52
834,628	-0,49
835,059	-0,52
835,49	-0,53
835,92	-0,5
836,351	-0,5
836,781	-0,51
837,212	-0,53
837,642	-0,53
838,072	-0,52
838,503	-0,53
838,933	-0,5
839,364	-0,52
839,794	-0,5
840,224	-0,49
840,654	-0,53
841,085	-0,54
841,515	-0,51
841,945	-0,51
842,375	-0,47
842,805	-0,45
843,235	-0,44
843,665	-0,46
844,095	-0,44
844,525	-0,45
844,955	-0,46
845,385	-0,44
845,815	-0,42
846,245	-0,44
846,675	-0,45
847,105	-0,46
847,534	-0,47
847,964	-0,45
848,394	-0,44
848,824	-0,48
849,253	-0,48
849,683	-0,48
850,112	-0,49
850,542	-0,52
850,972	-0,53
851,401	-0,51
851,831	-0,49
852,26	-0,5
852,69	-0,53
853,119	-0,52
853,548	-0,51
853,978	-0,52
854,407	-0,51
854,836	-0,5
855,266	-0,49
855,695	-0,5
856,124	-0,52
856,553	-0,52
856,983	-0,54
857,412	-0,53
857,841	-0,54
858,27	-0,54
858,699	-0,55
859,128	-0,58
859,557	-0,59
859,986	-0,6
860,415	-0,58
860,844	-0,55
861,273	-0,56
861,702	-0,57
862,13	-0,55
862,559	-0,58
862,988	-0,56
863,417	-0,54
863,845	-0,53
864,274	-0,54
864,703	-0,54
865,131	-0,54
865,56	-0,55
865,989	-0,57
866,417	-0,54
866,846	-0,54
867,274	-0,53
867,703	-0,55
868,131	-0,56
868,559	-0,56
868,988	-0,59
869,416	-0,57
869,844	-0,58
870,273	-0,61
870,701	-0,59
871,129	-0,62
871,557	-0,65
871,986	-0,66
872,414	-0,67
872,842	-0,64
873,27	-0,63
873,698	-0,6
874,126	-0,64
874,554	-0,63
874,982	-0,62
875,41	-0,65
875,838	-0,59
876,266	-0,56
876,694	-0,56
877,122	-0,55
877,549	-0,59
877,977	-0,55
878,405	-0,58
878,833	-0,55
879,26	-0,53
879,688	-0,53
880,116	-0,52
880,543	-0,51
880,971	-0,51
881,399	-0,55
881,826	-0,56
882,254	-0,55
882,681	-0,58
883,109	-0,54
883,536	-0,55
883,963	-0,56
884,391	-0,55
884,818	-0,53
885,245	-0,57
885,673	-0,58
886,1	-0,54
886,527	-0,54
886,954	-0,5
887,381	-0,52
887,809	-0,54
888,236	-0,54
888,663	-0,56
889,09	-0,59
889,517	-0,61
889,944	-0,6
890,371	-0,6
890,798	-0,6
891,225	-0,6
891,652	-0,64
892,078	-0,61
892,505	-0,63
892,932	-0,58
893,359	-0,59
893,786	-0,59
894,212	-0,55
894,639	-0,57
895,066	-0,59
895,492	-0,54
895,919	-0,54
896,346	-0,53
896,772	-0,54
897,199	-0,51
897,625	-0,55
898,052	-0,52
898,478	-0,49
898,904	-0,5
899,331	-0,5
899,757	-0,52
900,183	-0,54
900,61	-0,53
901,036	-0,53
901,462	-0,53
901,888	-0,53
902,315	-0,51
902,741	-0,56
903,167	-0,55
903,593	-0,59
904,019	-0,57
904,445	-0,55
904,871	-0,57
905,297	-0,59
905,723	-0,58
906,149	-0,58
906,575	-0,58
907,001	-0,58
907,427	-0,55
907,852	-0,55
908,278	-0,55
908,704	-0,53
909,13	-0,52
909,555	-0,51
909,981	-0,51
910,407	-0,51
910,832	-0,51
911,258	-0,52
911,684	-0,52
912,109	-0,53
912,535	-0,55
912,96	-0,5
913,386	-0,55
913,811	-0,54
914,236	-0,56
914,662	-0,54
915,087	-0,57
915,512	-0,57
915,938	-0,58
916,363	-0,57
916,788	-0,59
917,213	-0,57
917,639	-0,62
918,064	-0,59
918,489	-0,59
918,914	-0,58
919,339	-0,59
919,764	-0,56
920,189	-0,56
920,614	-0,58
921,039	-0,58
921,464	-0,53
921,889	-0,56
922,314	-0,56
922,738	-0,59
923,163	-0,6
923,588	-0,6
924,013	-0,6
924,437	-0,6
924,862	-0,61
925,287	-0,57
925,711	-0,58
926,136	-0,59
926,561	-0,58
926,985	-0,57
927,41	-0,55
927,834	-0,52
928,259	-0,5
928,683	-0,48
929,108	-0,45
929,532	-0,47
929,956	-0,46
930,381	-0,45
930,805	-0,46
931,229	-0,45
931,653	-0,43
932,078	-0,42
932,502	-0,43
932,926	-0,43
933,35	-0,43
933,774	-0,42
934,198	-0,4
934,622	-0,39
935,046	-0,4
935,47	-0,39
935,894	-0,39
936,318	-0,38
936,742	-0,38
937,166	-0,39
937,59	-0,38
938,014	-0,4
938,437	-0,42
938,861	-0,45
939,285	-0,46
939,709	-0,44
940,132	-0,46
940,556	-0,46
940,98	-0,46
941,403	-0,45
941,827	-0,46
942,25	-0,47
942,674	-0,45
943,097	-0,44
943,521	-0,43
943,944	-0,45
944,368	-0,43
944,791	-0,42
945,214	-0,45
945,638	-0,47
946,061	-0,49
946,484	-0,5
946,907	-0,49
947,331	-0,5
947,754	-0,54
948,177	-0,51
948,6	-0,5
949,023	-0,52
949,446	-0,52
949,869	-0,49
950,292	-0,48
950,715	-0,46
951,138	-0,45
951,561	-0,43
951,984	-0,43
952,407	-0,41
952,83	-0,4
953,252	-0,36
953,675	-0,35
954,098	-0,36
954,521	-0,35
954,943	-0,34
955,366	-0,34
955,789	-0,32
956,211	-0,33
956,634	-0,34
957,056	-0,31
957,479	-0,32
957,902	-0,35
958,324	-0,35
958,746	-0,34
959,169	-0,34
959,591	-0,35
960,014	-0,37
960,436	-0,37
960,858	-0,37
961,281	-0,36
961,703	-0,37
962,125	-0,37
962,547	-0,35
962,969	-0,36
963,391	-0,37
963,814	-0,38
964,236	-0,37
964,658	-0,34
965,08	-0,34
965,502	-0,33
965,924	-0,31
966,346	-0,31
966,768	-0,3
967,189	-0,31
967,611	-0,3
968,033	-0,29
968,455	-0,27
968,877	-0,28
969,298	-0,29
969,72	-0,3
970,142	-0,28
970,563	-0,29
970,985	-0,28
971,407	-0,27
971,828	-0,26
972,25	-0,26
972,671	-0,25
973,093	-0,24
973,514	-0,22
973,936	-0,21
974,357	-0,19
974,778	-0,2
975,2	-0,19
975,621	-0,18
976,042	-0,16
976,464	-0,15
976,885	-0,14
977,306	-0,14
977,727	-0,14
978,148	-0,13
978,57	-0,11
978,991	-0,1
979,412	-0,09
979,833	-0,08
980,254	-0,07
980,675	-0,08
981,096	-0,07
981,517	-0,05
981,937	-0,04
982,358	-0,02
982,779	-0,01
983,2	-0,01
983,621	-0,01
984,042	0,01
984,462	0,02
984,883	0,04
985,304	0,05
985,724	0,06
986,145	0,06
986,565	0,08
986,986	0,09
987,407	0,1
987,827	0,11
988,248	0,13
988,668	0,14
989,088	0,15
989,509	0,16
989,929	0,17
990,35	0,18
990,77	0,19
991,19	0,2
991,61	0,21
992,031	0,22
992,451	0,23
992,871	0,23
993,291	0,24
993,711	0,25
994,131	0,25
994,551	0,26
994,971	0,27
995,391	0,27
995,811	0,28
996,231	0,28
996,651	0,29
997,071	0,3
997,491	0,31
997,911	0,31
998,331	0,32
998,75	0,33
999,17	0,33
999,59	0,34
1000,009	0,34
1000,429	0,34
1000,849	0,35
1001,268	0,35
1001,688	0,36
1002,107	0,36
1002,527	0,36
1002,946	0,36
1003,366	0,37
1003,785	0,37
1004,205	0,37
1004,624	0,38
1005,044	0,38
1005,463	0,38
1005,882	0,38
1006,301	0,38
1006,721	0,39
1007,14	0,39
1007,559	0,39
1007,978	0,39
1008,397	0,39
1008,816	0,39
1009,235	0,39
1009,655	0,39
1010,074	0,39
1010,492	0,39
1010,911	0,39
1011,33	0,39
1011,749	0,38
1012,168	0,38
1012,587	0,38
1013,006	0,38
1013,425	0,38
1013,843	0,38
1014,262	0,38
1014,681	0,38
1015,099	0,38
1015,518	0,38
1015,937	0,38
1016,355	0,38
1016,774	0,38
1017,192	0,38
1017,611	0,38
1018,029	0,38
1018,448	0,38
1018,866	0,38
1019,285	0,38
1019,703	0,37
1020,121	0,37
1020,54	0,37
1020,958	0,37
1021,376	0,37
1021,794	0,37
1022,213	0,37
1022,631	0,37
1023,049	0,37
1023,467	0,37
1023,885	0,37
1024,303	0,37
1024,721	0,37
1025,139	0,37
1025,557	0,37
1025,975	0,37
1026,393	0,36
1026,811	0,36
1027,229	0,36
1027,647	0,36
1028,065	0,36
1028,482	0,36
1028,9	0,36
1029,318	0,36
1029,735	0,36
1030,153	0,36
1030,571	0,36
1030,988	0,36
1031,406	0,36
1031,823	0,36
1032,241	0,36
1032,659	0,36
1033,076	0,36
1033,493	0,36
1033,911	0,36
1034,328	0,37
1034,746	0,37
1035,163	0,37
1035,58	0,37
1035,997	0,37
1036,415	0,37
1036,832	0,37
1037,249	0,37
1037,666	0,37
1038,083	0,37
1038,501	0,37
1038,918	0,36
1039,335	0,36
1039,752	0,36
1040,169	0,36
1040,586	0,36
1041,003	0,36
1041,419	0,36
1041,836	0,36
1042,253	0,36
1042,67	0,36
1043,087	0,36
1043,504	0,36
1043,92	0,36
1044,337	0,36
1044,754	0,36
1045,17	0,36
1045,587	0,36
1046,004	0,36
1046,42	0,36
1046,837	0,36
1047,253	0,36
1047,67	0,36
1048,086	0,36
1048,503	0,36
1048,919	0,36
1049,335	0,36
1049,752	0,36
1050,168	0,36
1050,584	0,36
1051,001	0,36
1051,417	0,36
1051,833	0,36
1052,249	0,36
1052,665	0,36
1053,081	0,36
1053,497	0,37
1053,914	0,37
1054,33	0,37
1054,746	0,37
1055,162	0,37
1055,578	0,37
1055,993	0,37
1056,409	0,37
1056,825	0,37
1057,241	0,37
1057,657	0,37
1058,073	0,37
1058,488	0,37
1058,904	0,37
1059,32	0,37
1059,736	0,37
1060,151	0,37
1060,567	0,37
1060,982	0,37
1061,398	0,37
1061,813	0,37
1062,229	0,37
1062,644	0,37
1063,06	0,37
1063,475	0,37
1063,891	0,37
1064,306	0,37
1064,721	0,37
1065,137	0,36
1065,552	0,36
1065,967	0,36
1066,382	0,36
1066,798	0,36
1067,213	0,37
1067,628	0,37
1068,043	0,37
1068,458	0,37
1068,873	0,37
1069,288	0,37
1069,703	0,37
1070,118	0,37
1070,533	0,37
1070,948	0,37
1071,363	0,37
1071,778	0,37
1072,193	0,37
1072,607	0,37
1073,022	0,37
1073,437	0,37
1073,852	0,37
1074,266	0,37
1074,681	0,37
1075,096	0,37
1075,51	0,37
1075,925	0,37
1076,339	0,37
1076,754	0,37
1077,168	0,37
1077,583	0,36
1077,997	0,37
1078,412	0,36
1078,826	0,36
1079,24	0,36
1079,655	0,36
1080,069	0,36
1080,483	0,36
1080,897	0,36
1081,312	0,36
1081,726	0,36
1082,14	0,36
1082,554	0,36
1082,968	0,36
1083,382	0,36
1083,796	0,36
1084,21	0,36
1084,624	0,36
1085,038	0,35
1085,452	0,35
1085,866	0,35
1086,28	0,35
1086,694	0,35
1087,108	0,35
1087,521	0,34
1087,935	0,34
1088,349	0,34
1088,763	0,34
1089,176	0,34
1089,59	0,33
1090,004	0,33
1090,417	0,33
1090,831	0,32
1091,244	0,32
1091,658	0,32
1092,071	0,32
1092,485	0,31
1092,898	0,31
1093,312	0,31
1093,725	0,31
1094,138	0,31
1094,552	0,3
1094,965	0,3
1095,378	0,3
1095,791	0,3
1096,205	0,3
1096,618	0,3
1097,031	0,29
1097,444	0,29
1097,857	0,29
1098,27	0,29
1098,683	0,29
1099,096	0,28
1099,509	0,28
1099,922	0,27
1100,335	0,27
1100,748	0,26
1101,161	0,26
1101,574	0,26
1101,986	0,25
1102,399	0,25
1102,812	0,25
1103,225	0,24
1103,637	0,24
1104,05	0,24
1104,463	0,24
1104,875	0,24
1105,288	0,23
1105,7	0,23
1106,113	0,23
1106,525	0,22
1106,938	0,22
1107,35	0,21
1107,763	0,21
1108,175	0,21
1108,588	0,2
1109	0,2
1109,412	0,19
1109,824	0,19
1110,237	0,19
1110,649	0,18
1111,061	0,17
