Data from 18C-808nm-8A-cont_Absorbance__419__01848.txt Node

Date: Mon Jul 17 17:34:03 CEST 2023
User: Laser008
Spectrometer: MAYP115816
Trigger mode: 0
Integration Time (sec): 2,500000E-1
Scans to average: 10
Electric dark correction enabled: true
Nonlinearity correction enabled: true
Boxcar width: 5
XAxis mode: Wavelengths
Number of Pixels in Spectrum: 2068
>>>>>Begin Spectral Data<<<<<
198,914	-0,65
199,384	-0,46
199,855	-0,34
200,325	-0,26
200,796	-0,22
201,266	-0,17
201,737	-0,16
202,207	-0,15
202,677	-0,14
203,147	-0,13
203,618	-0,11
204,088	-0,1
204,558	-0,09
205,028	-0,09
205,498	-0,1
205,968	-0,11
206,439	-0,12
206,909	-0,1
207,379	-0,11
207,849	-0,12
208,319	-0,13
208,789	-0,13
209,258	-0,12
209,728	-0,13
210,198	-0,13
210,668	-0,12
211,138	-0,11
211,608	-0,11
212,077	-0,12
212,547	-0,11
213,017	-0,11
213,486	-0,11
213,956	-0,12
214,426	-0,12
214,895	-0,12
215,365	-0,13
215,834	-0,13
216,304	-0,15
216,773	-0,15
217,243	-0,16
217,712	-0,17
218,181	-0,18
218,651	-0,18
219,12	-0,17
219,589	-0,17
220,058	-0,16
220,528	-0,18
220,997	-0,18
221,466	-0,19
221,935	-0,21
222,404	-0,2
222,873	-0,19
223,342	-0,19
223,812	-0,19
224,281	-0,19
224,749	-0,2
225,218	-0,21
225,687	-0,21
226,156	-0,2
226,625	-0,18
227,094	-0,17
227,563	-0,18
228,031	-0,19
228,5	-0,18
228,969	-0,19
229,438	-0,18
229,906	-0,17
230,375	-0,16
230,844	-0,15
231,312	-0,15
231,781	-0,16
232,249	-0,15
232,718	-0,15
233,186	-0,14
233,655	-0,14
234,123	-0,13
234,591	-0,13
235,06	-0,13
235,528	-0,14
235,996	-0,13
236,465	-0,13
236,933	-0,13
237,401	-0,13
237,869	-0,12
238,337	-0,13
238,805	-0,11
239,274	-0,11
239,742	-0,1
240,21	-0,11
240,678	-0,1
241,146	-0,1
241,614	-0,11
242,081	-0,1
242,549	-0,09
243,017	-0,09
243,485	-0,09
243,953	-0,09
244,421	-0,09
244,888	-0,1
245,356	-0,1
245,824	-0,1
246,291	-0,1
246,759	-0,1
247,227	-0,1
247,694	-0,1
248,162	-0,09
248,629	-0,08
249,097	-0,09
249,564	-0,09
250,032	-0,1
250,499	-0,1
250,967	-0,09
251,434	-0,1
251,901	-0,1
252,369	-0,1
252,836	-0,12
253,303	-0,14
253,77	-0,15
254,237	-0,15
254,705	-0,15
255,172	-0,14
255,639	-0,14
256,106	-0,16
256,573	-0,15
257,04	-0,15
257,507	-0,16
257,974	-0,16
258,441	-0,14
258,908	-0,14
259,375	-0,16
259,841	-0,17
260,308	-0,17
260,775	-0,18
261,242	-0,17
261,709	-0,18
262,175	-0,2
262,642	-0,19
263,109	-0,19
263,575	-0,2
264,042	-0,19
264,508	-0,19
264,975	-0,21
265,441	-0,21
265,908	-0,21
266,374	-0,2
266,841	-0,2
267,307	-0,2
267,773	-0,19
268,24	-0,19
268,706	-0,19
269,172	-0,2
269,639	-0,21
270,105	-0,18
270,571	-0,18
271,037	-0,19
271,503	-0,2
271,969	-0,19
272,435	-0,19
272,902	-0,2
273,368	-0,22
273,834	-0,21
274,3	-0,22
274,765	-0,22
275,231	-0,23
275,697	-0,23
276,163	-0,22
276,629	-0,21
277,095	-0,21
277,56	-0,21
278,026	-0,22
278,492	-0,2
278,958	-0,2
279,423	-0,2
279,889	-0,2
280,354	-0,2
280,82	-0,2
281,286	-0,22
281,751	-0,22
282,217	-0,21
282,682	-0,21
283,147	-0,21
283,613	-0,22
284,078	-0,22
284,544	-0,23
285,009	-0,24
285,474	-0,23
285,939	-0,25
286,405	-0,23
286,87	-0,23
287,335	-0,23
287,8	-0,22
288,265	-0,2
288,73	-0,22
289,195	-0,23
289,66	-0,22
290,125	-0,2
290,59	-0,21
291,055	-0,19
291,52	-0,2
291,985	-0,2
292,45	-0,21
292,915	-0,21
293,38	-0,22
293,844	-0,19
294,309	-0,18
294,774	-0,17
295,239	-0,19
295,703	-0,19
296,168	-0,19
296,632	-0,18
297,097	-0,17
297,562	-0,16
298,026	-0,16
298,491	-0,17
298,955	-0,17
299,419	-0,16
299,884	-0,16
300,348	-0,15
300,813	-0,14
301,277	-0,15
301,741	-0,16
302,205	-0,16
302,67	-0,15
303,134	-0,15
303,598	-0,14
304,062	-0,13
304,526	-0,13
304,99	-0,14
305,454	-0,14
305,919	-0,13
306,383	-0,13
306,847	-0,12
307,31	-0,13
307,774	-0,14
308,238	-0,13
308,702	-0,14
309,166	-0,16
309,63	-0,17
310,094	-0,15
310,557	-0,15
311,021	-0,15
311,485	-0,16
311,948	-0,15
312,412	-0,14
312,876	-0,14
313,339	-0,14
313,803	-0,15
314,266	-0,14
314,73	-0,14
315,193	-0,14
315,657	-0,13
316,12	-0,13
316,584	-0,11
317,047	-0,12
317,51	-0,11
317,973	-0,1
318,437	-0,09
318,9	-0,07
319,363	-0,06
319,826	-0,04
320,29	-0,04
320,753	-0,04
321,216	-0,04
321,679	-0,04
322,142	-0,03
322,605	-0,04
323,068	-0,05
323,531	-0,06
323,994	-0,05
324,457	-0,05
324,92	-0,04
325,382	-0,04
325,845	-0,04
326,308	-0,03
326,771	-0,03
327,233	-0,02
327,696	-0,01
328,159	-0
328,622	0,02
329,084	0,02
329,547	0,02
330,009	0,02
330,472	0,03
330,934	0,04
331,397	0,04
331,859	0,05
332,322	0,05
332,784	0,06
333,246	0,06
333,709	0,06
334,171	0,07
334,633	0,07
335,096	0,06
335,558	0,07
336,02	0,07
336,482	0,07
336,944	0,08
337,406	0,09
337,868	0,1
338,331	0,1
338,793	0,11
339,255	0,11
339,717	0,11
340,178	0,12
340,64	0,13
341,102	0,14
341,564	0,15
342,026	0,16
342,488	0,17
342,949	0,18
343,411	0,21
343,873	0,24
344,335	0,27
344,796	0,31
345,258	0,35
345,719	0,39
346,181	0,44
346,643	0,48
347,104	0,52
347,566	0,56
348,027	0,59
348,488	0,61
348,95	0,64
349,411	0,66
349,873	0,69
350,334	0,71
350,795	0,73
351,256	0,74
351,718	0,75
352,179	0,76
352,64	0,76
353,101	0,77
353,562	0,77
354,023	0,77
354,484	0,78
354,945	0,78
355,406	0,78
355,867	0,78
356,328	0,79
356,789	0,8
357,25	0,8
357,711	0,8
358,172	0,8
358,633	0,8
359,093	0,81
359,554	0,81
360,015	0,81
360,476	0,81
360,936	0,81
361,397	0,81
361,858	0,81
362,318	0,81
362,779	0,81
363,239	0,81
363,7	0,81
364,16	0,81
364,621	0,81
365,081	0,81
365,541	0,81
366,002	0,81
366,462	0,81
366,922	0,81
367,383	0,81
367,843	0,81
368,303	0,81
368,763	0,81
369,223	0,81
369,684	0,81
370,144	0,81
370,604	0,81
371,064	0,81
371,524	0,81
371,984	0,81
372,444	0,81
372,904	0,81
373,363	0,81
373,823	0,81
374,283	0,81
374,743	0,81
375,203	0,81
375,663	0,81
376,122	0,81
376,582	0,81
377,042	0,81
377,501	0,81
377,961	0,81
378,42	0,81
378,88	0,81
379,34	0,81
379,799	0,81
380,259	0,8
380,718	0,8
381,177	0,8
381,637	0,8
382,096	0,8
382,555	0,8
383,015	0,8
383,474	0,8
383,933	0,8
384,393	0,8
384,852	0,8
385,311	0,8
385,77	0,8
386,229	0,8
386,688	0,8
387,147	0,8
387,606	0,8
388,065	0,8
388,524	0,8
388,983	0,8
389,442	0,8
389,901	0,79
390,36	0,79
390,819	0,79
391,277	0,79
391,736	0,79
392,195	0,79
392,654	0,79
393,112	0,79
393,571	0,79
394,03	0,79
394,488	0,79
394,947	0,79
395,405	0,79
395,864	0,79
396,322	0,79
396,781	0,79
397,239	0,79
397,698	0,79
398,156	0,79
398,614	0,79
399,073	0,79
399,531	0,79
399,989	0,79
400,447	0,79
400,905	0,79
401,364	0,79
401,822	0,79
402,28	0,79
402,738	0,78
403,196	0,78
403,654	0,78
404,112	0,78
404,57	0,78
405,028	0,78
405,486	0,78
405,944	0,78
406,402	0,78
406,859	0,78
407,317	0,78
407,775	0,78
408,233	0,78
408,691	0,78
409,148	0,78
409,606	0,78
410,064	0,78
410,521	0,78
410,979	0,78
411,436	0,78
411,894	0,78
412,351	0,78
412,809	0,78
413,266	0,78
413,724	0,78
414,181	0,78
414,638	0,78
415,096	0,78
415,553	0,78
416,01	0,78
416,467	0,78
416,925	0,78
417,382	0,78
417,839	0,78
418,296	0,78
418,753	0,78
419,21	0,78
419,667	0,78
420,124	0,78
420,581	0,78
421,038	0,78
421,495	0,78
421,952	0,78
422,409	0,78
422,866	0,78
423,322	0,78
423,779	0,78
424,236	0,78
424,693	0,78
425,149	0,78
425,606	0,78
426,063	0,78
426,519	0,78
426,976	0,78
427,433	0,78
427,889	0,78
428,346	0,78
428,802	0,78
429,258	0,77
429,715	0,78
430,171	0,78
430,628	0,78
431,084	0,77
431,54	0,78
431,997	0,78
432,453	0,77
432,909	0,77
433,365	0,77
433,821	0,77
434,277	0,77
434,734	0,77
435,19	0,77
435,646	0,77
436,102	0,77
436,558	0,77
437,014	0,77
437,47	0,77
437,925	0,77
438,381	0,77
438,837	0,77
439,293	0,77
439,749	0,77
440,205	0,77
440,66	0,77
441,116	0,77
441,572	0,77
442,027	0,77
442,483	0,77
442,939	0,78
443,394	0,78
443,85	0,78
444,305	0,78
444,761	0,78
445,216	0,78
445,672	0,78
446,127	0,78
446,582	0,78
447,038	0,78
447,493	0,78
447,948	0,78
448,403	0,78
448,859	0,78
449,314	0,78
449,769	0,78
450,224	0,78
450,679	0,78
451,134	0,78
451,589	0,78
452,044	0,78
452,499	0,78
452,954	0,78
453,409	0,78
453,864	0,78
454,319	0,78
454,774	0,78
455,229	0,78
455,684	0,78
456,138	0,78
456,593	0,78
457,048	0,78
457,503	0,78
457,957	0,78
458,412	0,78
458,866	0,78
459,321	0,78
459,776	0,79
460,23	0,79
460,685	0,79
461,139	0,79
461,593	0,79
462,048	0,79
462,502	0,79
462,957	0,79
463,411	0,79
463,865	0,79
464,319	0,79
464,774	0,79
465,228	0,8
465,682	0,8
466,136	0,8
466,59	0,8
467,044	0,8
467,499	0,8
467,953	0,8
468,407	0,8
468,861	0,8
469,315	0,8
469,768	0,8
470,222	0,8
470,676	0,81
471,13	0,81
471,584	0,81
472,038	0,81
472,491	0,81
472,945	0,81
473,399	0,81
473,852	0,81
474,306	0,81
474,76	0,82
475,213	0,82
475,667	0,82
476,12	0,82
476,574	0,82
477,027	0,82
477,481	0,82
477,934	0,83
478,388	0,83
478,841	0,83
479,294	0,83
479,748	0,83
480,201	0,83
480,654	0,84
481,107	0,84
481,561	0,84
482,014	0,84
482,467	0,84
482,92	0,85
483,373	0,85
483,826	0,85
484,279	0,85
484,732	0,85
485,185	0,86
485,638	0,86
486,091	0,86
486,544	0,86
486,997	0,86
487,449	0,87
487,902	0,87
488,355	0,87
488,808	0,88
489,26	0,88
489,713	0,88
490,166	0,88
490,618	0,89
491,071	0,89
491,523	0,89
491,976	0,89
492,429	0,9
492,881	0,9
493,333	0,9
493,786	0,91
494,238	0,91
494,691	0,91
495,143	0,92
495,595	0,92
496,048	0,93
496,5	0,93
496,952	0,93
497,404	0,94
497,856	0,94
498,309	0,94
498,761	0,95
499,213	0,95
499,665	0,96
500,117	0,96
500,569	0,97
501,021	0,97
501,473	0,97
501,925	0,98
502,377	0,98
502,828	0,99
503,28	0,99
503,732	0,99
504,184	1
504,636	1
505,087	1,01
505,539	1,01
505,991	1,01
506,442	1,02
506,894	1,02
507,345	1,03
507,797	1,03
508,249	1,03
508,7	1,04
509,151	1,04
509,603	1,05
510,054	1,05
510,506	1,06
510,957	1,06
511,408	1,06
511,86	1,07
512,311	1,07
512,762	1,08
513,213	1,08
513,665	1,08
514,116	1,09
514,567	1,09
515,018	1,09
515,469	1,09
515,92	1,1
516,371	1,1
516,822	1,1
517,273	1,11
517,724	1,11
518,175	1,11
518,626	1,12
519,076	1,12
519,527	1,12
519,978	1,12
520,429	1,13
520,88	1,13
521,33	1,13
521,781	1,13
522,232	1,14
522,682	1,14
523,133	1,14
523,583	1,14
524,034	1,14
524,484	1,14
524,935	1,14
525,385	1,14
525,836	1,14
526,286	1,14
526,736	1,14
527,187	1,14
527,637	1,14
528,087	1,14
528,538	1,14
528,988	1,14
529,438	1,14
529,888	1,14
530,338	1,14
530,788	1,14
531,238	1,14
531,688	1,13
532,139	1,13
532,589	1,13
533,038	1,13
533,488	1,13
533,938	1,13
534,388	1,12
534,838	1,12
535,288	1,12
535,738	1,11
536,187	1,11
536,637	1,11
537,087	1,1
537,537	1,1
537,986	1,09
538,436	1,09
538,885	1,08
539,335	1,08
539,785	1,07
540,234	1,07
540,684	1,06
541,133	1,06
541,582	1,05
542,032	1,05
542,481	1,04
542,931	1,04
543,38	1,03
543,829	1,03
544,278	1,02
544,728	1,02
545,177	1,01
545,626	1,01
546,075	1
546,524	1
546,973	0,99
547,422	0,99
547,871	0,99
548,32	0,98
548,769	0,98
549,218	0,98
549,667	0,97
550,116	0,97
550,565	0,96
551,014	0,96
551,463	0,95
551,911	0,95
552,36	0,94
552,809	0,94
553,258	0,93
553,706	0,93
554,155	0,92
554,603	0,92
555,052	0,91
555,501	0,91
555,949	0,9
556,398	0,9
556,846	0,89
557,294	0,89
557,743	0,88
558,191	0,88
558,64	0,87
559,088	0,87
559,536	0,86
559,985	0,86
560,433	0,85
560,881	0,85
561,329	0,84
561,777	0,84
562,225	0,83
562,674	0,83
563,122	0,82
563,57	0,82
564,018	0,82
564,466	0,81
564,914	0,81
565,362	0,8
565,809	0,8
566,257	0,79
566,705	0,79
567,153	0,78
567,601	0,78
568,048	0,77
568,496	0,77
568,944	0,77
569,392	0,76
569,839	0,76
570,287	0,75
570,734	0,75
571,182	0,75
571,63	0,74
572,077	0,74
572,525	0,74
572,972	0,73
573,419	0,73
573,867	0,73
574,314	0,72
574,761	0,72
575,209	0,71
575,656	0,71
576,103	0,71
576,551	0,7
576,998	0,7
577,445	0,7
577,892	0,69
578,339	0,69
578,786	0,69
579,233	0,68
579,68	0,68
580,127	0,68
580,574	0,67
581,021	0,67
581,468	0,67
581,915	0,66
582,362	0,66
582,809	0,66
583,255	0,66
583,702	0,65
584,149	0,65
584,596	0,65
585,042	0,65
585,489	0,64
585,936	0,64
586,382	0,64
586,829	0,64
587,275	0,63
587,722	0,63
588,168	0,63
588,615	0,63
589,061	0,62
589,508	0,62
589,954	0,62
590,4	0,62
590,847	0,61
591,293	0,61
591,739	0,61
592,185	0,61
592,632	0,61
593,078	0,61
593,524	0,6
593,97	0,6
594,416	0,6
594,862	0,6
595,308	0,6
595,754	0,6
596,2	0,6
596,646	0,59
597,092	0,59
597,538	0,59
597,984	0,59
598,43	0,59
598,876	0,58
599,321	0,58
599,767	0,58
600,213	0,58
600,659	0,58
601,104	0,58
601,55	0,58
601,995	0,57
602,441	0,57
602,887	0,57
603,332	0,57
603,778	0,57
604,223	0,57
604,668	0,57
605,114	0,57
605,559	0,56
606,005	0,56
606,45	0,56
606,895	0,56
607,341	0,56
607,786	0,56
608,231	0,56
608,676	0,55
609,121	0,55
609,566	0,54
610,012	0,53
610,457	0,53
610,902	0,53
611,347	0,52
611,792	0,52
612,237	0,52
612,682	0,52
613,127	0,52
613,571	0,52
614,016	0,52
614,461	0,53
614,906	0,53
615,351	0,53
615,795	0,53
616,24	0,53
616,685	0,53
617,129	0,53
617,574	0,53
618,019	0,53
618,463	0,53
618,908	0,53
619,352	0,53
619,797	0,53
620,241	0,53
620,686	0,53
621,13	0,52
621,574	0,52
622,019	0,52
622,463	0,52
622,907	0,52
623,352	0,52
623,796	0,52
624,24	0,52
624,684	0,52
625,128	0,51
625,572	0,51
626,016	0,51
626,461	0,51
626,905	0,51
627,349	0,51
627,793	0,51
628,236	0,51
628,68	0,51
629,124	0,51
629,568	0,51
630,012	0,51
630,456	0,51
630,9	0,51
631,343	0,51
631,787	0,51
632,231	0,51
632,674	0,51
633,118	0,51
633,562	0,51
634,005	0,51
634,449	0,51
634,892	0,51
635,336	0,51
635,779	0,51
636,223	0,51
636,666	0,51
637,109	0,51
637,553	0,51
637,996	0,5
638,439	0,5
638,883	0,5
639,326	0,5
639,769	0,5
640,212	0,5
640,655	0,5
641,099	0,5
641,542	0,5
641,985	0,5
642,428	0,5
642,871	0,49
643,314	0,49
643,757	0,49
644,2	0,49
644,643	0,49
645,085	0,49
645,528	0,49
645,971	0,49
646,414	0,49
646,857	0,49
647,299	0,49
647,742	0,49
648,185	0,49
648,627	0,49
649,07	0,49
649,513	0,49
649,955	0,49
650,398	0,49
650,84	0,49
651,283	0,49
651,725	0,49
652,168	0,49
652,61	0,49
653,052	0,49
653,495	0,49
653,937	0,4
654,379	0,34
654,821	0,35
655,264	0,35
655,706	0,35
656,148	0,35
656,59	0,35
657,032	0,35
657,474	0,35
657,916	0,35
658,358	0,34
658,8	0,4
659,242	0,48
659,684	0,49
660,126	0,48
660,568	0,48
661,01	0,48
661,452	0,48
661,894	0,48
662,335	0,48
662,777	0,48
663,219	0,48
663,661	0,48
664,102	0,48
664,544	0,48
664,985	0,48
665,427	0,48
665,869	0,48
666,31	0,48
666,752	0,48
667,193	0,48
667,634	0,48
668,076	0,48
668,517	0,48
668,959	0,48
669,4	0,48
669,841	0,48
670,282	0,48
670,724	0,48
671,165	0,48
671,606	0,48
672,047	0,48
672,488	0,48
672,929	0,48
673,37	0,48
673,811	0,48
674,252	0,48
674,693	0,47
675,134	0,47
675,575	0,47
676,016	0,47
676,457	0,47
676,898	0,47
677,339	0,47
677,78	0,47
678,22	0,47
678,661	0,47
679,102	0,47
679,542	0,47
679,983	0,47
680,424	0,47
680,864	0,47
681,305	0,47
681,745	0,47
682,186	0,47
682,626	0,47
683,067	0,47
683,507	0,47
683,948	0,47
684,388	0,47
684,828	0,47
685,269	0,47
685,709	0,47
686,149	0,47
686,589	0,47
687,029	0,47
687,47	0,46
687,91	0,46
688,35	0,46
688,79	0,46
689,23	0,46
689,67	0,46
690,11	0,46
690,55	0,46
690,99	0,46
691,43	0,46
691,87	0,46
692,31	0,46
692,749	0,46
693,189	0,46
693,629	0,45
694,069	0,45
694,508	0,45
694,948	0,45
695,388	0,45
695,827	0,45
696,267	0,45
696,706	0,46
697,146	0,46
697,586	0,46
698,025	0,46
698,464	0,46
698,904	0,46
699,343	0,46
699,783	0,46
700,222	0,46
700,661	0,46
701,101	0,46
701,54	0,46
701,979	0,46
702,418	0,46
702,857	0,46
703,297	0,46
703,736	0,46
704,175	0,46
704,614	0,46
705,053	0,46
705,492	0,46
705,931	0,46
706,37	0,46
706,809	0,46
707,248	0,45
707,687	0,45
708,125	0,45
708,564	0,45
709,003	0,45
709,442	0,45
709,88	0,45
710,319	0,45
710,758	0,45
711,196	0,45
711,635	0,45
712,074	0,45
712,512	0,45
712,951	0,45
713,389	0,45
713,828	0,45
714,266	0,45
714,705	0,44
715,143	0,44
715,581	0,44
716,02	0,44
716,458	0,45
716,896	0,45
717,334	0,45
717,773	0,45
718,211	0,45
718,649	0,45
719,087	0,45
719,525	0,45
719,963	0,45
720,401	0,45
720,839	0,45
721,277	0,45
721,715	0,45
722,153	0,45
722,591	0,45
723,029	0,45
723,467	0,45
723,905	0,45
724,342	0,45
724,78	0,45
725,218	0,45
725,656	0,45
726,093	0,45
726,531	0,45
726,969	0,45
727,406	0,45
727,844	0,45
728,281	0,45
728,719	0,45
729,156	0,45
729,594	0,45
730,031	0,45
730,469	0,44
730,906	0,44
731,343	0,44
731,781	0,44
732,218	0,44
732,655	0,44
733,092	0,44
733,53	0,44
733,967	0,44
734,404	0,44
734,841	0,44
735,278	0,43
735,715	0,43
736,152	0,43
736,589	0,43
737,026	0,43
737,463	0,43
737,9	0,43
738,337	0,43
738,774	0,43
739,211	0,43
739,647	0,43
740,084	0,43
740,521	0,43
740,958	0,43
741,394	0,43
741,831	0,43
742,268	0,43
742,704	0,43
743,141	0,43
743,577	0,43
744,014	0,43
744,45	0,43
744,887	0,43
745,323	0,43
745,76	0,43
746,196	0,43
746,632	0,43
747,069	0,43
747,505	0,43
747,941	0,43
748,378	0,43
748,814	0,43
749,25	0,43
749,686	0,43
750,122	0,43
750,558	0,43
750,994	0,43
751,43	0,43
751,866	0,43
752,302	0,43
752,738	0,44
753,174	0,44
753,61	0,44
754,046	0,44
754,482	0,44
754,918	0,44
755,354	0,44
755,789	0,44
756,225	0,43
756,661	0,43
757,096	0,43
757,532	0,43
757,968	0,43
758,403	0,42
758,839	0,42
759,274	0,42
759,71	0,41
760,145	0,41
760,581	0,4
761,016	0,39
761,452	0,39
761,887	0,39
762,322	0,38
762,758	0,38
763,193	0,37
763,628	0,37
764,063	0,36
764,499	0,35
764,934	0,35
765,369	0,34
765,804	0,34
766,239	0,33
766,674	0,32
767,109	0,32
767,544	0,31
767,979	0,3
768,414	0,29
768,849	0,28
769,284	0,27
769,719	0,26
770,154	0,25
770,588	0,25
771,023	0,24
771,458	0,23
771,893	0,21
772,327	0,2
772,762	0,19
773,197	0,18
773,631	0,17
774,066	0,16
774,5	0,16
774,935	0,14
775,369	0,13
775,804	0,12
776,238	0,11
776,673	0,1
777,107	0,09
777,541	0,08
777,976	0,07
778,41	0,06
778,844	0,04
779,279	0,04
779,713	0,03
780,147	0,02
780,581	0,01
781,015	0
781,449	-0
781,883	-0,01
782,317	-0,02
782,751	-0,03
783,185	-0,04
783,619	-0,04
784,053	-0,06
784,487	-0,07
784,921	-0,07
785,355	-0,08
785,789	-0,09
786,223	-0,1
786,656	-0,11
787,09	-0,12
787,524	-0,13
787,957	-0,14
788,391	-0,16
788,825	-0,18
789,258	-0,19
789,692	-0,2
790,125	-0,22
790,559	-0,24
790,992	-0,26
791,426	-0,28
791,859	-0,3
792,293	-0,33
792,726	-0,34
793,159	-0,36
793,593	-0,38
794,026	-0,4
794,459	-0,43
794,892	-0,45
795,326	-0,48
795,759	-0,52
796,192	-0,56
796,625	-0,6
797,058	-0,63
797,491	-0,67
797,924	-0,71
798,357	-0,77
798,79	-0,81
799,223	-0,85
799,656	-0,9
800,089	-0,95
800,522	-0,99
800,955	-1,04
801,387	-1,09
801,82	-1,14
802,253	-1,21
802,686	-1,29
803,118	-1,34
803,551	-1,39
803,984	-1,44
804,416	-1,48
804,849	-1,54
805,281	-1,7
805,714	-2,04
806,146	-2,47
806,579	-2,72
807,011	-2,88
807,444	-2,97
807,876	-3,05
808,308	-3,08
808,741	-3,11
809,173	-3,16
809,605	-3,18
810,037	-3,26
810,47	-3,17
810,902	-2,97
811,334	-2,82
811,766	-2,66
812,198	-2,4
812,63	-1,98
813,062	-1,77
813,494	-1,68
813,926	-1,59
814,358	-1,54
814,79	-1,46
815,222	-1,4
815,654	-1,35
816,086	-1,29
816,518	-1,23
816,949	-1,18
817,381	-1,14
817,813	-1,12
818,245	-1,08
818,676	-1,04
819,108	-1,01
819,54	-1
819,971	-0,97
820,403	-0,92
820,834	-0,91
821,266	-0,87
821,697	-0,85
822,129	-0,83
822,56	-0,81
822,991	-0,79
823,423	-0,76
823,854	-0,75
824,286	-0,73
824,717	-0,73
825,148	-0,71
825,579	-0,7
826,01	-0,68
826,442	-0,68
826,873	-0,65
827,304	-0,62
827,735	-0,61
828,166	-0,62
828,597	-0,62
829,028	-0,61
829,459	-0,61
829,89	-0,61
830,321	-0,56
830,752	-0,57
831,183	-0,56
831,613	-0,56
832,044	-0,56
832,475	-0,55
832,906	-0,55
833,336	-0,56
833,767	-0,57
834,198	-0,55
834,628	-0,53
835,059	-0,57
835,49	-0,58
835,92	-0,56
836,351	-0,55
836,781	-0,55
837,212	-0,56
837,642	-0,57
838,072	-0,56
838,503	-0,56
838,933	-0,53
839,364	-0,54
839,794	-0,52
840,224	-0,5
840,654	-0,54
841,085	-0,54
841,515	-0,52
841,945	-0,52
842,375	-0,48
842,805	-0,46
843,235	-0,45
843,665	-0,47
844,095	-0,46
844,525	-0,47
844,955	-0,48
845,385	-0,45
845,815	-0,44
846,245	-0,46
846,675	-0,47
847,105	-0,48
847,534	-0,49
847,964	-0,48
848,394	-0,46
848,824	-0,5
849,253	-0,49
849,683	-0,49
850,112	-0,5
850,542	-0,54
850,972	-0,53
851,401	-0,51
851,831	-0,5
852,26	-0,51
852,69	-0,54
853,119	-0,53
853,548	-0,53
853,978	-0,54
854,407	-0,52
854,836	-0,52
855,266	-0,52
855,695	-0,53
856,124	-0,54
856,553	-0,55
856,983	-0,58
857,412	-0,57
857,841	-0,58
858,27	-0,59
858,699	-0,6
859,128	-0,64
859,557	-0,65
859,986	-0,65
860,415	-0,64
860,844	-0,62
861,273	-0,62
861,702	-0,62
862,13	-0,6
862,559	-0,62
862,988	-0,59
863,417	-0,57
863,845	-0,56
864,274	-0,57
864,703	-0,57
865,131	-0,56
865,56	-0,57
865,989	-0,59
866,417	-0,56
866,846	-0,56
867,274	-0,55
867,703	-0,57
868,131	-0,59
868,559	-0,59
868,988	-0,61
869,416	-0,6
869,844	-0,62
870,273	-0,65
870,701	-0,63
871,129	-0,67
871,557	-0,7
871,986	-0,7
872,414	-0,71
872,842	-0,68
873,27	-0,66
873,698	-0,63
874,126	-0,67
874,554	-0,65
874,982	-0,64
875,41	-0,68
875,838	-0,62
876,266	-0,59
876,694	-0,59
877,122	-0,57
877,549	-0,63
877,977	-0,61
878,405	-0,62
878,833	-0,59
879,26	-0,57
879,688	-0,58
880,116	-0,55
880,543	-0,53
880,971	-0,53
881,399	-0,56
881,826	-0,58
882,254	-0,56
882,681	-0,59
883,109	-0,56
883,536	-0,58
883,963	-0,6
884,391	-0,59
884,818	-0,57
885,245	-0,61
885,673	-0,63
886,1	-0,6
886,527	-0,6
886,954	-0,56
887,381	-0,57
887,809	-0,59
888,236	-0,59
888,663	-0,59
889,09	-0,63
889,517	-0,65
889,944	-0,65
890,371	-0,64
890,798	-0,65
891,225	-0,64
891,652	-0,67
892,078	-0,64
892,505	-0,67
892,932	-0,63
893,359	-0,64
893,786	-0,63
894,212	-0,6
894,639	-0,63
895,066	-0,64
895,492	-0,58
895,919	-0,59
896,346	-0,59
896,772	-0,59
897,199	-0,55
897,625	-0,58
898,052	-0,55
898,478	-0,53
898,904	-0,54
899,331	-0,54
899,757	-0,56
900,183	-0,58
900,61	-0,56
901,036	-0,57
901,462	-0,57
901,888	-0,57
902,315	-0,55
902,741	-0,6
903,167	-0,59
903,593	-0,62
904,019	-0,61
904,445	-0,57
904,871	-0,6
905,297	-0,61
905,723	-0,6
906,149	-0,59
906,575	-0,6
907,001	-0,6
907,427	-0,57
907,852	-0,56
908,278	-0,58
908,704	-0,56
909,13	-0,56
909,555	-0,55
909,981	-0,55
910,407	-0,55
910,832	-0,55
911,258	-0,55
911,684	-0,55
912,109	-0,55
912,535	-0,57
912,96	-0,51
913,386	-0,54
913,811	-0,54
914,236	-0,55
914,662	-0,53
915,087	-0,56
915,512	-0,57
915,938	-0,58
916,363	-0,58
916,788	-0,6
917,213	-0,58
917,639	-0,63
918,064	-0,61
918,489	-0,61
918,914	-0,62
919,339	-0,64
919,764	-0,61
920,189	-0,61
920,614	-0,63
921,039	-0,62
921,464	-0,58
921,889	-0,6
922,314	-0,61
922,738	-0,64
923,163	-0,65
923,588	-0,64
924,013	-0,63
924,437	-0,63
924,862	-0,64
925,287	-0,61
925,711	-0,62
926,136	-0,64
926,561	-0,63
926,985	-0,62
927,41	-0,59
927,834	-0,56
928,259	-0,53
928,683	-0,52
929,108	-0,49
929,532	-0,5
929,956	-0,49
930,381	-0,47
930,805	-0,47
931,229	-0,46
931,653	-0,45
932,078	-0,45
932,502	-0,47
932,926	-0,47
933,35	-0,47
933,774	-0,46
934,198	-0,43
934,622	-0,42
935,046	-0,44
935,47	-0,44
935,894	-0,43
936,318	-0,43
936,742	-0,43
937,166	-0,44
937,59	-0,44
938,014	-0,46
938,437	-0,47
938,861	-0,5
939,285	-0,51
939,709	-0,5
940,132	-0,51
940,556	-0,52
940,98	-0,52
941,403	-0,5
941,827	-0,51
942,25	-0,52
942,674	-0,5
943,097	-0,5
943,521	-0,49
943,944	-0,51
944,368	-0,49
944,791	-0,48
945,214	-0,5
945,638	-0,51
946,061	-0,53
946,484	-0,54
946,907	-0,53
947,331	-0,53
947,754	-0,57
948,177	-0,54
948,6	-0,54
949,023	-0,54
949,446	-0,53
949,869	-0,51
950,292	-0,51
950,715	-0,48
951,138	-0,46
951,561	-0,44
951,984	-0,44
952,407	-0,43
952,83	-0,41
953,252	-0,38
953,675	-0,38
954,098	-0,4
954,521	-0,38
954,943	-0,37
955,366	-0,38
955,789	-0,37
956,211	-0,4
956,634	-0,4
957,056	-0,37
957,479	-0,39
957,902	-0,41
958,324	-0,4
958,746	-0,38
959,169	-0,39
959,591	-0,39
960,014	-0,4
960,436	-0,39
960,858	-0,39
961,281	-0,38
961,703	-0,39
962,125	-0,39
962,547	-0,38
962,969	-0,4
963,391	-0,4
963,814	-0,41
964,236	-0,4
964,658	-0,37
965,08	-0,38
965,502	-0,37
965,924	-0,35
966,346	-0,35
966,768	-0,34
967,189	-0,36
967,611	-0,35
968,033	-0,35
968,455	-0,33
968,877	-0,34
969,298	-0,35
969,72	-0,36
970,142	-0,34
970,563	-0,35
970,985	-0,32
971,407	-0,31
971,828	-0,28
972,25	-0,28
972,671	-0,26
973,093	-0,26
973,514	-0,25
973,936	-0,23
974,357	-0,22
974,778	-0,22
975,2	-0,21
975,621	-0,21
976,042	-0,19
976,464	-0,19
976,885	-0,18
977,306	-0,17
977,727	-0,16
978,148	-0,15
978,57	-0,14
978,991	-0,12
979,412	-0,11
979,833	-0,1
980,254	-0,08
980,675	-0,09
981,096	-0,08
981,517	-0,06
981,937	-0,06
982,358	-0,04
982,779	-0,03
983,2	-0,03
983,621	-0,03
984,042	-0,01
984,462	-0
984,883	0,01
985,304	0,03
985,724	0,04
986,145	0,05
986,565	0,08
986,986	0,09
987,407	0,1
987,827	0,12
988,248	0,13
988,668	0,14
989,088	0,15
989,509	0,16
989,929	0,17
990,35	0,18
990,77	0,19
991,19	0,2
991,61	0,21
992,031	0,22
992,451	0,23
992,871	0,24
993,291	0,25
993,711	0,26
994,131	0,27
994,551	0,28
994,971	0,29
995,391	0,29
995,811	0,3
996,231	0,31
996,651	0,32
997,071	0,32
997,491	0,33
997,911	0,34
998,331	0,35
998,75	0,35
999,17	0,36
999,59	0,36
1000,009	0,37
1000,429	0,37
1000,849	0,38
1001,268	0,39
1001,688	0,39
1002,107	0,39
1002,527	0,4
1002,946	0,4
1003,366	0,4
1003,785	0,41
1004,205	0,41
1004,624	0,41
1005,044	0,42
1005,463	0,42
1005,882	0,42
1006,301	0,42
1006,721	0,42
1007,14	0,42
1007,559	0,43
1007,978	0,43
1008,397	0,43
1008,816	0,43
1009,235	0,43
1009,655	0,43
1010,074	0,43
1010,492	0,43
1010,911	0,43
1011,33	0,43
1011,749	0,43
1012,168	0,43
1012,587	0,42
1013,006	0,42
1013,425	0,42
1013,843	0,42
1014,262	0,42
1014,681	0,42
1015,099	0,42
1015,518	0,42
1015,937	0,42
1016,355	0,42
1016,774	0,42
1017,192	0,42
1017,611	0,42
1018,029	0,42
1018,448	0,42
1018,866	0,42
1019,285	0,42
1019,703	0,42
1020,121	0,42
1020,54	0,42
1020,958	0,42
1021,376	0,42
1021,794	0,42
1022,213	0,41
1022,631	0,41
1023,049	0,41
1023,467	0,41
1023,885	0,41
1024,303	0,41
1024,721	0,41
1025,139	0,41
1025,557	0,41
1025,975	0,41
1026,393	0,41
1026,811	0,41
1027,229	0,41
1027,647	0,41
1028,065	0,41
1028,482	0,4
1028,9	0,4
1029,318	0,4
1029,735	0,4
1030,153	0,4
1030,571	0,4
1030,988	0,4
1031,406	0,4
1031,823	0,4
1032,241	0,4
1032,659	0,4
1033,076	0,4
1033,493	0,4
1033,911	0,4
1034,328	0,4
1034,746	0,41
1035,163	0,41
1035,58	0,41
1035,997	0,41
1036,415	0,41
1036,832	0,41
1037,249	0,41
1037,666	0,41
1038,083	0,41
1038,501	0,41
1038,918	0,41
1039,335	0,41
1039,752	0,41
1040,169	0,41
1040,586	0,41
1041,003	0,41
1041,419	0,41
1041,836	0,41
1042,253	0,41
1042,67	0,41
1043,087	0,41
1043,504	0,41
1043,92	0,41
1044,337	0,41
1044,754	0,4
1045,17	0,4
1045,587	0,4
1046,004	0,4
1046,42	0,4
1046,837	0,4
1047,253	0,4
1047,67	0,4
1048,086	0,4
1048,503	0,4
1048,919	0,4
1049,335	0,4
1049,752	0,4
1050,168	0,4
1050,584	0,4
1051,001	0,4
1051,417	0,4
1051,833	0,4
1052,249	0,4
1052,665	0,41
1053,081	0,41
1053,497	0,41
1053,914	0,41
1054,33	0,41
1054,746	0,41
1055,162	0,41
1055,578	0,41
1055,993	0,41
1056,409	0,41
1056,825	0,41
1057,241	0,41
1057,657	0,42
1058,073	0,41
1058,488	0,41
1058,904	0,41
1059,32	0,41
1059,736	0,41
1060,151	0,41
1060,567	0,41
1060,982	0,41
1061,398	0,41
1061,813	0,41
1062,229	0,41
1062,644	0,41
1063,06	0,41
1063,475	0,41
1063,891	0,41
1064,306	0,41
1064,721	0,41
1065,137	0,41
1065,552	0,41
1065,967	0,41
1066,382	0,41
1066,798	0,41
1067,213	0,41
1067,628	0,41
1068,043	0,41
1068,458	0,41
1068,873	0,41
1069,288	0,41
1069,703	0,41
1070,118	0,41
1070,533	0,41
1070,948	0,41
1071,363	0,41
1071,778	0,41
1072,193	0,41
1072,607	0,41
1073,022	0,41
1073,437	0,41
1073,852	0,41
1074,266	0,41
1074,681	0,41
1075,096	0,41
1075,51	0,41
1075,925	0,41
1076,339	0,41
1076,754	0,41
1077,168	0,41
1077,583	0,41
1077,997	0,41
1078,412	0,41
1078,826	0,4
1079,24	0,4
1079,655	0,4
1080,069	0,4
1080,483	0,4
1080,897	0,4
1081,312	0,4
1081,726	0,4
1082,14	0,4
1082,554	0,4
1082,968	0,4
1083,382	0,4
1083,796	0,4
1084,21	0,4
1084,624	0,4
1085,038	0,39
1085,452	0,39
1085,866	0,39
1086,28	0,39
1086,694	0,39
1087,108	0,39
1087,521	0,39
1087,935	0,38
1088,349	0,38
1088,763	0,38
1089,176	0,38
1089,59	0,37
1090,004	0,37
1090,417	0,36
1090,831	0,36
1091,244	0,36
1091,658	0,35
1092,071	0,35
1092,485	0,35
1092,898	0,35
1093,312	0,35
1093,725	0,35
1094,138	0,34
1094,552	0,34
1094,965	0,34
1095,378	0,34
1095,791	0,33
1096,205	0,33
1096,618	0,33
1097,031	0,32
1097,444	0,32
1097,857	0,32
1098,27	0,31
1098,683	0,31
1099,096	0,31
1099,509	0,3
1099,922	0,3
1100,335	0,29
1100,748	0,29
1101,161	0,29
1101,574	0,28
1101,986	0,28
1102,399	0,28
1102,812	0,27
1103,225	0,27
1103,637	0,26
1104,05	0,26
1104,463	0,26
1104,875	0,25
1105,288	0,25
1105,7	0,24
1106,113	0,24
1106,525	0,24
1106,938	0,23
1107,35	0,23
1107,763	0,23
1108,175	0,22
1108,588	0,22
1109	0,22
1109,412	0,21
1109,824	0,21
1110,237	0,22
1110,649	0,22
1111,061	0,22
