Data from 18C-808nm-8A-cont_Absorbance__124__01553.txt Node

Date: Mon Jul 17 17:21:45 CEST 2023
User: Laser008
Spectrometer: MAYP115816
Trigger mode: 0
Integration Time (sec): 2,500000E-1
Scans to average: 10
Electric dark correction enabled: true
Nonlinearity correction enabled: true
Boxcar width: 5
XAxis mode: Wavelengths
Number of Pixels in Spectrum: 2068
>>>>>Begin Spectral Data<<<<<
198,914	-0,74
199,384	-0,52
199,855	-0,37
200,325	-0,3
200,796	-0,26
201,266	-0,2
201,737	-0,19
202,207	-0,17
202,677	-0,17
203,147	-0,15
203,618	-0,11
204,088	-0,09
204,558	-0,08
205,028	-0,07
205,498	-0,07
205,968	-0,07
206,439	-0,09
206,909	-0,09
207,379	-0,09
207,849	-0,09
208,319	-0,1
208,789	-0,11
209,258	-0,11
209,728	-0,12
210,198	-0,12
210,668	-0,12
211,138	-0,11
211,608	-0,11
212,077	-0,1
212,547	-0,1
213,017	-0,1
213,486	-0,1
213,956	-0,11
214,426	-0,12
214,895	-0,11
215,365	-0,13
215,834	-0,13
216,304	-0,14
216,773	-0,15
217,243	-0,16
217,712	-0,18
218,181	-0,18
218,651	-0,18
219,12	-0,18
219,589	-0,17
220,058	-0,16
220,528	-0,18
220,997	-0,18
221,466	-0,19
221,935	-0,2
222,404	-0,19
222,873	-0,18
223,342	-0,18
223,812	-0,18
224,281	-0,18
224,749	-0,18
225,218	-0,19
225,687	-0,19
226,156	-0,18
226,625	-0,16
227,094	-0,16
227,563	-0,16
228,031	-0,18
228,5	-0,18
228,969	-0,18
229,438	-0,17
229,906	-0,17
230,375	-0,17
230,844	-0,16
231,312	-0,16
231,781	-0,17
232,249	-0,16
232,718	-0,16
233,186	-0,14
233,655	-0,15
234,123	-0,14
234,591	-0,15
235,06	-0,14
235,528	-0,15
235,996	-0,14
236,465	-0,14
236,933	-0,14
237,401	-0,13
237,869	-0,12
238,337	-0,12
238,805	-0,1
239,274	-0,1
239,742	-0,1
240,21	-0,1
240,678	-0,09
241,146	-0,09
241,614	-0,09
242,081	-0,08
242,549	-0,09
243,017	-0,1
243,485	-0,1
243,953	-0,1
244,421	-0,1
244,888	-0,09
245,356	-0,09
245,824	-0,09
246,291	-0,09
246,759	-0,1
247,227	-0,1
247,694	-0,09
248,162	-0,09
248,629	-0,08
249,097	-0,09
249,564	-0,1
250,032	-0,11
250,499	-0,1
250,967	-0,11
251,434	-0,12
251,901	-0,11
252,369	-0,12
252,836	-0,14
253,303	-0,15
253,77	-0,16
254,237	-0,15
254,705	-0,16
255,172	-0,15
255,639	-0,16
256,106	-0,17
256,573	-0,17
257,04	-0,17
257,507	-0,16
257,974	-0,17
258,441	-0,15
258,908	-0,16
259,375	-0,17
259,841	-0,17
260,308	-0,17
260,775	-0,16
261,242	-0,15
261,709	-0,16
262,175	-0,17
262,642	-0,16
263,109	-0,16
263,575	-0,17
264,042	-0,16
264,508	-0,16
264,975	-0,17
265,441	-0,18
265,908	-0,19
266,374	-0,18
266,841	-0,18
267,307	-0,18
267,773	-0,17
268,24	-0,18
268,706	-0,18
269,172	-0,19
269,639	-0,2
270,105	-0,19
270,571	-0,19
271,037	-0,2
271,503	-0,21
271,969	-0,2
272,435	-0,2
272,902	-0,21
273,368	-0,22
273,834	-0,21
274,3	-0,21
274,765	-0,21
275,231	-0,2
275,697	-0,2
276,163	-0,18
276,629	-0,19
277,095	-0,2
277,56	-0,19
278,026	-0,19
278,492	-0,17
278,958	-0,18
279,423	-0,19
279,889	-0,18
280,354	-0,19
280,82	-0,19
281,286	-0,21
281,751	-0,21
282,217	-0,21
282,682	-0,21
283,147	-0,22
283,613	-0,22
284,078	-0,21
284,544	-0,22
285,009	-0,22
285,474	-0,22
285,939	-0,23
286,405	-0,22
286,87	-0,21
287,335	-0,21
287,8	-0,2
288,265	-0,18
288,73	-0,21
289,195	-0,23
289,66	-0,23
290,125	-0,21
290,59	-0,21
291,055	-0,2
291,52	-0,2
291,985	-0,22
292,45	-0,23
292,915	-0,22
293,38	-0,23
293,844	-0,21
294,309	-0,19
294,774	-0,18
295,239	-0,2
295,703	-0,2
296,168	-0,19
296,632	-0,19
297,097	-0,17
297,562	-0,16
298,026	-0,16
298,491	-0,17
298,955	-0,15
299,419	-0,15
299,884	-0,15
300,348	-0,13
300,813	-0,12
301,277	-0,14
301,741	-0,13
302,205	-0,13
302,67	-0,13
303,134	-0,12
303,598	-0,12
304,062	-0,12
304,526	-0,12
304,99	-0,14
305,454	-0,14
305,919	-0,14
306,383	-0,13
306,847	-0,13
307,31	-0,14
307,774	-0,15
308,238	-0,15
308,702	-0,14
309,166	-0,16
309,63	-0,15
310,094	-0,11
310,557	-0,11
311,021	-0,1
311,485	-0,11
311,948	-0,11
312,412	-0,1
312,876	-0,09
313,339	-0,1
313,803	-0,1
314,266	-0,09
314,73	-0,1
315,193	-0,11
315,657	-0,1
316,12	-0,1
316,584	-0,08
317,047	-0,08
317,51	-0,08
317,973	-0,07
318,437	-0,07
318,9	-0,06
319,363	-0,05
319,826	-0,04
320,29	-0,05
320,753	-0,05
321,216	-0,05
321,679	-0,05
322,142	-0,04
322,605	-0,05
323,068	-0,05
323,531	-0,06
323,994	-0,05
324,457	-0,06
324,92	-0,05
325,382	-0,05
325,845	-0,04
326,308	-0,04
326,771	-0,04
327,233	-0,03
327,696	-0,01
328,159	-0,01
328,622	0
329,084	0,01
329,547	0,01
330,009	0,02
330,472	0,03
330,934	0,03
331,397	0,03
331,859	0,03
332,322	0,03
332,784	0,03
333,246	0,03
333,709	0,03
334,171	0,04
334,633	0,04
335,096	0,03
335,558	0,04
336,02	0,04
336,482	0,04
336,944	0,05
337,406	0,06
337,868	0,07
338,331	0,07
338,793	0,08
339,255	0,08
339,717	0,08
340,178	0,09
340,64	0,1
341,102	0,11
341,564	0,11
342,026	0,13
342,488	0,14
342,949	0,15
343,411	0,18
343,873	0,2
344,335	0,22
344,796	0,26
345,258	0,29
345,719	0,33
346,181	0,37
346,643	0,4
347,104	0,43
347,566	0,45
348,027	0,48
348,488	0,5
348,95	0,51
349,411	0,53
349,873	0,54
350,334	0,56
350,795	0,57
351,256	0,58
351,718	0,59
352,179	0,59
352,64	0,59
353,101	0,59
353,562	0,6
354,023	0,6
354,484	0,6
354,945	0,6
355,406	0,6
355,867	0,6
356,328	0,61
356,789	0,61
357,25	0,61
357,711	0,61
358,172	0,61
358,633	0,61
359,093	0,62
359,554	0,62
360,015	0,62
360,476	0,62
360,936	0,62
361,397	0,62
361,858	0,62
362,318	0,62
362,779	0,62
363,239	0,62
363,7	0,62
364,16	0,62
364,621	0,62
365,081	0,62
365,541	0,62
366,002	0,62
366,462	0,62
366,922	0,62
367,383	0,62
367,843	0,62
368,303	0,62
368,763	0,62
369,223	0,62
369,684	0,62
370,144	0,62
370,604	0,62
371,064	0,62
371,524	0,62
371,984	0,62
372,444	0,62
372,904	0,62
373,363	0,62
373,823	0,62
374,283	0,62
374,743	0,62
375,203	0,62
375,663	0,62
376,122	0,62
376,582	0,62
377,042	0,62
377,501	0,62
377,961	0,62
378,42	0,62
378,88	0,62
379,34	0,62
379,799	0,62
380,259	0,62
380,718	0,62
381,177	0,61
381,637	0,61
382,096	0,61
382,555	0,61
383,015	0,61
383,474	0,61
383,933	0,61
384,393	0,61
384,852	0,61
385,311	0,61
385,77	0,61
386,229	0,61
386,688	0,61
387,147	0,61
387,606	0,61
388,065	0,61
388,524	0,61
388,983	0,61
389,442	0,61
389,901	0,61
390,36	0,61
390,819	0,61
391,277	0,61
391,736	0,61
392,195	0,61
392,654	0,61
393,112	0,61
393,571	0,61
394,03	0,61
394,488	0,6
394,947	0,6
395,405	0,6
395,864	0,6
396,322	0,6
396,781	0,6
397,239	0,6
397,698	0,6
398,156	0,6
398,614	0,6
399,073	0,6
399,531	0,6
399,989	0,6
400,447	0,6
400,905	0,6
401,364	0,6
401,822	0,6
402,28	0,6
402,738	0,6
403,196	0,6
403,654	0,6
404,112	0,6
404,57	0,6
405,028	0,6
405,486	0,6
405,944	0,6
406,402	0,6
406,859	0,6
407,317	0,6
407,775	0,6
408,233	0,6
408,691	0,6
409,148	0,6
409,606	0,6
410,064	0,6
410,521	0,6
410,979	0,6
411,436	0,6
411,894	0,6
412,351	0,6
412,809	0,6
413,266	0,6
413,724	0,59
414,181	0,59
414,638	0,59
415,096	0,59
415,553	0,59
416,01	0,59
416,467	0,59
416,925	0,59
417,382	0,59
417,839	0,59
418,296	0,59
418,753	0,59
419,21	0,59
419,667	0,59
420,124	0,59
420,581	0,59
421,038	0,59
421,495	0,59
421,952	0,59
422,409	0,59
422,866	0,59
423,322	0,59
423,779	0,59
424,236	0,59
424,693	0,59
425,149	0,59
425,606	0,59
426,063	0,59
426,519	0,59
426,976	0,59
427,433	0,59
427,889	0,59
428,346	0,59
428,802	0,59
429,258	0,59
429,715	0,59
430,171	0,59
430,628	0,59
431,084	0,59
431,54	0,59
431,997	0,59
432,453	0,59
432,909	0,59
433,365	0,59
433,821	0,59
434,277	0,59
434,734	0,59
435,19	0,59
435,646	0,59
436,102	0,59
436,558	0,59
437,014	0,59
437,47	0,59
437,925	0,59
438,381	0,59
438,837	0,59
439,293	0,59
439,749	0,59
440,205	0,59
440,66	0,59
441,116	0,59
441,572	0,59
442,027	0,59
442,483	0,59
442,939	0,59
443,394	0,59
443,85	0,59
444,305	0,59
444,761	0,59
445,216	0,59
445,672	0,59
446,127	0,59
446,582	0,59
447,038	0,59
447,493	0,59
447,948	0,59
448,403	0,59
448,859	0,59
449,314	0,59
449,769	0,59
450,224	0,59
450,679	0,59
451,134	0,59
451,589	0,59
452,044	0,59
452,499	0,59
452,954	0,59
453,409	0,59
453,864	0,59
454,319	0,59
454,774	0,59
455,229	0,59
455,684	0,59
456,138	0,59
456,593	0,59
457,048	0,59
457,503	0,59
457,957	0,59
458,412	0,59
458,866	0,59
459,321	0,59
459,776	0,6
460,23	0,6
460,685	0,6
461,139	0,6
461,593	0,6
462,048	0,6
462,502	0,6
462,957	0,6
463,411	0,6
463,865	0,6
464,319	0,6
464,774	0,6
465,228	0,6
465,682	0,6
466,136	0,6
466,59	0,61
467,044	0,61
467,499	0,61
467,953	0,61
468,407	0,61
468,861	0,61
469,315	0,61
469,768	0,61
470,222	0,61
470,676	0,61
471,13	0,61
471,584	0,61
472,038	0,61
472,491	0,61
472,945	0,61
473,399	0,61
473,852	0,62
474,306	0,62
474,76	0,62
475,213	0,62
475,667	0,62
476,12	0,62
476,574	0,62
477,027	0,62
477,481	0,62
477,934	0,62
478,388	0,63
478,841	0,63
479,294	0,63
479,748	0,63
480,201	0,63
480,654	0,63
481,107	0,63
481,561	0,64
482,014	0,64
482,467	0,64
482,92	0,64
483,373	0,64
483,826	0,64
484,279	0,64
484,732	0,65
485,185	0,65
485,638	0,65
486,091	0,65
486,544	0,65
486,997	0,65
487,449	0,66
487,902	0,66
488,355	0,66
488,808	0,66
489,26	0,66
489,713	0,66
490,166	0,67
490,618	0,67
491,071	0,67
491,523	0,67
491,976	0,68
492,429	0,68
492,881	0,68
493,333	0,68
493,786	0,69
494,238	0,69
494,691	0,69
495,143	0,69
495,595	0,7
496,048	0,7
496,5	0,7
496,952	0,7
497,404	0,71
497,856	0,71
498,309	0,71
498,761	0,72
499,213	0,72
499,665	0,72
500,117	0,73
500,569	0,73
501,021	0,73
501,473	0,74
501,925	0,74
502,377	0,74
502,828	0,75
503,28	0,75
503,732	0,75
504,184	0,76
504,636	0,76
505,087	0,76
505,539	0,76
505,991	0,77
506,442	0,77
506,894	0,77
507,345	0,78
507,797	0,78
508,249	0,78
508,7	0,79
509,151	0,79
509,603	0,79
510,054	0,8
510,506	0,8
510,957	0,8
511,408	0,81
511,86	0,81
512,311	0,81
512,762	0,82
513,213	0,82
513,665	0,82
514,116	0,82
514,567	0,83
515,018	0,83
515,469	0,83
515,92	0,84
516,371	0,84
516,822	0,84
517,273	0,84
517,724	0,85
518,175	0,85
518,626	0,85
519,076	0,85
519,527	0,85
519,978	0,86
520,429	0,86
520,88	0,86
521,33	0,86
521,781	0,86
522,232	0,86
522,682	0,87
523,133	0,87
523,583	0,87
524,034	0,87
524,484	0,87
524,935	0,87
525,385	0,87
525,836	0,87
526,286	0,87
526,736	0,87
527,187	0,87
527,637	0,87
528,087	0,87
528,538	0,87
528,988	0,87
529,438	0,87
529,888	0,87
530,338	0,87
530,788	0,87
531,238	0,87
531,688	0,87
532,139	0,86
532,589	0,86
533,038	0,86
533,488	0,86
533,938	0,86
534,388	0,86
534,838	0,85
535,288	0,85
535,738	0,85
536,187	0,85
536,637	0,84
537,087	0,84
537,537	0,84
537,986	0,84
538,436	0,83
538,885	0,83
539,335	0,83
539,785	0,82
540,234	0,82
540,684	0,82
541,133	0,81
541,582	0,81
542,032	0,8
542,481	0,8
542,931	0,8
543,38	0,79
543,829	0,79
544,278	0,79
544,728	0,78
545,177	0,78
545,626	0,78
546,075	0,77
546,524	0,77
546,973	0,77
547,422	0,76
547,871	0,76
548,32	0,76
548,769	0,76
549,218	0,75
549,667	0,75
550,116	0,75
550,565	0,74
551,014	0,74
551,463	0,74
551,911	0,73
552,36	0,73
552,809	0,73
553,258	0,72
553,706	0,72
554,155	0,72
554,603	0,71
555,052	0,71
555,501	0,71
555,949	0,7
556,398	0,7
556,846	0,7
557,294	0,69
557,743	0,69
558,191	0,69
558,64	0,68
559,088	0,68
559,536	0,67
559,985	0,67
560,433	0,67
560,881	0,66
561,329	0,66
561,777	0,66
562,225	0,65
562,674	0,65
563,122	0,65
563,57	0,64
564,018	0,64
564,466	0,64
564,914	0,63
565,362	0,63
565,809	0,63
566,257	0,62
566,705	0,62
567,153	0,62
567,601	0,62
568,048	0,61
568,496	0,61
568,944	0,61
569,392	0,6
569,839	0,6
570,287	0,6
570,734	0,6
571,182	0,59
571,63	0,59
572,077	0,59
572,525	0,58
572,972	0,58
573,419	0,58
573,867	0,58
574,314	0,57
574,761	0,57
575,209	0,57
575,656	0,56
576,103	0,56
576,551	0,56
576,998	0,56
577,445	0,56
577,892	0,55
578,339	0,55
578,786	0,55
579,233	0,55
579,68	0,54
580,127	0,54
580,574	0,54
581,021	0,54
581,468	0,54
581,915	0,53
582,362	0,53
582,809	0,53
583,255	0,53
583,702	0,53
584,149	0,53
584,596	0,52
585,042	0,52
585,489	0,52
585,936	0,52
586,382	0,52
586,829	0,51
587,275	0,51
587,722	0,51
588,168	0,51
588,615	0,51
589,061	0,51
589,508	0,51
589,954	0,5
590,4	0,5
590,847	0,5
591,293	0,5
591,739	0,5
592,185	0,5
592,632	0,5
593,078	0,49
593,524	0,49
593,97	0,49
594,416	0,49
594,862	0,49
595,308	0,49
595,754	0,49
596,2	0,49
596,646	0,49
597,092	0,48
597,538	0,48
597,984	0,48
598,43	0,48
598,876	0,48
599,321	0,48
599,767	0,48
600,213	0,48
600,659	0,48
601,104	0,48
601,55	0,47
601,995	0,47
602,441	0,47
602,887	0,47
603,332	0,47
603,778	0,47
604,223	0,47
604,668	0,47
605,114	0,47
605,559	0,47
606,005	0,46
606,45	0,46
606,895	0,46
607,341	0,46
607,786	0,46
608,231	0,46
608,676	0,46
609,121	0,45
609,566	0,45
610,012	0,44
610,457	0,44
610,902	0,44
611,347	0,44
611,792	0,43
612,237	0,43
612,682	0,43
613,127	0,43
613,571	0,43
614,016	0,43
614,461	0,44
614,906	0,44
615,351	0,44
615,795	0,44
616,24	0,44
616,685	0,44
617,129	0,44
617,574	0,44
618,019	0,44
618,463	0,44
618,908	0,44
619,352	0,44
619,797	0,44
620,241	0,44
620,686	0,44
621,13	0,44
621,574	0,44
622,019	0,43
622,463	0,43
622,907	0,43
623,352	0,43
623,796	0,43
624,24	0,43
624,684	0,43
625,128	0,43
625,572	0,43
626,016	0,43
626,461	0,43
626,905	0,43
627,349	0,43
627,793	0,43
628,236	0,43
628,68	0,43
629,124	0,43
629,568	0,43
630,012	0,43
630,456	0,43
630,9	0,43
631,343	0,43
631,787	0,43
632,231	0,43
632,674	0,43
633,118	0,43
633,562	0,43
634,005	0,43
634,449	0,43
634,892	0,43
635,336	0,42
635,779	0,42
636,223	0,42
636,666	0,42
637,109	0,42
637,553	0,42
637,996	0,42
638,439	0,42
638,883	0,42
639,326	0,42
639,769	0,42
640,212	0,42
640,655	0,42
641,099	0,42
641,542	0,42
641,985	0,42
642,428	0,42
642,871	0,41
643,314	0,41
643,757	0,41
644,2	0,41
644,643	0,41
645,085	0,41
645,528	0,41
645,971	0,41
646,414	0,41
646,857	0,41
647,299	0,41
647,742	0,41
648,185	0,41
648,627	0,41
649,07	0,41
649,513	0,41
649,955	0,41
650,398	0,41
650,84	0,41
651,283	0,41
651,725	0,41
652,168	0,41
652,61	0,41
653,052	0,41
653,495	0,41
653,937	0,33
654,379	0,27
654,821	0,28
655,264	0,28
655,706	0,28
656,148	0,28
656,59	0,28
657,032	0,28
657,474	0,28
657,916	0,28
658,358	0,27
658,8	0,33
659,242	0,41
659,684	0,41
660,126	0,41
660,568	0,41
661,01	0,41
661,452	0,41
661,894	0,4
662,335	0,4
662,777	0,4
663,219	0,4
663,661	0,4
664,102	0,4
664,544	0,4
664,985	0,4
665,427	0,4
665,869	0,4
666,31	0,4
666,752	0,4
667,193	0,4
667,634	0,4
668,076	0,4
668,517	0,4
668,959	0,4
669,4	0,4
669,841	0,4
670,282	0,4
670,724	0,4
671,165	0,4
671,606	0,4
672,047	0,4
672,488	0,4
672,929	0,4
673,37	0,4
673,811	0,4
674,252	0,4
674,693	0,4
675,134	0,4
675,575	0,4
676,016	0,4
676,457	0,39
676,898	0,39
677,339	0,39
677,78	0,39
678,22	0,39
678,661	0,39
679,102	0,39
679,542	0,39
679,983	0,39
680,424	0,39
680,864	0,39
681,305	0,39
681,745	0,39
682,186	0,39
682,626	0,39
683,067	0,4
683,507	0,39
683,948	0,39
684,388	0,39
684,828	0,39
685,269	0,39
685,709	0,39
686,149	0,39
686,589	0,39
687,029	0,39
687,47	0,39
687,91	0,39
688,35	0,39
688,79	0,39
689,23	0,39
689,67	0,39
690,11	0,39
690,55	0,39
690,99	0,39
691,43	0,39
691,87	0,39
692,31	0,38
692,749	0,38
693,189	0,38
693,629	0,38
694,069	0,38
694,508	0,38
694,948	0,38
695,388	0,38
695,827	0,38
696,267	0,38
696,706	0,38
697,146	0,38
697,586	0,38
698,025	0,39
698,464	0,39
698,904	0,39
699,343	0,39
699,783	0,39
700,222	0,39
700,661	0,39
701,101	0,39
701,54	0,39
701,979	0,39
702,418	0,39
702,857	0,39
703,297	0,39
703,736	0,39
704,175	0,39
704,614	0,39
705,053	0,39
705,492	0,39
705,931	0,38
706,37	0,38
706,809	0,38
707,248	0,38
707,687	0,38
708,125	0,38
708,564	0,38
709,003	0,38
709,442	0,38
709,88	0,38
710,319	0,38
710,758	0,38
711,196	0,38
711,635	0,38
712,074	0,38
712,512	0,38
712,951	0,38
713,389	0,37
713,828	0,37
714,266	0,37
714,705	0,37
715,143	0,37
715,581	0,37
716,02	0,37
716,458	0,37
716,896	0,37
717,334	0,37
717,773	0,37
718,211	0,37
718,649	0,37
719,087	0,37
719,525	0,37
719,963	0,37
720,401	0,37
720,839	0,37
721,277	0,37
721,715	0,37
722,153	0,37
722,591	0,37
723,029	0,37
723,467	0,37
723,905	0,37
724,342	0,37
724,78	0,37
725,218	0,37
725,656	0,37
726,093	0,37
726,531	0,37
726,969	0,37
727,406	0,37
727,844	0,37
728,281	0,37
728,719	0,37
729,156	0,37
729,594	0,37
730,031	0,37
730,469	0,37
730,906	0,37
731,343	0,37
731,781	0,37
732,218	0,37
732,655	0,37
733,092	0,37
733,53	0,37
733,967	0,37
734,404	0,37
734,841	0,37
735,278	0,36
735,715	0,36
736,152	0,36
736,589	0,36
737,026	0,36
737,463	0,36
737,9	0,36
738,337	0,36
738,774	0,36
739,211	0,36
739,647	0,36
740,084	0,36
740,521	0,36
740,958	0,36
741,394	0,36
741,831	0,36
742,268	0,36
742,704	0,36
743,141	0,36
743,577	0,36
744,014	0,36
744,45	0,35
744,887	0,35
745,323	0,35
745,76	0,35
746,196	0,35
746,632	0,35
747,069	0,35
747,505	0,35
747,941	0,35
748,378	0,35
748,814	0,35
749,25	0,35
749,686	0,35
750,122	0,35
750,558	0,35
750,994	0,36
751,43	0,36
751,866	0,36
752,302	0,36
752,738	0,36
753,174	0,36
753,61	0,36
754,046	0,36
754,482	0,36
754,918	0,36
755,354	0,36
755,789	0,36
756,225	0,36
756,661	0,36
757,096	0,36
757,532	0,36
757,968	0,35
758,403	0,35
758,839	0,35
759,274	0,35
759,71	0,34
760,145	0,34
760,581	0,33
761,016	0,33
761,452	0,33
761,887	0,32
762,322	0,32
762,758	0,32
763,193	0,31
763,628	0,31
764,063	0,3
764,499	0,3
764,934	0,29
765,369	0,29
765,804	0,28
766,239	0,28
766,674	0,27
767,109	0,26
767,544	0,26
767,979	0,25
768,414	0,24
768,849	0,23
769,284	0,22
769,719	0,21
770,154	0,21
770,588	0,2
771,023	0,19
771,458	0,18
771,893	0,17
772,327	0,15
772,762	0,15
773,197	0,14
773,631	0,13
774,066	0,13
774,5	0,12
774,935	0,11
775,369	0,1
775,804	0,09
776,238	0,08
776,673	0,08
777,107	0,07
777,541	0,06
777,976	0,05
778,41	0,05
778,844	0,04
779,279	0,04
779,713	0,02
780,147	0,02
780,581	0,01
781,015	0
781,449	-0,01
781,883	-0,01
782,317	-0,03
782,751	-0,04
783,185	-0,05
783,619	-0,06
784,053	-0,07
784,487	-0,07
784,921	-0,08
785,355	-0,08
785,789	-0,09
786,223	-0,1
786,656	-0,12
787,09	-0,13
787,524	-0,14
787,957	-0,15
788,391	-0,17
788,825	-0,18
789,258	-0,2
789,692	-0,21
790,125	-0,23
790,559	-0,24
790,992	-0,25
791,426	-0,28
791,859	-0,29
792,293	-0,32
792,726	-0,34
793,159	-0,36
793,593	-0,37
794,026	-0,4
794,459	-0,43
794,892	-0,45
795,326	-0,48
795,759	-0,52
796,192	-0,57
796,625	-0,61
797,058	-0,64
797,491	-0,68
797,924	-0,72
798,357	-0,77
798,79	-0,81
799,223	-0,85
799,656	-0,91
800,089	-0,95
800,522	-1
800,955	-1,04
801,387	-1,1
801,82	-1,15
802,253	-1,21
802,686	-1,29
803,118	-1,35
803,551	-1,4
803,984	-1,45
804,416	-1,48
804,849	-1,52
805,281	-1,64
805,714	-2,01
806,146	-2,46
806,579	-2,72
807,011	-2,87
807,444	-2,97
807,876	-3,05
808,308	-3,09
808,741	-3,12
809,173	-3,17
809,605	-3,19
810,037	-3,26
810,47	-3,18
810,902	-2,98
811,334	-2,83
811,766	-2,67
812,198	-2,43
812,63	-2,01
813,062	-1,79
813,494	-1,7
813,926	-1,61
814,358	-1,55
814,79	-1,47
815,222	-1,41
815,654	-1,36
816,086	-1,3
816,518	-1,24
816,949	-1,19
817,381	-1,15
817,813	-1,13
818,245	-1,09
818,676	-1,05
819,108	-1,02
819,54	-1
819,971	-0,98
820,403	-0,93
820,834	-0,92
821,266	-0,87
821,697	-0,85
822,129	-0,83
822,56	-0,81
822,991	-0,78
823,423	-0,76
823,854	-0,75
824,286	-0,72
824,717	-0,71
825,148	-0,7
825,579	-0,69
826,01	-0,68
826,442	-0,67
826,873	-0,65
827,304	-0,61
827,735	-0,6
828,166	-0,6
828,597	-0,6
829,028	-0,59
829,459	-0,6
829,89	-0,6
830,321	-0,56
830,752	-0,56
831,183	-0,55
831,613	-0,54
832,044	-0,55
832,475	-0,54
832,906	-0,56
833,336	-0,56
833,767	-0,56
834,198	-0,54
834,628	-0,52
835,059	-0,55
835,49	-0,56
835,92	-0,53
836,351	-0,53
836,781	-0,53
837,212	-0,54
837,642	-0,54
838,072	-0,52
838,503	-0,53
838,933	-0,51
839,364	-0,52
839,794	-0,49
840,224	-0,48
840,654	-0,52
841,085	-0,53
841,515	-0,5
841,945	-0,5
842,375	-0,45
842,805	-0,43
843,235	-0,42
843,665	-0,43
844,095	-0,42
844,525	-0,44
844,955	-0,45
845,385	-0,43
845,815	-0,42
846,245	-0,44
846,675	-0,45
847,105	-0,48
847,534	-0,49
847,964	-0,47
848,394	-0,46
848,824	-0,49
849,253	-0,48
849,683	-0,48
850,112	-0,5
850,542	-0,52
850,972	-0,52
851,401	-0,49
851,831	-0,48
852,26	-0,48
852,69	-0,52
853,119	-0,52
853,548	-0,52
853,978	-0,53
854,407	-0,51
854,836	-0,51
855,266	-0,5
855,695	-0,52
856,124	-0,53
856,553	-0,54
856,983	-0,56
857,412	-0,55
857,841	-0,56
858,27	-0,56
858,699	-0,56
859,128	-0,6
859,557	-0,6
859,986	-0,62
860,415	-0,6
860,844	-0,57
861,273	-0,57
861,702	-0,57
862,13	-0,55
862,559	-0,57
862,988	-0,55
863,417	-0,54
863,845	-0,53
864,274	-0,54
864,703	-0,53
865,131	-0,53
865,56	-0,54
865,989	-0,57
866,417	-0,54
866,846	-0,55
867,274	-0,54
867,703	-0,57
868,131	-0,58
868,559	-0,59
868,988	-0,61
869,416	-0,6
869,844	-0,61
870,273	-0,63
870,701	-0,61
871,129	-0,65
871,557	-0,68
871,986	-0,67
872,414	-0,67
872,842	-0,64
873,27	-0,61
873,698	-0,59
874,126	-0,62
874,554	-0,6
874,982	-0,6
875,41	-0,63
875,838	-0,57
876,266	-0,54
876,694	-0,54
877,122	-0,53
877,549	-0,59
877,977	-0,57
878,405	-0,59
878,833	-0,57
879,26	-0,55
879,688	-0,55
880,116	-0,53
880,543	-0,52
880,971	-0,51
881,399	-0,54
881,826	-0,55
882,254	-0,53
882,681	-0,57
883,109	-0,53
883,536	-0,54
883,963	-0,56
884,391	-0,54
884,818	-0,52
885,245	-0,57
885,673	-0,59
886,1	-0,56
886,527	-0,57
886,954	-0,53
887,381	-0,55
887,809	-0,56
888,236	-0,56
888,663	-0,57
889,09	-0,61
889,517	-0,63
889,944	-0,62
890,371	-0,6
890,798	-0,61
891,225	-0,6
891,652	-0,63
892,078	-0,61
892,505	-0,63
892,932	-0,59
893,359	-0,6
893,786	-0,6
894,212	-0,57
894,639	-0,59
895,066	-0,62
895,492	-0,56
895,919	-0,57
896,346	-0,57
896,772	-0,57
897,199	-0,54
897,625	-0,57
898,052	-0,54
898,478	-0,53
898,904	-0,54
899,331	-0,53
899,757	-0,54
900,183	-0,56
900,61	-0,54
901,036	-0,54
901,462	-0,54
901,888	-0,53
902,315	-0,52
902,741	-0,58
903,167	-0,56
903,593	-0,59
904,019	-0,57
904,445	-0,54
904,871	-0,56
905,297	-0,58
905,723	-0,58
906,149	-0,57
906,575	-0,57
907,001	-0,57
907,427	-0,53
907,852	-0,52
908,278	-0,51
908,704	-0,5
909,13	-0,5
909,555	-0,5
909,981	-0,49
910,407	-0,49
910,832	-0,49
911,258	-0,5
911,684	-0,5
912,109	-0,5
912,535	-0,53
912,96	-0,49
913,386	-0,52
913,811	-0,53
914,236	-0,54
914,662	-0,52
915,087	-0,55
915,512	-0,56
915,938	-0,57
916,363	-0,57
916,788	-0,58
917,213	-0,55
917,639	-0,6
918,064	-0,58
918,489	-0,58
918,914	-0,59
919,339	-0,61
919,764	-0,58
920,189	-0,57
920,614	-0,59
921,039	-0,6
921,464	-0,56
921,889	-0,59
922,314	-0,6
922,738	-0,63
923,163	-0,63
923,588	-0,63
924,013	-0,62
924,437	-0,62
924,862	-0,63
925,287	-0,59
925,711	-0,6
926,136	-0,62
926,561	-0,6
926,985	-0,58
927,41	-0,55
927,834	-0,53
928,259	-0,51
928,683	-0,49
929,108	-0,47
929,532	-0,48
929,956	-0,48
930,381	-0,46
930,805	-0,46
931,229	-0,46
931,653	-0,44
932,078	-0,45
932,502	-0,46
932,926	-0,47
933,35	-0,47
933,774	-0,47
934,198	-0,44
934,622	-0,43
935,046	-0,44
935,47	-0,44
935,894	-0,43
936,318	-0,42
936,742	-0,42
937,166	-0,42
937,59	-0,41
938,014	-0,43
938,437	-0,43
938,861	-0,45
939,285	-0,46
939,709	-0,46
940,132	-0,46
940,556	-0,46
940,98	-0,47
941,403	-0,46
941,827	-0,46
942,25	-0,48
942,674	-0,47
943,097	-0,47
943,521	-0,46
943,944	-0,47
944,368	-0,45
944,791	-0,44
945,214	-0,46
945,638	-0,47
946,061	-0,49
946,484	-0,5
946,907	-0,48
947,331	-0,48
947,754	-0,52
948,177	-0,5
948,6	-0,5
949,023	-0,5
949,446	-0,5
949,869	-0,48
950,292	-0,48
950,715	-0,45
951,138	-0,44
951,561	-0,43
951,984	-0,44
952,407	-0,42
952,83	-0,41
953,252	-0,36
953,675	-0,36
954,098	-0,37
954,521	-0,37
954,943	-0,36
955,366	-0,37
955,789	-0,35
956,211	-0,37
956,634	-0,37
957,056	-0,35
957,479	-0,36
957,902	-0,39
958,324	-0,39
958,746	-0,37
959,169	-0,37
959,591	-0,37
960,014	-0,38
960,436	-0,37
960,858	-0,37
961,281	-0,37
961,703	-0,38
962,125	-0,37
962,547	-0,36
962,969	-0,37
963,391	-0,38
963,814	-0,39
964,236	-0,38
964,658	-0,36
965,08	-0,36
965,502	-0,35
965,924	-0,32
966,346	-0,32
966,768	-0,31
967,189	-0,33
967,611	-0,31
968,033	-0,3
968,455	-0,29
968,877	-0,3
969,298	-0,3
969,72	-0,31
970,142	-0,3
970,563	-0,32
970,985	-0,31
971,407	-0,31
971,828	-0,29
972,25	-0,28
972,671	-0,27
973,093	-0,27
973,514	-0,25
973,936	-0,24
974,357	-0,24
974,778	-0,24
975,2	-0,23
975,621	-0,22
976,042	-0,19
976,464	-0,19
976,885	-0,18
977,306	-0,17
977,727	-0,16
978,148	-0,16
978,57	-0,14
978,991	-0,12
979,412	-0,11
979,833	-0,11
980,254	-0,1
980,675	-0,1
981,096	-0,1
981,517	-0,08
981,937	-0,07
982,358	-0,05
982,779	-0,04
983,2	-0,04
983,621	-0,04
984,042	-0,02
984,462	-0,01
984,883	0,01
985,304	0,02
985,724	0,03
986,145	0,04
986,565	0,05
986,986	0,06
987,407	0,07
987,827	0,08
988,248	0,1
988,668	0,11
989,088	0,11
989,509	0,12
989,929	0,13
990,35	0,14
990,77	0,16
991,19	0,16
991,61	0,17
992,031	0,18
992,451	0,19
992,871	0,2
993,291	0,21
993,711	0,22
994,131	0,22
994,551	0,22
994,971	0,23
995,391	0,24
995,811	0,24
996,231	0,24
996,651	0,25
997,071	0,26
997,491	0,26
997,911	0,27
998,331	0,27
998,75	0,28
999,17	0,28
999,59	0,29
1000,009	0,29
1000,429	0,3
1000,849	0,3
1001,268	0,31
1001,688	0,31
1002,107	0,31
1002,527	0,31
1002,946	0,32
1003,366	0,32
1003,785	0,32
1004,205	0,32
1004,624	0,33
1005,044	0,33
1005,463	0,33
1005,882	0,33
1006,301	0,33
1006,721	0,34
1007,14	0,34
1007,559	0,34
1007,978	0,34
1008,397	0,34
1008,816	0,34
1009,235	0,34
1009,655	0,34
1010,074	0,34
1010,492	0,34
1010,911	0,33
1011,33	0,33
1011,749	0,33
1012,168	0,33
1012,587	0,33
1013,006	0,33
1013,425	0,33
1013,843	0,33
1014,262	0,33
1014,681	0,33
1015,099	0,33
1015,518	0,33
1015,937	0,33
1016,355	0,32
1016,774	0,32
1017,192	0,32
1017,611	0,32
1018,029	0,32
1018,448	0,33
1018,866	0,32
1019,285	0,32
1019,703	0,32
1020,121	0,32
1020,54	0,32
1020,958	0,32
1021,376	0,32
1021,794	0,32
1022,213	0,32
1022,631	0,32
1023,049	0,32
1023,467	0,32
1023,885	0,32
1024,303	0,32
1024,721	0,32
1025,139	0,32
1025,557	0,32
1025,975	0,32
1026,393	0,32
1026,811	0,31
1027,229	0,31
1027,647	0,31
1028,065	0,31
1028,482	0,31
1028,9	0,31
1029,318	0,32
1029,735	0,32
1030,153	0,32
1030,571	0,31
1030,988	0,32
1031,406	0,31
1031,823	0,31
1032,241	0,31
1032,659	0,31
1033,076	0,31
1033,493	0,31
1033,911	0,31
1034,328	0,31
1034,746	0,31
1035,163	0,32
1035,58	0,32
1035,997	0,32
1036,415	0,32
1036,832	0,32
1037,249	0,32
1037,666	0,32
1038,083	0,32
1038,501	0,32
1038,918	0,32
1039,335	0,32
1039,752	0,32
1040,169	0,32
1040,586	0,32
1041,003	0,31
1041,419	0,31
1041,836	0,31
1042,253	0,31
1042,67	0,31
1043,087	0,31
1043,504	0,31
1043,92	0,31
1044,337	0,31
1044,754	0,31
1045,17	0,31
1045,587	0,31
1046,004	0,31
1046,42	0,31
1046,837	0,31
1047,253	0,31
1047,67	0,31
1048,086	0,31
1048,503	0,31
1048,919	0,31
1049,335	0,31
1049,752	0,31
1050,168	0,31
1050,584	0,31
1051,001	0,31
1051,417	0,31
1051,833	0,31
1052,249	0,31
1052,665	0,31
1053,081	0,31
1053,497	0,31
1053,914	0,31
1054,33	0,32
1054,746	0,32
1055,162	0,32
1055,578	0,32
1055,993	0,32
1056,409	0,32
1056,825	0,32
1057,241	0,32
1057,657	0,32
1058,073	0,32
1058,488	0,32
1058,904	0,32
1059,32	0,32
1059,736	0,32
1060,151	0,32
1060,567	0,32
1060,982	0,32
1061,398	0,32
1061,813	0,32
1062,229	0,32
1062,644	0,32
1063,06	0,32
1063,475	0,32
1063,891	0,32
1064,306	0,32
1064,721	0,32
1065,137	0,32
1065,552	0,31
1065,967	0,31
1066,382	0,32
1066,798	0,32
1067,213	0,32
1067,628	0,32
1068,043	0,32
1068,458	0,32
1068,873	0,32
1069,288	0,32
1069,703	0,32
1070,118	0,32
1070,533	0,32
1070,948	0,32
1071,363	0,32
1071,778	0,32
1072,193	0,32
1072,607	0,32
1073,022	0,32
1073,437	0,32
1073,852	0,32
1074,266	0,32
1074,681	0,32
1075,096	0,32
1075,51	0,32
1075,925	0,32
1076,339	0,32
1076,754	0,32
1077,168	0,32
1077,583	0,32
1077,997	0,32
1078,412	0,31
1078,826	0,31
1079,24	0,31
1079,655	0,31
1080,069	0,31
1080,483	0,31
1080,897	0,31
1081,312	0,31
1081,726	0,31
1082,14	0,31
1082,554	0,31
1082,968	0,31
1083,382	0,31
1083,796	0,31
1084,21	0,31
1084,624	0,31
1085,038	0,3
1085,452	0,3
1085,866	0,3
1086,28	0,3
1086,694	0,3
1087,108	0,3
1087,521	0,3
1087,935	0,3
1088,349	0,29
1088,763	0,29
1089,176	0,29
1089,59	0,29
1090,004	0,29
1090,417	0,28
1090,831	0,28
1091,244	0,28
1091,658	0,28
1092,071	0,27
1092,485	0,27
1092,898	0,27
1093,312	0,27
1093,725	0,27
1094,138	0,27
1094,552	0,26
1094,965	0,26
1095,378	0,26
1095,791	0,26
1096,205	0,25
1096,618	0,25
1097,031	0,25
1097,444	0,25
1097,857	0,25
1098,27	0,24
1098,683	0,24
1099,096	0,24
1099,509	0,24
1099,922	0,23
1100,335	0,23
1100,748	0,22
1101,161	0,22
1101,574	0,22
1101,986	0,22
1102,399	0,21
1102,812	0,21
1103,225	0,2
1103,637	0,2
1104,05	0,2
1104,463	0,2
1104,875	0,2
1105,288	0,2
1105,7	0,19
1106,113	0,19
1106,525	0,18
1106,938	0,18
1107,35	0,17
1107,763	0,17
1108,175	0,17
1108,588	0,16
1109	0,16
1109,412	0,15
1109,824	0,15
1110,237	0,15
1110,649	0,15
1111,061	0,14
