Data from 18C-808nm-8A-cont_Absorbance__100__01529.txt Node

Date: Mon Jul 17 17:20:45 CEST 2023
User: Laser008
Spectrometer: MAYP115816
Trigger mode: 0
Integration Time (sec): 2,500000E-1
Scans to average: 10
Electric dark correction enabled: true
Nonlinearity correction enabled: true
Boxcar width: 5
XAxis mode: Wavelengths
Number of Pixels in Spectrum: 2068
>>>>>Begin Spectral Data<<<<<
198,914	-0,59
199,384	-0,38
199,855	-0,27
200,325	-0,21
200,796	-0,18
201,266	-0,14
201,737	-0,13
202,207	-0,13
202,677	-0,13
203,147	-0,11
203,618	-0,08
204,088	-0,08
204,558	-0,08
205,028	-0,07
205,498	-0,08
205,968	-0,08
206,439	-0,1
206,909	-0,09
207,379	-0,1
207,849	-0,1
208,319	-0,12
208,789	-0,12
209,258	-0,12
209,728	-0,13
210,198	-0,13
210,668	-0,13
211,138	-0,13
211,608	-0,12
212,077	-0,13
212,547	-0,12
213,017	-0,12
213,486	-0,13
213,956	-0,13
214,426	-0,13
214,895	-0,13
215,365	-0,14
215,834	-0,14
216,304	-0,15
216,773	-0,15
217,243	-0,16
217,712	-0,16
218,181	-0,16
218,651	-0,16
219,12	-0,16
219,589	-0,16
220,058	-0,16
220,528	-0,17
220,997	-0,18
221,466	-0,18
221,935	-0,19
222,404	-0,18
222,873	-0,18
223,342	-0,18
223,812	-0,18
224,281	-0,18
224,749	-0,18
225,218	-0,19
225,687	-0,18
226,156	-0,18
226,625	-0,17
227,094	-0,17
227,563	-0,17
228,031	-0,19
228,5	-0,18
228,969	-0,19
229,438	-0,18
229,906	-0,17
230,375	-0,16
230,844	-0,16
231,312	-0,15
231,781	-0,16
232,249	-0,14
232,718	-0,15
233,186	-0,12
233,655	-0,13
234,123	-0,12
234,591	-0,13
235,06	-0,13
235,528	-0,14
235,996	-0,14
236,465	-0,13
236,933	-0,13
237,401	-0,13
237,869	-0,13
238,337	-0,14
238,805	-0,12
239,274	-0,12
239,742	-0,12
240,21	-0,12
240,678	-0,11
241,146	-0,1
241,614	-0,1
242,081	-0,1
242,549	-0,1
243,017	-0,1
243,485	-0,09
243,953	-0,09
244,421	-0,09
244,888	-0,08
245,356	-0,08
245,824	-0,08
246,291	-0,08
246,759	-0,09
247,227	-0,09
247,694	-0,09
248,162	-0,08
248,629	-0,07
249,097	-0,08
249,564	-0,08
250,032	-0,09
250,499	-0,08
250,967	-0,08
251,434	-0,09
251,901	-0,08
252,369	-0,09
252,836	-0,1
253,303	-0,11
253,77	-0,13
254,237	-0,13
254,705	-0,13
255,172	-0,12
255,639	-0,13
256,106	-0,14
256,573	-0,15
257,04	-0,15
257,507	-0,16
257,974	-0,16
258,441	-0,15
258,908	-0,15
259,375	-0,17
259,841	-0,17
260,308	-0,19
260,775	-0,18
261,242	-0,18
261,709	-0,18
262,175	-0,19
262,642	-0,18
263,109	-0,18
263,575	-0,19
264,042	-0,17
264,508	-0,17
264,975	-0,17
265,441	-0,18
265,908	-0,2
266,374	-0,18
266,841	-0,18
267,307	-0,19
267,773	-0,18
268,24	-0,18
268,706	-0,18
269,172	-0,2
269,639	-0,2
270,105	-0,19
270,571	-0,18
271,037	-0,19
271,503	-0,2
271,969	-0,19
272,435	-0,19
272,902	-0,22
273,368	-0,22
273,834	-0,22
274,3	-0,22
274,765	-0,22
275,231	-0,22
275,697	-0,22
276,163	-0,22
276,629	-0,21
277,095	-0,22
277,56	-0,2
278,026	-0,21
278,492	-0,18
278,958	-0,18
279,423	-0,18
279,889	-0,18
280,354	-0,18
280,82	-0,18
281,286	-0,19
281,751	-0,19
282,217	-0,18
282,682	-0,18
283,147	-0,17
283,613	-0,18
284,078	-0,18
284,544	-0,19
285,009	-0,2
285,474	-0,19
285,939	-0,21
286,405	-0,2
286,87	-0,2
287,335	-0,19
287,8	-0,19
288,265	-0,18
288,73	-0,19
289,195	-0,21
289,66	-0,21
290,125	-0,2
290,59	-0,2
291,055	-0,2
291,52	-0,21
291,985	-0,21
292,45	-0,23
292,915	-0,23
293,38	-0,23
293,844	-0,21
294,309	-0,2
294,774	-0,19
295,239	-0,21
295,703	-0,22
296,168	-0,2
296,632	-0,2
297,097	-0,18
297,562	-0,16
298,026	-0,16
298,491	-0,17
298,955	-0,17
299,419	-0,16
299,884	-0,16
300,348	-0,15
300,813	-0,14
301,277	-0,15
301,741	-0,15
302,205	-0,15
302,67	-0,14
303,134	-0,14
303,598	-0,14
304,062	-0,13
304,526	-0,13
304,99	-0,14
305,454	-0,14
305,919	-0,13
306,383	-0,12
306,847	-0,12
307,31	-0,12
307,774	-0,14
308,238	-0,14
308,702	-0,13
309,166	-0,14
309,63	-0,14
310,094	-0,11
310,557	-0,11
311,021	-0,11
311,485	-0,11
311,948	-0,1
312,412	-0,1
312,876	-0,09
313,339	-0,09
313,803	-0,1
314,266	-0,09
314,73	-0,09
315,193	-0,1
315,657	-0,09
316,12	-0,1
316,584	-0,08
317,047	-0,08
317,51	-0,07
317,973	-0,08
318,437	-0,07
318,9	-0,06
319,363	-0,04
319,826	-0,04
320,29	-0,04
320,753	-0,05
321,216	-0,04
321,679	-0,05
322,142	-0,04
322,605	-0,06
323,068	-0,07
323,531	-0,07
323,994	-0,07
324,457	-0,07
324,92	-0,06
325,382	-0,05
325,845	-0,05
326,308	-0,05
326,771	-0,03
327,233	-0,03
327,696	-0,02
328,159	-0
328,622	0,01
329,084	0,01
329,547	0,02
330,009	0,02
330,472	0,03
330,934	0,04
331,397	0,04
331,859	0,04
332,322	0,05
332,784	0,05
333,246	0,05
333,709	0,05
334,171	0,06
334,633	0,06
335,096	0,05
335,558	0,06
336,02	0,06
336,482	0,06
336,944	0,07
337,406	0,08
337,868	0,08
338,331	0,08
338,793	0,08
339,255	0,09
339,717	0,1
340,178	0,11
340,64	0,11
341,102	0,11
341,564	0,13
342,026	0,13
342,488	0,14
342,949	0,14
343,411	0,17
343,873	0,2
344,335	0,22
344,796	0,25
345,258	0,29
345,719	0,32
346,181	0,36
346,643	0,39
347,104	0,42
347,566	0,44
348,027	0,47
348,488	0,48
348,95	0,5
349,411	0,51
349,873	0,53
350,334	0,55
350,795	0,56
351,256	0,57
351,718	0,57
352,179	0,58
352,64	0,58
353,101	0,58
353,562	0,58
354,023	0,58
354,484	0,58
354,945	0,59
355,406	0,59
355,867	0,59
356,328	0,59
356,789	0,59
357,25	0,59
357,711	0,59
358,172	0,6
358,633	0,6
359,093	0,6
359,554	0,6
360,015	0,6
360,476	0,6
360,936	0,6
361,397	0,6
361,858	0,6
362,318	0,6
362,779	0,6
363,239	0,6
363,7	0,61
364,16	0,6
364,621	0,61
365,081	0,61
365,541	0,61
366,002	0,6
366,462	0,6
366,922	0,6
367,383	0,6
367,843	0,6
368,303	0,6
368,763	0,6
369,223	0,6
369,684	0,6
370,144	0,6
370,604	0,6
371,064	0,6
371,524	0,6
371,984	0,6
372,444	0,6
372,904	0,6
373,363	0,6
373,823	0,6
374,283	0,6
374,743	0,6
375,203	0,6
375,663	0,6
376,122	0,6
376,582	0,6
377,042	0,6
377,501	0,6
377,961	0,6
378,42	0,6
378,88	0,6
379,34	0,6
379,799	0,6
380,259	0,6
380,718	0,6
381,177	0,6
381,637	0,6
382,096	0,6
382,555	0,6
383,015	0,59
383,474	0,59
383,933	0,59
384,393	0,59
384,852	0,59
385,311	0,59
385,77	0,59
386,229	0,59
386,688	0,59
387,147	0,59
387,606	0,59
388,065	0,59
388,524	0,59
388,983	0,59
389,442	0,59
389,901	0,59
390,36	0,59
390,819	0,59
391,277	0,59
391,736	0,59
392,195	0,59
392,654	0,59
393,112	0,59
393,571	0,59
394,03	0,59
394,488	0,59
394,947	0,59
395,405	0,59
395,864	0,59
396,322	0,59
396,781	0,59
397,239	0,59
397,698	0,59
398,156	0,59
398,614	0,58
399,073	0,58
399,531	0,58
399,989	0,58
400,447	0,58
400,905	0,58
401,364	0,58
401,822	0,58
402,28	0,58
402,738	0,58
403,196	0,58
403,654	0,58
404,112	0,58
404,57	0,58
405,028	0,58
405,486	0,58
405,944	0,58
406,402	0,58
406,859	0,58
407,317	0,58
407,775	0,58
408,233	0,58
408,691	0,58
409,148	0,58
409,606	0,58
410,064	0,58
410,521	0,58
410,979	0,58
411,436	0,58
411,894	0,58
412,351	0,58
412,809	0,58
413,266	0,58
413,724	0,58
414,181	0,58
414,638	0,58
415,096	0,58
415,553	0,58
416,01	0,58
416,467	0,57
416,925	0,57
417,382	0,57
417,839	0,57
418,296	0,57
418,753	0,57
419,21	0,57
419,667	0,57
420,124	0,57
420,581	0,57
421,038	0,57
421,495	0,57
421,952	0,57
422,409	0,57
422,866	0,57
423,322	0,57
423,779	0,57
424,236	0,57
424,693	0,57
425,149	0,57
425,606	0,57
426,063	0,57
426,519	0,57
426,976	0,57
427,433	0,57
427,889	0,57
428,346	0,57
428,802	0,57
429,258	0,57
429,715	0,57
430,171	0,57
430,628	0,57
431,084	0,57
431,54	0,57
431,997	0,57
432,453	0,57
432,909	0,57
433,365	0,57
433,821	0,57
434,277	0,57
434,734	0,57
435,19	0,57
435,646	0,57
436,102	0,57
436,558	0,57
437,014	0,57
437,47	0,57
437,925	0,57
438,381	0,57
438,837	0,57
439,293	0,57
439,749	0,57
440,205	0,57
440,66	0,57
441,116	0,57
441,572	0,57
442,027	0,57
442,483	0,57
442,939	0,57
443,394	0,57
443,85	0,57
444,305	0,57
444,761	0,57
445,216	0,57
445,672	0,57
446,127	0,57
446,582	0,57
447,038	0,57
447,493	0,57
447,948	0,57
448,403	0,57
448,859	0,57
449,314	0,57
449,769	0,57
450,224	0,57
450,679	0,57
451,134	0,57
451,589	0,57
452,044	0,57
452,499	0,57
452,954	0,57
453,409	0,57
453,864	0,57
454,319	0,57
454,774	0,57
455,229	0,57
455,684	0,57
456,138	0,57
456,593	0,57
457,048	0,57
457,503	0,57
457,957	0,57
458,412	0,57
458,866	0,57
459,321	0,58
459,776	0,58
460,23	0,58
460,685	0,58
461,139	0,58
461,593	0,58
462,048	0,58
462,502	0,58
462,957	0,58
463,411	0,58
463,865	0,58
464,319	0,58
464,774	0,58
465,228	0,58
465,682	0,58
466,136	0,59
466,59	0,59
467,044	0,59
467,499	0,59
467,953	0,59
468,407	0,59
468,861	0,59
469,315	0,59
469,768	0,59
470,222	0,59
470,676	0,59
471,13	0,59
471,584	0,59
472,038	0,59
472,491	0,59
472,945	0,59
473,399	0,59
473,852	0,6
474,306	0,6
474,76	0,6
475,213	0,6
475,667	0,6
476,12	0,6
476,574	0,6
477,027	0,6
477,481	0,6
477,934	0,6
478,388	0,61
478,841	0,61
479,294	0,61
479,748	0,61
480,201	0,61
480,654	0,61
481,107	0,61
481,561	0,62
482,014	0,62
482,467	0,62
482,92	0,62
483,373	0,62
483,826	0,62
484,279	0,62
484,732	0,63
485,185	0,63
485,638	0,63
486,091	0,63
486,544	0,63
486,997	0,63
487,449	0,63
487,902	0,64
488,355	0,64
488,808	0,64
489,26	0,64
489,713	0,64
490,166	0,65
490,618	0,65
491,071	0,65
491,523	0,65
491,976	0,65
492,429	0,66
492,881	0,66
493,333	0,66
493,786	0,66
494,238	0,67
494,691	0,67
495,143	0,67
495,595	0,67
496,048	0,68
496,5	0,68
496,952	0,68
497,404	0,69
497,856	0,69
498,309	0,69
498,761	0,69
499,213	0,7
499,665	0,7
500,117	0,7
500,569	0,71
501,021	0,71
501,473	0,71
501,925	0,72
502,377	0,72
502,828	0,72
503,28	0,73
503,732	0,73
504,184	0,73
504,636	0,74
505,087	0,74
505,539	0,74
505,991	0,75
506,442	0,75
506,894	0,75
507,345	0,75
507,797	0,76
508,249	0,76
508,7	0,76
509,151	0,77
509,603	0,77
510,054	0,77
510,506	0,78
510,957	0,78
511,408	0,78
511,86	0,79
512,311	0,79
512,762	0,79
513,213	0,79
513,665	0,8
514,116	0,8
514,567	0,8
515,018	0,81
515,469	0,81
515,92	0,81
516,371	0,81
516,822	0,82
517,273	0,82
517,724	0,82
518,175	0,82
518,626	0,83
519,076	0,83
519,527	0,83
519,978	0,83
520,429	0,83
520,88	0,83
521,33	0,84
521,781	0,84
522,232	0,84
522,682	0,84
523,133	0,84
523,583	0,84
524,034	0,85
524,484	0,85
524,935	0,85
525,385	0,85
525,836	0,85
526,286	0,85
526,736	0,85
527,187	0,85
527,637	0,85
528,087	0,85
528,538	0,85
528,988	0,85
529,438	0,85
529,888	0,85
530,338	0,84
530,788	0,84
531,238	0,84
531,688	0,84
532,139	0,84
532,589	0,84
533,038	0,84
533,488	0,84
533,938	0,84
534,388	0,83
534,838	0,83
535,288	0,83
535,738	0,83
536,187	0,82
536,637	0,82
537,087	0,82
537,537	0,82
537,986	0,81
538,436	0,81
538,885	0,81
539,335	0,8
539,785	0,8
540,234	0,8
540,684	0,79
541,133	0,79
541,582	0,79
542,032	0,78
542,481	0,78
542,931	0,77
543,38	0,77
543,829	0,77
544,278	0,76
544,728	0,76
545,177	0,76
545,626	0,75
546,075	0,75
546,524	0,75
546,973	0,74
547,422	0,74
547,871	0,74
548,32	0,73
548,769	0,73
549,218	0,73
549,667	0,73
550,116	0,72
550,565	0,72
551,014	0,72
551,463	0,72
551,911	0,71
552,36	0,71
552,809	0,7
553,258	0,7
553,706	0,7
554,155	0,7
554,603	0,69
555,052	0,69
555,501	0,69
555,949	0,68
556,398	0,68
556,846	0,68
557,294	0,67
557,743	0,67
558,191	0,67
558,64	0,66
559,088	0,66
559,536	0,65
559,985	0,65
560,433	0,65
560,881	0,64
561,329	0,64
561,777	0,64
562,225	0,63
562,674	0,63
563,122	0,63
563,57	0,62
564,018	0,62
564,466	0,62
564,914	0,62
565,362	0,61
565,809	0,61
566,257	0,61
566,705	0,6
567,153	0,6
567,601	0,6
568,048	0,59
568,496	0,59
568,944	0,59
569,392	0,59
569,839	0,58
570,287	0,58
570,734	0,58
571,182	0,58
571,63	0,57
572,077	0,57
572,525	0,57
572,972	0,56
573,419	0,56
573,867	0,56
574,314	0,55
574,761	0,55
575,209	0,55
575,656	0,55
576,103	0,54
576,551	0,54
576,998	0,54
577,445	0,54
577,892	0,54
578,339	0,54
578,786	0,53
579,233	0,53
579,68	0,53
580,127	0,53
580,574	0,52
581,021	0,52
581,468	0,52
581,915	0,52
582,362	0,51
582,809	0,51
583,255	0,51
583,702	0,51
584,149	0,51
584,596	0,51
585,042	0,5
585,489	0,5
585,936	0,5
586,382	0,5
586,829	0,5
587,275	0,5
587,722	0,5
588,168	0,49
588,615	0,49
589,061	0,49
589,508	0,49
589,954	0,49
590,4	0,49
590,847	0,48
591,293	0,48
591,739	0,48
592,185	0,48
592,632	0,48
593,078	0,48
593,524	0,48
593,97	0,48
594,416	0,48
594,862	0,47
595,308	0,47
595,754	0,47
596,2	0,47
596,646	0,47
597,092	0,47
597,538	0,47
597,984	0,47
598,43	0,47
598,876	0,46
599,321	0,46
599,767	0,46
600,213	0,46
600,659	0,46
601,104	0,46
601,55	0,46
601,995	0,46
602,441	0,46
602,887	0,45
603,332	0,45
603,778	0,45
604,223	0,45
604,668	0,45
605,114	0,45
605,559	0,45
606,005	0,45
606,45	0,45
606,895	0,45
607,341	0,45
607,786	0,45
608,231	0,44
608,676	0,44
609,121	0,44
609,566	0,43
610,012	0,43
610,457	0,43
610,902	0,42
611,347	0,42
611,792	0,42
612,237	0,42
612,682	0,42
613,127	0,42
613,571	0,42
614,016	0,42
614,461	0,42
614,906	0,42
615,351	0,42
615,795	0,42
616,24	0,42
616,685	0,42
617,129	0,42
617,574	0,43
618,019	0,43
618,463	0,43
618,908	0,43
619,352	0,42
619,797	0,42
620,241	0,42
620,686	0,42
621,13	0,42
621,574	0,42
622,019	0,42
622,463	0,42
622,907	0,42
623,352	0,42
623,796	0,42
624,24	0,42
624,684	0,41
625,128	0,41
625,572	0,41
626,016	0,42
626,461	0,42
626,905	0,42
627,349	0,41
627,793	0,41
628,236	0,41
628,68	0,41
629,124	0,41
629,568	0,41
630,012	0,41
630,456	0,41
630,9	0,41
631,343	0,41
631,787	0,41
632,231	0,41
632,674	0,41
633,118	0,41
633,562	0,41
634,005	0,41
634,449	0,41
634,892	0,41
635,336	0,41
635,779	0,41
636,223	0,41
636,666	0,41
637,109	0,41
637,553	0,41
637,996	0,41
638,439	0,41
638,883	0,41
639,326	0,41
639,769	0,41
640,212	0,4
640,655	0,4
641,099	0,4
641,542	0,4
641,985	0,4
642,428	0,4
642,871	0,4
643,314	0,4
643,757	0,4
644,2	0,4
644,643	0,4
645,085	0,4
645,528	0,4
645,971	0,4
646,414	0,4
646,857	0,4
647,299	0,4
647,742	0,4
648,185	0,4
648,627	0,4
649,07	0,4
649,513	0,4
649,955	0,4
650,398	0,4
650,84	0,4
651,283	0,4
651,725	0,4
652,168	0,4
652,61	0,4
653,052	0,4
653,495	0,4
653,937	0,31
654,379	0,25
654,821	0,26
655,264	0,26
655,706	0,26
656,148	0,26
656,59	0,26
657,032	0,26
657,474	0,26
657,916	0,26
658,358	0,25
658,8	0,31
659,242	0,39
659,684	0,39
660,126	0,39
660,568	0,39
661,01	0,39
661,452	0,39
661,894	0,39
662,335	0,39
662,777	0,39
663,219	0,39
663,661	0,39
664,102	0,39
664,544	0,39
664,985	0,39
665,427	0,39
665,869	0,39
666,31	0,39
666,752	0,39
667,193	0,39
667,634	0,39
668,076	0,39
668,517	0,39
668,959	0,39
669,4	0,39
669,841	0,39
670,282	0,39
670,724	0,39
671,165	0,39
671,606	0,39
672,047	0,39
672,488	0,39
672,929	0,39
673,37	0,39
673,811	0,39
674,252	0,39
674,693	0,38
675,134	0,38
675,575	0,38
676,016	0,38
676,457	0,38
676,898	0,38
677,339	0,38
677,78	0,38
678,22	0,38
678,661	0,38
679,102	0,38
679,542	0,38
679,983	0,38
680,424	0,38
680,864	0,38
681,305	0,38
681,745	0,38
682,186	0,38
682,626	0,38
683,067	0,38
683,507	0,38
683,948	0,38
684,388	0,38
684,828	0,38
685,269	0,38
685,709	0,38
686,149	0,38
686,589	0,38
687,029	0,37
687,47	0,37
687,91	0,37
688,35	0,37
688,79	0,37
689,23	0,37
689,67	0,37
690,11	0,37
690,55	0,37
690,99	0,37
691,43	0,37
691,87	0,37
692,31	0,37
692,749	0,37
693,189	0,37
693,629	0,37
694,069	0,37
694,508	0,37
694,948	0,37
695,388	0,37
695,827	0,37
696,267	0,37
696,706	0,37
697,146	0,37
697,586	0,37
698,025	0,37
698,464	0,37
698,904	0,37
699,343	0,37
699,783	0,37
700,222	0,37
700,661	0,37
701,101	0,37
701,54	0,37
701,979	0,37
702,418	0,37
702,857	0,37
703,297	0,37
703,736	0,37
704,175	0,37
704,614	0,37
705,053	0,37
705,492	0,37
705,931	0,37
706,37	0,37
706,809	0,37
707,248	0,37
707,687	0,37
708,125	0,37
708,564	0,37
709,003	0,37
709,442	0,37
709,88	0,37
710,319	0,37
710,758	0,37
711,196	0,36
711,635	0,36
712,074	0,36
712,512	0,36
712,951	0,36
713,389	0,36
713,828	0,36
714,266	0,36
714,705	0,36
715,143	0,36
715,581	0,36
716,02	0,36
716,458	0,36
716,896	0,36
717,334	0,36
717,773	0,36
718,211	0,36
718,649	0,36
719,087	0,36
719,525	0,36
719,963	0,36
720,401	0,36
720,839	0,36
721,277	0,36
721,715	0,36
722,153	0,36
722,591	0,36
723,029	0,36
723,467	0,36
723,905	0,36
724,342	0,36
724,78	0,36
725,218	0,36
725,656	0,36
726,093	0,36
726,531	0,36
726,969	0,36
727,406	0,36
727,844	0,36
728,281	0,36
728,719	0,36
729,156	0,36
729,594	0,36
730,031	0,36
730,469	0,36
730,906	0,35
731,343	0,35
731,781	0,35
732,218	0,35
732,655	0,35
733,092	0,35
733,53	0,35
733,967	0,35
734,404	0,35
734,841	0,35
735,278	0,35
735,715	0,35
736,152	0,35
736,589	0,35
737,026	0,35
737,463	0,35
737,9	0,35
738,337	0,35
738,774	0,35
739,211	0,35
739,647	0,34
740,084	0,34
740,521	0,34
740,958	0,34
741,394	0,34
741,831	0,34
742,268	0,34
742,704	0,34
743,141	0,34
743,577	0,34
744,014	0,34
744,45	0,34
744,887	0,34
745,323	0,34
745,76	0,34
746,196	0,34
746,632	0,33
747,069	0,33
747,505	0,33
747,941	0,33
748,378	0,33
748,814	0,33
749,25	0,34
749,686	0,34
750,122	0,34
750,558	0,34
750,994	0,34
751,43	0,34
751,866	0,35
752,302	0,35
752,738	0,35
753,174	0,35
753,61	0,35
754,046	0,35
754,482	0,35
754,918	0,35
755,354	0,35
755,789	0,35
756,225	0,35
756,661	0,34
757,096	0,34
757,532	0,34
757,968	0,34
758,403	0,34
758,839	0,34
759,274	0,34
759,71	0,33
760,145	0,33
760,581	0,32
761,016	0,32
761,452	0,32
761,887	0,31
762,322	0,31
762,758	0,3
763,193	0,3
763,628	0,29
764,063	0,29
764,499	0,28
764,934	0,28
765,369	0,27
765,804	0,27
766,239	0,26
766,674	0,26
767,109	0,25
767,544	0,24
767,979	0,23
768,414	0,23
768,849	0,22
769,284	0,21
769,719	0,21
770,154	0,2
770,588	0,19
771,023	0,18
771,458	0,18
771,893	0,17
772,327	0,16
772,762	0,15
773,197	0,14
773,631	0,13
774,066	0,12
774,5	0,11
774,935	0,1
775,369	0,09
775,804	0,08
776,238	0,07
776,673	0,06
777,107	0,05
777,541	0,05
777,976	0,04
778,41	0,04
778,844	0,03
779,279	0,02
779,713	0,01
780,147	0,01
780,581	-0
781,015	-0,01
781,449	-0,02
781,883	-0,02
782,317	-0,04
782,751	-0,05
783,185	-0,05
783,619	-0,06
784,053	-0,07
784,487	-0,07
784,921	-0,08
785,355	-0,08
785,789	-0,09
786,223	-0,1
786,656	-0,11
787,09	-0,12
787,524	-0,13
787,957	-0,14
788,391	-0,16
788,825	-0,17
789,258	-0,19
789,692	-0,2
790,125	-0,22
790,559	-0,23
790,992	-0,25
791,426	-0,27
791,859	-0,29
792,293	-0,32
792,726	-0,33
793,159	-0,35
793,593	-0,37
794,026	-0,39
794,459	-0,42
794,892	-0,45
795,326	-0,48
795,759	-0,52
796,192	-0,56
796,625	-0,6
797,058	-0,63
797,491	-0,67
797,924	-0,71
798,357	-0,76
798,79	-0,8
799,223	-0,84
799,656	-0,9
800,089	-0,95
800,522	-0,99
800,955	-1,03
801,387	-1,09
801,82	-1,14
802,253	-1,2
802,686	-1,28
803,118	-1,34
803,551	-1,39
803,984	-1,43
804,416	-1,47
804,849	-1,5
805,281	-1,6
805,714	-1,95
806,146	-2,43
806,579	-2,69
807,011	-2,86
807,444	-2,96
807,876	-3,05
808,308	-3,08
808,741	-3,11
809,173	-3,16
809,605	-3,18
810,037	-3,26
810,47	-3,18
810,902	-2,99
811,334	-2,84
811,766	-2,69
812,198	-2,45
812,63	-2,02
813,062	-1,8
813,494	-1,7
813,926	-1,61
814,358	-1,55
814,79	-1,47
815,222	-1,41
815,654	-1,36
816,086	-1,3
816,518	-1,24
816,949	-1,19
817,381	-1,15
817,813	-1,13
818,245	-1,09
818,676	-1,05
819,108	-1,01
819,54	-1
819,971	-0,98
820,403	-0,92
820,834	-0,91
821,266	-0,87
821,697	-0,84
822,129	-0,83
822,56	-0,81
822,991	-0,78
823,423	-0,76
823,854	-0,75
824,286	-0,72
824,717	-0,71
825,148	-0,69
825,579	-0,68
826,01	-0,67
826,442	-0,66
826,873	-0,65
827,304	-0,61
827,735	-0,61
828,166	-0,61
828,597	-0,6
829,028	-0,6
829,459	-0,61
829,89	-0,61
830,321	-0,56
830,752	-0,56
831,183	-0,55
831,613	-0,54
832,044	-0,54
832,475	-0,52
832,906	-0,54
833,336	-0,54
833,767	-0,54
834,198	-0,53
834,628	-0,51
835,059	-0,55
835,49	-0,55
835,92	-0,52
836,351	-0,52
836,781	-0,53
837,212	-0,54
837,642	-0,55
838,072	-0,53
838,503	-0,53
838,933	-0,51
839,364	-0,52
839,794	-0,5
840,224	-0,49
840,654	-0,54
841,085	-0,55
841,515	-0,53
841,945	-0,53
842,375	-0,48
842,805	-0,47
843,235	-0,46
843,665	-0,46
844,095	-0,45
844,525	-0,47
844,955	-0,48
845,385	-0,45
845,815	-0,43
846,245	-0,44
846,675	-0,45
847,105	-0,46
847,534	-0,46
847,964	-0,44
848,394	-0,43
848,824	-0,46
849,253	-0,44
849,683	-0,44
850,112	-0,45
850,542	-0,48
850,972	-0,48
851,401	-0,46
851,831	-0,44
852,26	-0,45
852,69	-0,49
853,119	-0,49
853,548	-0,5
853,978	-0,51
854,407	-0,5
854,836	-0,49
855,266	-0,48
855,695	-0,5
856,124	-0,51
856,553	-0,53
856,983	-0,54
857,412	-0,54
857,841	-0,54
858,27	-0,55
858,699	-0,55
859,128	-0,58
859,557	-0,6
859,986	-0,61
860,415	-0,58
860,844	-0,56
861,273	-0,56
861,702	-0,57
862,13	-0,54
862,559	-0,57
862,988	-0,54
863,417	-0,53
863,845	-0,52
864,274	-0,53
864,703	-0,52
865,131	-0,53
865,56	-0,54
865,989	-0,57
866,417	-0,54
866,846	-0,54
867,274	-0,52
867,703	-0,55
868,131	-0,56
868,559	-0,56
868,988	-0,59
869,416	-0,59
869,844	-0,6
870,273	-0,62
870,701	-0,6
871,129	-0,64
871,557	-0,67
871,986	-0,68
872,414	-0,69
872,842	-0,66
873,27	-0,64
873,698	-0,6
874,126	-0,64
874,554	-0,63
874,982	-0,63
875,41	-0,66
875,838	-0,61
876,266	-0,58
876,694	-0,58
877,122	-0,57
877,549	-0,63
877,977	-0,61
878,405	-0,63
878,833	-0,6
879,26	-0,57
879,688	-0,57
880,116	-0,54
880,543	-0,52
880,971	-0,52
881,399	-0,54
881,826	-0,55
882,254	-0,54
882,681	-0,57
883,109	-0,53
883,536	-0,54
883,963	-0,56
884,391	-0,55
884,818	-0,54
885,245	-0,58
885,673	-0,59
886,1	-0,56
886,527	-0,55
886,954	-0,51
887,381	-0,52
887,809	-0,53
888,236	-0,54
888,663	-0,54
889,09	-0,58
889,517	-0,6
889,944	-0,59
890,371	-0,59
890,798	-0,59
891,225	-0,6
891,652	-0,63
892,078	-0,61
892,505	-0,64
892,932	-0,6
893,359	-0,61
893,786	-0,61
894,212	-0,57
894,639	-0,58
895,066	-0,6
895,492	-0,54
895,919	-0,54
896,346	-0,55
896,772	-0,56
897,199	-0,53
897,625	-0,55
898,052	-0,51
898,478	-0,5
898,904	-0,52
899,331	-0,52
899,757	-0,54
900,183	-0,56
900,61	-0,54
901,036	-0,55
901,462	-0,54
901,888	-0,54
902,315	-0,53
902,741	-0,58
903,167	-0,56
903,593	-0,59
904,019	-0,57
904,445	-0,54
904,871	-0,56
905,297	-0,58
905,723	-0,56
906,149	-0,55
906,575	-0,56
907,001	-0,57
907,427	-0,54
907,852	-0,54
908,278	-0,54
908,704	-0,52
909,13	-0,52
909,555	-0,51
909,981	-0,51
910,407	-0,51
910,832	-0,5
911,258	-0,5
911,684	-0,5
912,109	-0,51
912,535	-0,52
912,96	-0,48
913,386	-0,53
913,811	-0,52
914,236	-0,54
914,662	-0,51
915,087	-0,55
915,512	-0,55
915,938	-0,56
916,363	-0,56
916,788	-0,57
917,213	-0,56
917,639	-0,6
918,064	-0,57
918,489	-0,57
918,914	-0,58
919,339	-0,6
919,764	-0,56
920,189	-0,57
920,614	-0,59
921,039	-0,6
921,464	-0,55
921,889	-0,58
922,314	-0,6
922,738	-0,63
923,163	-0,64
923,588	-0,64
924,013	-0,63
924,437	-0,63
924,862	-0,64
925,287	-0,59
925,711	-0,6
926,136	-0,62
926,561	-0,6
926,985	-0,59
927,41	-0,56
927,834	-0,54
928,259	-0,51
928,683	-0,49
929,108	-0,46
929,532	-0,47
929,956	-0,46
930,381	-0,46
930,805	-0,46
931,229	-0,45
931,653	-0,43
932,078	-0,43
932,502	-0,44
932,926	-0,44
933,35	-0,45
933,774	-0,45
934,198	-0,43
934,622	-0,43
935,046	-0,43
935,47	-0,44
935,894	-0,44
936,318	-0,44
936,742	-0,44
937,166	-0,44
937,59	-0,44
938,014	-0,47
938,437	-0,47
938,861	-0,49
939,285	-0,5
939,709	-0,49
940,132	-0,49
940,556	-0,49
940,98	-0,5
941,403	-0,48
941,827	-0,49
942,25	-0,5
942,674	-0,48
943,097	-0,47
943,521	-0,47
943,944	-0,48
944,368	-0,47
944,791	-0,46
945,214	-0,48
945,638	-0,48
946,061	-0,51
946,484	-0,51
946,907	-0,5
947,331	-0,5
947,754	-0,54
948,177	-0,51
948,6	-0,51
949,023	-0,51
949,446	-0,51
949,869	-0,47
950,292	-0,47
950,715	-0,44
951,138	-0,43
951,561	-0,41
951,984	-0,41
952,407	-0,39
952,83	-0,38
953,252	-0,34
953,675	-0,34
954,098	-0,36
954,521	-0,35
954,943	-0,34
955,366	-0,35
955,789	-0,33
956,211	-0,34
956,634	-0,35
957,056	-0,33
957,479	-0,34
957,902	-0,37
958,324	-0,36
958,746	-0,34
959,169	-0,35
959,591	-0,36
960,014	-0,37
960,436	-0,37
960,858	-0,37
961,281	-0,36
961,703	-0,38
962,125	-0,38
962,547	-0,36
962,969	-0,37
963,391	-0,38
963,814	-0,39
964,236	-0,38
964,658	-0,35
965,08	-0,37
965,502	-0,36
965,924	-0,33
966,346	-0,33
966,768	-0,32
967,189	-0,34
967,611	-0,33
968,033	-0,32
968,455	-0,31
968,877	-0,32
969,298	-0,32
969,72	-0,32
970,142	-0,31
970,563	-0,32
970,985	-0,31
971,407	-0,3
971,828	-0,28
972,25	-0,28
972,671	-0,27
973,093	-0,26
973,514	-0,25
973,936	-0,23
974,357	-0,21
974,778	-0,22
975,2	-0,21
975,621	-0,2
976,042	-0,19
976,464	-0,18
976,885	-0,18
977,306	-0,18
977,727	-0,16
978,148	-0,15
978,57	-0,15
978,991	-0,14
979,412	-0,12
979,833	-0,13
980,254	-0,12
980,675	-0,12
981,096	-0,11
981,517	-0,09
981,937	-0,08
982,358	-0,07
982,779	-0,05
983,2	-0,04
983,621	-0,03
984,042	-0,01
984,462	0
984,883	0,01
985,304	0,03
985,724	0,04
986,145	0,04
986,565	0,06
986,986	0,07
987,407	0,08
987,827	0,09
988,248	0,1
988,668	0,1
989,088	0,11
989,509	0,12
989,929	0,13
990,35	0,14
990,77	0,15
991,19	0,16
991,61	0,17
992,031	0,17
992,451	0,18
992,871	0,19
993,291	0,2
993,711	0,2
994,131	0,21
994,551	0,21
994,971	0,22
995,391	0,23
995,811	0,23
996,231	0,24
996,651	0,24
997,071	0,25
997,491	0,25
997,911	0,26
998,331	0,27
998,75	0,27
999,17	0,28
999,59	0,28
1000,009	0,28
1000,429	0,29
1000,849	0,29
1001,268	0,3
1001,688	0,3
1002,107	0,3
1002,527	0,3
1002,946	0,3
1003,366	0,31
1003,785	0,31
1004,205	0,31
1004,624	0,31
1005,044	0,31
1005,463	0,31
1005,882	0,32
1006,301	0,32
1006,721	0,32
1007,14	0,32
1007,559	0,32
1007,978	0,32
1008,397	0,32
1008,816	0,32
1009,235	0,32
1009,655	0,32
1010,074	0,32
1010,492	0,32
1010,911	0,32
1011,33	0,32
1011,749	0,32
1012,168	0,32
1012,587	0,32
1013,006	0,31
1013,425	0,31
1013,843	0,31
1014,262	0,31
1014,681	0,31
1015,099	0,31
1015,518	0,31
1015,937	0,31
1016,355	0,31
1016,774	0,31
1017,192	0,31
1017,611	0,31
1018,029	0,31
1018,448	0,31
1018,866	0,31
1019,285	0,31
1019,703	0,31
1020,121	0,31
1020,54	0,31
1020,958	0,31
1021,376	0,31
1021,794	0,31
1022,213	0,31
1022,631	0,31
1023,049	0,31
1023,467	0,31
1023,885	0,31
1024,303	0,31
1024,721	0,31
1025,139	0,31
1025,557	0,3
1025,975	0,3
1026,393	0,3
1026,811	0,3
1027,229	0,3
1027,647	0,3
1028,065	0,3
1028,482	0,3
1028,9	0,3
1029,318	0,3
1029,735	0,3
1030,153	0,3
1030,571	0,3
1030,988	0,3
1031,406	0,3
1031,823	0,3
1032,241	0,3
1032,659	0,3
1033,076	0,3
1033,493	0,3
1033,911	0,3
1034,328	0,3
1034,746	0,3
1035,163	0,3
1035,58	0,3
1035,997	0,3
1036,415	0,3
1036,832	0,3
1037,249	0,3
1037,666	0,3
1038,083	0,3
1038,501	0,3
1038,918	0,3
1039,335	0,3
1039,752	0,3
1040,169	0,3
1040,586	0,3
1041,003	0,3
1041,419	0,3
1041,836	0,3
1042,253	0,3
1042,67	0,3
1043,087	0,3
1043,504	0,3
1043,92	0,3
1044,337	0,29
1044,754	0,29
1045,17	0,29
1045,587	0,29
1046,004	0,29
1046,42	0,29
1046,837	0,29
1047,253	0,29
1047,67	0,29
1048,086	0,29
1048,503	0,29
1048,919	0,3
1049,335	0,3
1049,752	0,3
1050,168	0,3
1050,584	0,3
1051,001	0,3
1051,417	0,3
1051,833	0,3
1052,249	0,3
1052,665	0,3
1053,081	0,3
1053,497	0,3
1053,914	0,3
1054,33	0,3
1054,746	0,3
1055,162	0,3
1055,578	0,3
1055,993	0,3
1056,409	0,31
1056,825	0,31
1057,241	0,31
1057,657	0,31
1058,073	0,31
1058,488	0,31
1058,904	0,31
1059,32	0,31
1059,736	0,31
1060,151	0,31
1060,567	0,31
1060,982	0,31
1061,398	0,31
1061,813	0,3
1062,229	0,3
1062,644	0,3
1063,06	0,3
1063,475	0,3
1063,891	0,3
1064,306	0,3
1064,721	0,3
1065,137	0,3
1065,552	0,3
1065,967	0,3
1066,382	0,3
1066,798	0,3
1067,213	0,3
1067,628	0,3
1068,043	0,3
1068,458	0,3
1068,873	0,3
1069,288	0,3
1069,703	0,3
1070,118	0,3
1070,533	0,3
1070,948	0,3
1071,363	0,3
1071,778	0,3
1072,193	0,3
1072,607	0,3
1073,022	0,3
1073,437	0,3
1073,852	0,31
1074,266	0,31
1074,681	0,31
1075,096	0,31
1075,51	0,31
1075,925	0,31
1076,339	0,3
1076,754	0,3
1077,168	0,3
1077,583	0,3
1077,997	0,3
1078,412	0,3
1078,826	0,3
1079,24	0,3
1079,655	0,3
1080,069	0,3
1080,483	0,3
1080,897	0,3
1081,312	0,3
1081,726	0,3
1082,14	0,3
1082,554	0,3
1082,968	0,3
1083,382	0,3
1083,796	0,29
1084,21	0,29
1084,624	0,29
1085,038	0,29
1085,452	0,29
1085,866	0,29
1086,28	0,29
1086,694	0,29
1087,108	0,29
1087,521	0,28
1087,935	0,28
1088,349	0,28
1088,763	0,28
1089,176	0,28
1089,59	0,28
1090,004	0,27
1090,417	0,27
1090,831	0,27
1091,244	0,27
1091,658	0,26
1092,071	0,26
1092,485	0,26
1092,898	0,26
1093,312	0,26
1093,725	0,26
1094,138	0,25
1094,552	0,25
1094,965	0,25
1095,378	0,25
1095,791	0,25
1096,205	0,25
1096,618	0,24
1097,031	0,24
1097,444	0,24
1097,857	0,24
1098,27	0,23
1098,683	0,23
1099,096	0,23
1099,509	0,23
1099,922	0,22
1100,335	0,22
1100,748	0,21
1101,161	0,21
1101,574	0,21
1101,986	0,2
1102,399	0,2
1102,812	0,2
1103,225	0,2
1103,637	0,19
1104,05	0,19
1104,463	0,19
1104,875	0,19
1105,288	0,19
1105,7	0,18
1106,113	0,18
1106,525	0,18
1106,938	0,17
1107,35	0,17
1107,763	0,17
1108,175	0,17
1108,588	0,16
1109	0,15
1109,412	0,14
1109,824	0,15
1110,237	0,15
1110,649	0,15
1111,061	0,15
