Data from 18C-808nm-8A-cont_Absorbance__694__02123.txt Node

Date: Mon Jul 17 17:45:30 CEST 2023
User: Laser008
Spectrometer: MAYP115816
Trigger mode: 0
Integration Time (sec): 2,500000E-1
Scans to average: 10
Electric dark correction enabled: true
Nonlinearity correction enabled: true
Boxcar width: 5
XAxis mode: Wavelengths
Number of Pixels in Spectrum: 2068
>>>>>Begin Spectral Data<<<<<
198,914	-0,74
199,384	-0,51
199,855	-0,36
200,325	-0,28
200,796	-0,24
201,266	-0,19
201,737	-0,17
202,207	-0,16
202,677	-0,15
203,147	-0,13
203,618	-0,09
204,088	-0,07
204,558	-0,06
205,028	-0,05
205,498	-0,06
205,968	-0,06
206,439	-0,07
206,909	-0,07
207,379	-0,08
207,849	-0,08
208,319	-0,09
208,789	-0,1
209,258	-0,1
209,728	-0,11
210,198	-0,11
210,668	-0,1
211,138	-0,1
211,608	-0,1
212,077	-0,1
212,547	-0,09
213,017	-0,09
213,486	-0,1
213,956	-0,1
214,426	-0,11
214,895	-0,1
215,365	-0,12
215,834	-0,12
216,304	-0,13
216,773	-0,14
217,243	-0,15
217,712	-0,16
218,181	-0,16
218,651	-0,16
219,12	-0,16
219,589	-0,16
220,058	-0,15
220,528	-0,16
220,997	-0,17
221,466	-0,17
221,935	-0,17
222,404	-0,17
222,873	-0,17
223,342	-0,17
223,812	-0,17
224,281	-0,17
224,749	-0,18
225,218	-0,2
225,687	-0,19
226,156	-0,18
226,625	-0,17
227,094	-0,17
227,563	-0,16
228,031	-0,17
228,5	-0,17
228,969	-0,17
229,438	-0,16
229,906	-0,15
230,375	-0,14
230,844	-0,14
231,312	-0,14
231,781	-0,15
232,249	-0,13
232,718	-0,14
233,186	-0,13
233,655	-0,13
234,123	-0,13
234,591	-0,13
235,06	-0,13
235,528	-0,14
235,996	-0,13
236,465	-0,13
236,933	-0,12
237,401	-0,13
237,869	-0,11
238,337	-0,12
238,805	-0,1
239,274	-0,1
239,742	-0,09
240,21	-0,1
240,678	-0,08
241,146	-0,07
241,614	-0,07
242,081	-0,07
242,549	-0,07
243,017	-0,07
243,485	-0,07
243,953	-0,07
244,421	-0,06
244,888	-0,07
245,356	-0,06
245,824	-0,06
246,291	-0,07
246,759	-0,08
247,227	-0,09
247,694	-0,08
248,162	-0,07
248,629	-0,07
249,097	-0,08
249,564	-0,09
250,032	-0,09
250,499	-0,1
250,967	-0,11
251,434	-0,11
251,901	-0,1
252,369	-0,1
252,836	-0,11
253,303	-0,12
253,77	-0,13
254,237	-0,13
254,705	-0,12
255,172	-0,12
255,639	-0,13
256,106	-0,14
256,573	-0,14
257,04	-0,14
257,507	-0,15
257,974	-0,15
258,441	-0,13
258,908	-0,14
259,375	-0,15
259,841	-0,16
260,308	-0,16
260,775	-0,15
261,242	-0,14
261,709	-0,15
262,175	-0,16
262,642	-0,15
263,109	-0,15
263,575	-0,16
264,042	-0,14
264,508	-0,14
264,975	-0,15
265,441	-0,17
265,908	-0,18
266,374	-0,17
266,841	-0,17
267,307	-0,17
267,773	-0,17
268,24	-0,17
268,706	-0,17
269,172	-0,19
269,639	-0,2
270,105	-0,18
270,571	-0,18
271,037	-0,18
271,503	-0,19
271,969	-0,18
272,435	-0,19
272,902	-0,2
273,368	-0,21
273,834	-0,21
274,3	-0,22
274,765	-0,22
275,231	-0,22
275,697	-0,21
276,163	-0,21
276,629	-0,21
277,095	-0,22
277,56	-0,21
278,026	-0,21
278,492	-0,19
278,958	-0,18
279,423	-0,18
279,889	-0,17
280,354	-0,19
280,82	-0,19
281,286	-0,21
281,751	-0,21
282,217	-0,2
282,682	-0,2
283,147	-0,21
283,613	-0,22
284,078	-0,23
284,544	-0,24
285,009	-0,25
285,474	-0,23
285,939	-0,24
286,405	-0,24
286,87	-0,24
287,335	-0,23
287,8	-0,22
288,265	-0,21
288,73	-0,22
289,195	-0,23
289,66	-0,22
290,125	-0,21
290,59	-0,21
291,055	-0,2
291,52	-0,2
291,985	-0,2
292,45	-0,22
292,915	-0,21
293,38	-0,22
293,844	-0,19
294,309	-0,18
294,774	-0,17
295,239	-0,19
295,703	-0,18
296,168	-0,18
296,632	-0,17
297,097	-0,16
297,562	-0,14
298,026	-0,15
298,491	-0,15
298,955	-0,15
299,419	-0,14
299,884	-0,14
300,348	-0,13
300,813	-0,13
301,277	-0,13
301,741	-0,13
302,205	-0,13
302,67	-0,12
303,134	-0,12
303,598	-0,12
304,062	-0,11
304,526	-0,11
304,99	-0,11
305,454	-0,11
305,919	-0,1
306,383	-0,1
306,847	-0,1
307,31	-0,1
307,774	-0,11
308,238	-0,11
308,702	-0,1
309,166	-0,12
309,63	-0,12
310,094	-0,1
310,557	-0,1
311,021	-0,1
311,485	-0,1
311,948	-0,1
312,412	-0,09
312,876	-0,08
313,339	-0,09
313,803	-0,09
314,266	-0,09
314,73	-0,09
315,193	-0,08
315,657	-0,08
316,12	-0,08
316,584	-0,07
317,047	-0,07
317,51	-0,05
317,973	-0,06
318,437	-0,05
318,9	-0,04
319,363	-0,03
319,826	-0,02
320,29	-0,03
320,753	-0,03
321,216	-0,03
321,679	-0,02
322,142	-0,01
322,605	-0,03
323,068	-0,03
323,531	-0,03
323,994	-0,03
324,457	-0,03
324,92	-0,02
325,382	-0,02
325,845	-0,01
326,308	-0
326,771	-0,01
327,233	-0,01
327,696	0,01
328,159	0,01
328,622	0,03
329,084	0,02
329,547	0,02
330,009	0,02
330,472	0,04
330,934	0,04
331,397	0,04
331,859	0,05
332,322	0,05
332,784	0,05
333,246	0,06
333,709	0,06
334,171	0,07
334,633	0,08
335,096	0,08
335,558	0,08
336,02	0,09
336,482	0,09
336,944	0,1
337,406	0,11
337,868	0,12
338,331	0,11
338,793	0,13
339,255	0,14
339,717	0,14
340,178	0,15
340,64	0,16
341,102	0,17
341,564	0,19
342,026	0,21
342,488	0,21
342,949	0,23
343,411	0,26
343,873	0,29
344,335	0,32
344,796	0,36
345,258	0,41
345,719	0,45
346,181	0,5
346,643	0,55
347,104	0,58
347,566	0,62
348,027	0,65
348,488	0,68
348,95	0,7
349,411	0,73
349,873	0,76
350,334	0,78
350,795	0,8
351,256	0,81
351,718	0,83
352,179	0,83
352,64	0,84
353,101	0,84
353,562	0,84
354,023	0,85
354,484	0,85
354,945	0,85
355,406	0,86
355,867	0,86
356,328	0,86
356,789	0,86
357,25	0,87
357,711	0,87
358,172	0,87
358,633	0,87
359,093	0,88
359,554	0,88
360,015	0,88
360,476	0,88
360,936	0,88
361,397	0,89
361,858	0,89
362,318	0,89
362,779	0,89
363,239	0,89
363,7	0,89
364,16	0,89
364,621	0,89
365,081	0,89
365,541	0,89
366,002	0,89
366,462	0,89
366,922	0,89
367,383	0,89
367,843	0,89
368,303	0,89
368,763	0,89
369,223	0,89
369,684	0,89
370,144	0,89
370,604	0,89
371,064	0,89
371,524	0,89
371,984	0,89
372,444	0,89
372,904	0,89
373,363	0,89
373,823	0,89
374,283	0,89
374,743	0,89
375,203	0,89
375,663	0,89
376,122	0,89
376,582	0,89
377,042	0,89
377,501	0,89
377,961	0,89
378,42	0,89
378,88	0,89
379,34	0,89
379,799	0,89
380,259	0,88
380,718	0,88
381,177	0,88
381,637	0,88
382,096	0,88
382,555	0,88
383,015	0,88
383,474	0,88
383,933	0,88
384,393	0,88
384,852	0,88
385,311	0,88
385,77	0,88
386,229	0,88
386,688	0,88
387,147	0,88
387,606	0,88
388,065	0,88
388,524	0,88
388,983	0,88
389,442	0,88
389,901	0,87
390,36	0,87
390,819	0,87
391,277	0,87
391,736	0,87
392,195	0,87
392,654	0,87
393,112	0,87
393,571	0,87
394,03	0,87
394,488	0,87
394,947	0,87
395,405	0,87
395,864	0,87
396,322	0,87
396,781	0,87
397,239	0,87
397,698	0,87
398,156	0,87
398,614	0,87
399,073	0,87
399,531	0,87
399,989	0,87
400,447	0,87
400,905	0,87
401,364	0,87
401,822	0,87
402,28	0,87
402,738	0,86
403,196	0,86
403,654	0,86
404,112	0,86
404,57	0,86
405,028	0,86
405,486	0,86
405,944	0,86
406,402	0,86
406,859	0,86
407,317	0,86
407,775	0,86
408,233	0,86
408,691	0,86
409,148	0,86
409,606	0,86
410,064	0,86
410,521	0,86
410,979	0,86
411,436	0,86
411,894	0,86
412,351	0,86
412,809	0,86
413,266	0,86
413,724	0,86
414,181	0,86
414,638	0,86
415,096	0,86
415,553	0,86
416,01	0,86
416,467	0,86
416,925	0,86
417,382	0,86
417,839	0,86
418,296	0,86
418,753	0,86
419,21	0,86
419,667	0,86
420,124	0,86
420,581	0,86
421,038	0,86
421,495	0,86
421,952	0,86
422,409	0,86
422,866	0,86
423,322	0,86
423,779	0,86
424,236	0,86
424,693	0,86
425,149	0,86
425,606	0,86
426,063	0,86
426,519	0,86
426,976	0,86
427,433	0,86
427,889	0,86
428,346	0,86
428,802	0,86
429,258	0,86
429,715	0,86
430,171	0,86
430,628	0,86
431,084	0,86
431,54	0,86
431,997	0,86
432,453	0,86
432,909	0,85
433,365	0,85
433,821	0,85
434,277	0,85
434,734	0,85
435,19	0,85
435,646	0,85
436,102	0,85
436,558	0,85
437,014	0,85
437,47	0,85
437,925	0,85
438,381	0,85
438,837	0,85
439,293	0,85
439,749	0,85
440,205	0,85
440,66	0,85
441,116	0,85
441,572	0,85
442,027	0,85
442,483	0,85
442,939	0,85
443,394	0,85
443,85	0,85
444,305	0,85
444,761	0,85
445,216	0,86
445,672	0,86
446,127	0,86
446,582	0,86
447,038	0,86
447,493	0,86
447,948	0,86
448,403	0,86
448,859	0,86
449,314	0,86
449,769	0,86
450,224	0,86
450,679	0,86
451,134	0,86
451,589	0,86
452,044	0,86
452,499	0,86
452,954	0,86
453,409	0,86
453,864	0,86
454,319	0,86
454,774	0,86
455,229	0,86
455,684	0,86
456,138	0,86
456,593	0,86
457,048	0,86
457,503	0,86
457,957	0,86
458,412	0,86
458,866	0,87
459,321	0,87
459,776	0,87
460,23	0,87
460,685	0,87
461,139	0,87
461,593	0,87
462,048	0,87
462,502	0,87
462,957	0,87
463,411	0,88
463,865	0,88
464,319	0,88
464,774	0,88
465,228	0,88
465,682	0,88
466,136	0,88
466,59	0,88
467,044	0,88
467,499	0,88
467,953	0,88
468,407	0,89
468,861	0,89
469,315	0,89
469,768	0,89
470,222	0,89
470,676	0,89
471,13	0,89
471,584	0,89
472,038	0,89
472,491	0,89
472,945	0,89
473,399	0,9
473,852	0,9
474,306	0,9
474,76	0,9
475,213	0,9
475,667	0,9
476,12	0,9
476,574	0,91
477,027	0,91
477,481	0,91
477,934	0,91
478,388	0,91
478,841	0,92
479,294	0,92
479,748	0,92
480,201	0,92
480,654	0,92
481,107	0,93
481,561	0,93
482,014	0,93
482,467	0,93
482,92	0,93
483,373	0,93
483,826	0,94
484,279	0,94
484,732	0,94
485,185	0,94
485,638	0,95
486,091	0,95
486,544	0,95
486,997	0,95
487,449	0,95
487,902	0,96
488,355	0,96
488,808	0,96
489,26	0,97
489,713	0,97
490,166	0,97
490,618	0,98
491,071	0,98
491,523	0,98
491,976	0,99
492,429	0,99
492,881	0,99
493,333	1
493,786	1
494,238	1
494,691	1,01
495,143	1,01
495,595	1,02
496,048	1,02
496,5	1,02
496,952	1,03
497,404	1,03
497,856	1,03
498,309	1,04
498,761	1,04
499,213	1,05
499,665	1,05
500,117	1,06
500,569	1,06
501,021	1,07
501,473	1,07
501,925	1,08
502,377	1,08
502,828	1,08
503,28	1,09
503,732	1,09
504,184	1,1
504,636	1,1
505,087	1,11
505,539	1,11
505,991	1,11
506,442	1,12
506,894	1,12
507,345	1,13
507,797	1,13
508,249	1,14
508,7	1,14
509,151	1,15
509,603	1,15
510,054	1,15
510,506	1,16
510,957	1,16
511,408	1,17
511,86	1,17
512,311	1,18
512,762	1,18
513,213	1,18
513,665	1,19
514,116	1,19
514,567	1,19
515,018	1,2
515,469	1,2
515,92	1,2
516,371	1,21
516,822	1,21
517,273	1,22
517,724	1,22
518,175	1,22
518,626	1,22
519,076	1,23
519,527	1,23
519,978	1,23
520,429	1,23
520,88	1,23
521,33	1,24
521,781	1,24
522,232	1,24
522,682	1,24
523,133	1,25
523,583	1,25
524,034	1,25
524,484	1,25
524,935	1,25
525,385	1,25
525,836	1,25
526,286	1,25
526,736	1,25
527,187	1,25
527,637	1,25
528,087	1,25
528,538	1,25
528,988	1,25
529,438	1,25
529,888	1,25
530,338	1,24
530,788	1,24
531,238	1,24
531,688	1,24
532,139	1,24
532,589	1,24
533,038	1,23
533,488	1,23
533,938	1,23
534,388	1,23
534,838	1,22
535,288	1,22
535,738	1,22
536,187	1,21
536,637	1,21
537,087	1,2
537,537	1,2
537,986	1,2
538,436	1,19
538,885	1,18
539,335	1,18
539,785	1,17
540,234	1,17
540,684	1,16
541,133	1,16
541,582	1,15
542,032	1,14
542,481	1,14
542,931	1,13
543,38	1,13
543,829	1,12
544,278	1,11
544,728	1,11
545,177	1,1
545,626	1,09
546,075	1,09
546,524	1,08
546,973	1,08
547,422	1,07
547,871	1,07
548,32	1,07
548,769	1,06
549,218	1,06
549,667	1,06
550,116	1,05
550,565	1,05
551,014	1,05
551,463	1,04
551,911	1,04
552,36	1,03
552,809	1,03
553,258	1,02
553,706	1,02
554,155	1,01
554,603	1,01
555,052	1
555,501	0,99
555,949	0,99
556,398	0,98
556,846	0,98
557,294	0,97
557,743	0,97
558,191	0,96
558,64	0,95
559,088	0,95
559,536	0,94
559,985	0,94
560,433	0,93
560,881	0,93
561,329	0,92
561,777	0,92
562,225	0,91
562,674	0,91
563,122	0,9
563,57	0,9
564,018	0,89
564,466	0,89
564,914	0,88
565,362	0,88
565,809	0,87
566,257	0,87
566,705	0,86
567,153	0,86
567,601	0,85
568,048	0,85
568,496	0,84
568,944	0,84
569,392	0,83
569,839	0,83
570,287	0,83
570,734	0,82
571,182	0,82
571,63	0,81
572,077	0,81
572,525	0,8
572,972	0,8
573,419	0,8
573,867	0,79
574,314	0,79
574,761	0,78
575,209	0,78
575,656	0,77
576,103	0,77
576,551	0,77
576,998	0,76
577,445	0,76
577,892	0,76
578,339	0,75
578,786	0,75
579,233	0,75
579,68	0,74
580,127	0,74
580,574	0,74
581,021	0,73
581,468	0,73
581,915	0,73
582,362	0,72
582,809	0,72
583,255	0,72
583,702	0,72
584,149	0,71
584,596	0,71
585,042	0,7
585,489	0,7
585,936	0,7
586,382	0,69
586,829	0,69
587,275	0,69
587,722	0,69
588,168	0,69
588,615	0,68
589,061	0,68
589,508	0,68
589,954	0,68
590,4	0,67
590,847	0,67
591,293	0,67
591,739	0,67
592,185	0,66
592,632	0,66
593,078	0,66
593,524	0,66
593,97	0,66
594,416	0,66
594,862	0,66
595,308	0,65
595,754	0,65
596,2	0,65
596,646	0,65
597,092	0,64
597,538	0,64
597,984	0,64
598,43	0,64
598,876	0,64
599,321	0,64
599,767	0,63
600,213	0,63
600,659	0,63
601,104	0,63
601,55	0,63
601,995	0,63
602,441	0,62
602,887	0,62
603,332	0,62
603,778	0,62
604,223	0,62
604,668	0,62
605,114	0,62
605,559	0,62
606,005	0,62
606,45	0,61
606,895	0,61
607,341	0,61
607,786	0,61
608,231	0,61
608,676	0,6
609,121	0,59
609,566	0,59
610,012	0,58
610,457	0,58
610,902	0,57
611,347	0,57
611,792	0,57
612,237	0,56
612,682	0,56
613,127	0,56
613,571	0,56
614,016	0,57
614,461	0,57
614,906	0,57
615,351	0,58
615,795	0,58
616,24	0,58
616,685	0,58
617,129	0,58
617,574	0,58
618,019	0,58
618,463	0,58
618,908	0,58
619,352	0,58
619,797	0,58
620,241	0,57
620,686	0,57
621,13	0,57
621,574	0,57
622,019	0,57
622,463	0,57
622,907	0,57
623,352	0,57
623,796	0,57
624,24	0,56
624,684	0,56
625,128	0,56
625,572	0,56
626,016	0,56
626,461	0,56
626,905	0,56
627,349	0,56
627,793	0,56
628,236	0,56
628,68	0,56
629,124	0,56
629,568	0,56
630,012	0,56
630,456	0,55
630,9	0,55
631,343	0,55
631,787	0,55
632,231	0,55
632,674	0,55
633,118	0,55
633,562	0,55
634,005	0,55
634,449	0,55
634,892	0,55
635,336	0,55
635,779	0,55
636,223	0,55
636,666	0,55
637,109	0,55
637,553	0,55
637,996	0,55
638,439	0,55
638,883	0,55
639,326	0,55
639,769	0,55
640,212	0,55
640,655	0,55
641,099	0,55
641,542	0,55
641,985	0,55
642,428	0,54
642,871	0,54
643,314	0,54
643,757	0,54
644,2	0,54
644,643	0,54
645,085	0,54
645,528	0,54
645,971	0,54
646,414	0,54
646,857	0,54
647,299	0,54
647,742	0,54
648,185	0,53
648,627	0,53
649,07	0,53
649,513	0,53
649,955	0,53
650,398	0,53
650,84	0,53
651,283	0,53
651,725	0,53
652,168	0,53
652,61	0,53
653,052	0,53
653,495	0,53
653,937	0,44
654,379	0,38
654,821	0,39
655,264	0,39
655,706	0,39
656,148	0,39
656,59	0,39
657,032	0,39
657,474	0,39
657,916	0,39
658,358	0,38
658,8	0,45
659,242	0,53
659,684	0,53
660,126	0,53
660,568	0,53
661,01	0,53
661,452	0,53
661,894	0,53
662,335	0,53
662,777	0,53
663,219	0,53
663,661	0,53
664,102	0,53
664,544	0,53
664,985	0,53
665,427	0,53
665,869	0,53
666,31	0,53
666,752	0,52
667,193	0,52
667,634	0,52
668,076	0,52
668,517	0,52
668,959	0,52
669,4	0,52
669,841	0,52
670,282	0,52
670,724	0,52
671,165	0,52
671,606	0,52
672,047	0,52
672,488	0,52
672,929	0,52
673,37	0,52
673,811	0,52
674,252	0,52
674,693	0,52
675,134	0,52
675,575	0,52
676,016	0,52
676,457	0,52
676,898	0,52
677,339	0,52
677,78	0,52
678,22	0,52
678,661	0,52
679,102	0,52
679,542	0,52
679,983	0,52
680,424	0,52
680,864	0,52
681,305	0,52
681,745	0,52
682,186	0,52
682,626	0,52
683,067	0,52
683,507	0,52
683,948	0,52
684,388	0,52
684,828	0,52
685,269	0,52
685,709	0,52
686,149	0,52
686,589	0,51
687,029	0,51
687,47	0,51
687,91	0,51
688,35	0,51
688,79	0,51
689,23	0,51
689,67	0,51
690,11	0,51
690,55	0,51
690,99	0,51
691,43	0,51
691,87	0,51
692,31	0,51
692,749	0,51
693,189	0,5
693,629	0,5
694,069	0,5
694,508	0,5
694,948	0,5
695,388	0,5
695,827	0,5
696,267	0,5
696,706	0,5
697,146	0,51
697,586	0,51
698,025	0,51
698,464	0,51
698,904	0,51
699,343	0,51
699,783	0,51
700,222	0,51
700,661	0,51
701,101	0,51
701,54	0,51
701,979	0,51
702,418	0,51
702,857	0,51
703,297	0,51
703,736	0,51
704,175	0,51
704,614	0,51
705,053	0,51
705,492	0,51
705,931	0,51
706,37	0,51
706,809	0,51
707,248	0,5
707,687	0,5
708,125	0,5
708,564	0,5
709,003	0,5
709,442	0,5
709,88	0,5
710,319	0,5
710,758	0,5
711,196	0,5
711,635	0,5
712,074	0,5
712,512	0,5
712,951	0,5
713,389	0,5
713,828	0,5
714,266	0,5
714,705	0,5
715,143	0,5
715,581	0,5
716,02	0,5
716,458	0,5
716,896	0,5
717,334	0,5
717,773	0,5
718,211	0,5
718,649	0,5
719,087	0,5
719,525	0,5
719,963	0,5
720,401	0,5
720,839	0,5
721,277	0,5
721,715	0,5
722,153	0,5
722,591	0,5
723,029	0,5
723,467	0,5
723,905	0,49
724,342	0,49
724,78	0,49
725,218	0,49
725,656	0,49
726,093	0,49
726,531	0,49
726,969	0,49
727,406	0,49
727,844	0,49
728,281	0,49
728,719	0,49
729,156	0,49
729,594	0,49
730,031	0,49
730,469	0,49
730,906	0,49
731,343	0,49
731,781	0,49
732,218	0,49
732,655	0,49
733,092	0,49
733,53	0,49
733,967	0,49
734,404	0,49
734,841	0,49
735,278	0,49
735,715	0,49
736,152	0,49
736,589	0,49
737,026	0,49
737,463	0,49
737,9	0,49
738,337	0,48
738,774	0,48
739,211	0,48
739,647	0,48
740,084	0,48
740,521	0,49
740,958	0,49
741,394	0,49
741,831	0,49
742,268	0,49
742,704	0,49
743,141	0,49
743,577	0,49
744,014	0,49
744,45	0,48
744,887	0,48
745,323	0,48
745,76	0,48
746,196	0,48
746,632	0,48
747,069	0,48
747,505	0,48
747,941	0,48
748,378	0,48
748,814	0,48
749,25	0,48
749,686	0,48
750,122	0,48
750,558	0,48
750,994	0,48
751,43	0,48
751,866	0,48
752,302	0,48
752,738	0,48
753,174	0,48
753,61	0,48
754,046	0,48
754,482	0,48
754,918	0,48
755,354	0,48
755,789	0,48
756,225	0,48
756,661	0,47
757,096	0,47
757,532	0,47
757,968	0,47
758,403	0,47
758,839	0,46
759,274	0,46
759,71	0,45
760,145	0,45
760,581	0,44
761,016	0,44
761,452	0,43
761,887	0,43
762,322	0,43
762,758	0,42
763,193	0,42
763,628	0,41
764,063	0,4
764,499	0,4
764,934	0,39
765,369	0,38
765,804	0,38
766,239	0,37
766,674	0,36
767,109	0,35
767,544	0,34
767,979	0,33
768,414	0,31
768,849	0,31
769,284	0,29
769,719	0,28
770,154	0,27
770,588	0,27
771,023	0,25
771,458	0,24
771,893	0,23
772,327	0,21
772,762	0,21
773,197	0,2
773,631	0,19
774,066	0,19
774,5	0,18
774,935	0,17
775,369	0,16
775,804	0,14
776,238	0,14
776,673	0,12
777,107	0,11
777,541	0,1
777,976	0,09
778,41	0,08
778,844	0,07
779,279	0,07
779,713	0,06
780,147	0,05
780,581	0,04
781,015	0,03
781,449	0,02
781,883	0,01
782,317	-0
782,751	-0,01
783,185	-0,03
783,619	-0,04
784,053	-0,05
784,487	-0,06
784,921	-0,06
785,355	-0,07
785,789	-0,08
786,223	-0,08
786,656	-0,09
787,09	-0,1
787,524	-0,11
787,957	-0,12
788,391	-0,13
788,825	-0,15
789,258	-0,17
789,692	-0,18
790,125	-0,2
790,559	-0,22
790,992	-0,24
791,426	-0,26
791,859	-0,27
792,293	-0,31
792,726	-0,33
793,159	-0,35
793,593	-0,36
794,026	-0,38
794,459	-0,41
794,892	-0,44
795,326	-0,47
795,759	-0,51
796,192	-0,55
796,625	-0,6
797,058	-0,62
797,491	-0,66
797,924	-0,7
798,357	-0,75
798,79	-0,79
799,223	-0,84
799,656	-0,89
800,089	-0,94
800,522	-0,98
800,955	-1,02
801,387	-1,08
801,82	-1,13
802,253	-1,2
802,686	-1,28
803,118	-1,33
803,551	-1,38
803,984	-1,43
804,416	-1,46
804,849	-1,5
805,281	-1,63
805,714	-2
806,146	-2,44
806,579	-2,71
807,011	-2,87
807,444	-2,96
807,876	-3,06
808,308	-3,09
808,741	-3,12
809,173	-3,18
809,605	-3,2
810,037	-3,27
810,47	-3,19
810,902	-3
811,334	-2,85
811,766	-2,71
812,198	-2,48
812,63	-2,04
813,062	-1,8
813,494	-1,69
813,926	-1,6
814,358	-1,55
814,79	-1,47
815,222	-1,41
815,654	-1,36
816,086	-1,3
816,518	-1,24
816,949	-1,19
817,381	-1,14
817,813	-1,13
818,245	-1,08
818,676	-1,04
819,108	-1,01
819,54	-1
819,971	-0,97
820,403	-0,92
820,834	-0,91
821,266	-0,87
821,697	-0,85
822,129	-0,83
822,56	-0,8
822,991	-0,78
823,423	-0,75
823,854	-0,74
824,286	-0,71
824,717	-0,7
825,148	-0,68
825,579	-0,67
826,01	-0,66
826,442	-0,65
826,873	-0,64
827,304	-0,6
827,735	-0,6
828,166	-0,6
828,597	-0,6
829,028	-0,59
829,459	-0,6
829,89	-0,6
830,321	-0,56
830,752	-0,57
831,183	-0,55
831,613	-0,54
832,044	-0,55
832,475	-0,53
832,906	-0,54
833,336	-0,55
833,767	-0,55
834,198	-0,54
834,628	-0,52
835,059	-0,55
835,49	-0,55
835,92	-0,53
836,351	-0,52
836,781	-0,52
837,212	-0,54
837,642	-0,54
838,072	-0,52
838,503	-0,53
838,933	-0,5
839,364	-0,51
839,794	-0,49
840,224	-0,48
840,654	-0,53
841,085	-0,53
841,515	-0,52
841,945	-0,51
842,375	-0,47
842,805	-0,46
843,235	-0,45
843,665	-0,47
844,095	-0,46
844,525	-0,48
844,955	-0,48
845,385	-0,46
845,815	-0,44
846,245	-0,46
846,675	-0,47
847,105	-0,49
847,534	-0,5
847,964	-0,47
848,394	-0,46
848,824	-0,49
849,253	-0,48
849,683	-0,48
850,112	-0,49
850,542	-0,52
850,972	-0,52
851,401	-0,5
851,831	-0,48
852,26	-0,49
852,69	-0,52
853,119	-0,52
853,548	-0,52
853,978	-0,53
854,407	-0,51
854,836	-0,52
855,266	-0,51
855,695	-0,52
856,124	-0,54
856,553	-0,54
856,983	-0,56
857,412	-0,55
857,841	-0,56
858,27	-0,57
858,699	-0,57
859,128	-0,6
859,557	-0,61
859,986	-0,62
860,415	-0,6
860,844	-0,58
861,273	-0,58
861,702	-0,58
862,13	-0,57
862,559	-0,58
862,988	-0,56
863,417	-0,56
863,845	-0,54
864,274	-0,55
864,703	-0,54
865,131	-0,54
865,56	-0,55
865,989	-0,58
866,417	-0,56
866,846	-0,57
867,274	-0,56
867,703	-0,59
868,131	-0,59
868,559	-0,59
868,988	-0,62
869,416	-0,61
869,844	-0,62
870,273	-0,64
870,701	-0,62
871,129	-0,65
871,557	-0,66
871,986	-0,65
872,414	-0,67
872,842	-0,64
873,27	-0,62
873,698	-0,59
874,126	-0,63
874,554	-0,61
874,982	-0,6
875,41	-0,63
875,838	-0,58
876,266	-0,56
876,694	-0,57
877,122	-0,56
877,549	-0,61
877,977	-0,59
878,405	-0,61
878,833	-0,58
879,26	-0,57
879,688	-0,57
880,116	-0,55
880,543	-0,54
880,971	-0,52
881,399	-0,55
881,826	-0,55
882,254	-0,54
882,681	-0,56
883,109	-0,54
883,536	-0,56
883,963	-0,58
884,391	-0,56
884,818	-0,54
885,245	-0,59
885,673	-0,6
886,1	-0,58
886,527	-0,57
886,954	-0,54
887,381	-0,56
887,809	-0,57
888,236	-0,58
888,663	-0,58
889,09	-0,63
889,517	-0,65
889,944	-0,64
890,371	-0,63
890,798	-0,63
891,225	-0,63
891,652	-0,66
892,078	-0,63
892,505	-0,66
892,932	-0,61
893,359	-0,63
893,786	-0,61
894,212	-0,58
894,639	-0,6
895,066	-0,62
895,492	-0,57
895,919	-0,57
896,346	-0,57
896,772	-0,57
897,199	-0,54
897,625	-0,57
898,052	-0,53
898,478	-0,52
898,904	-0,54
899,331	-0,53
899,757	-0,55
900,183	-0,57
900,61	-0,56
901,036	-0,56
901,462	-0,56
901,888	-0,55
902,315	-0,54
902,741	-0,6
903,167	-0,58
903,593	-0,6
904,019	-0,59
904,445	-0,55
904,871	-0,58
905,297	-0,6
905,723	-0,6
906,149	-0,59
906,575	-0,6
907,001	-0,59
907,427	-0,56
907,852	-0,55
908,278	-0,56
908,704	-0,54
909,13	-0,54
909,555	-0,53
909,981	-0,52
910,407	-0,52
910,832	-0,52
911,258	-0,52
911,684	-0,52
912,109	-0,52
912,535	-0,54
912,96	-0,5
913,386	-0,55
913,811	-0,54
914,236	-0,55
914,662	-0,53
915,087	-0,56
915,512	-0,56
915,938	-0,57
916,363	-0,56
916,788	-0,57
917,213	-0,55
917,639	-0,59
918,064	-0,56
918,489	-0,56
918,914	-0,57
919,339	-0,58
919,764	-0,56
920,189	-0,57
920,614	-0,59
921,039	-0,59
921,464	-0,54
921,889	-0,57
922,314	-0,59
922,738	-0,63
923,163	-0,64
923,588	-0,64
924,013	-0,63
924,437	-0,63
924,862	-0,64
925,287	-0,61
925,711	-0,63
926,136	-0,64
926,561	-0,61
926,985	-0,59
927,41	-0,56
927,834	-0,54
928,259	-0,51
928,683	-0,49
929,108	-0,46
929,532	-0,47
929,956	-0,46
930,381	-0,45
930,805	-0,45
931,229	-0,46
931,653	-0,45
932,078	-0,44
932,502	-0,45
932,926	-0,46
933,35	-0,45
933,774	-0,44
934,198	-0,43
934,622	-0,41
935,046	-0,41
935,47	-0,42
935,894	-0,41
936,318	-0,41
936,742	-0,41
937,166	-0,42
937,59	-0,42
938,014	-0,44
938,437	-0,45
938,861	-0,47
939,285	-0,48
939,709	-0,48
940,132	-0,49
940,556	-0,49
940,98	-0,48
941,403	-0,47
941,827	-0,47
942,25	-0,49
942,674	-0,47
943,097	-0,47
943,521	-0,46
943,944	-0,47
944,368	-0,46
944,791	-0,44
945,214	-0,47
945,638	-0,48
946,061	-0,52
946,484	-0,53
946,907	-0,51
947,331	-0,51
947,754	-0,55
948,177	-0,52
948,6	-0,52
949,023	-0,53
949,446	-0,53
949,869	-0,5
950,292	-0,5
950,715	-0,47
951,138	-0,45
951,561	-0,43
951,984	-0,43
952,407	-0,42
952,83	-0,4
953,252	-0,37
953,675	-0,36
954,098	-0,36
954,521	-0,36
954,943	-0,34
955,366	-0,35
955,789	-0,33
956,211	-0,34
956,634	-0,35
957,056	-0,33
957,479	-0,34
957,902	-0,36
958,324	-0,36
958,746	-0,34
959,169	-0,35
959,591	-0,36
960,014	-0,37
960,436	-0,37
960,858	-0,36
961,281	-0,36
961,703	-0,38
962,125	-0,38
962,547	-0,36
962,969	-0,37
963,391	-0,38
963,814	-0,38
964,236	-0,38
964,658	-0,33
965,08	-0,35
965,502	-0,35
965,924	-0,32
966,346	-0,32
966,768	-0,31
967,189	-0,33
967,611	-0,32
968,033	-0,31
968,455	-0,29
968,877	-0,3
969,298	-0,32
969,72	-0,32
970,142	-0,32
970,563	-0,32
970,985	-0,3
971,407	-0,29
971,828	-0,26
972,25	-0,26
972,671	-0,25
973,093	-0,24
973,514	-0,23
973,936	-0,21
974,357	-0,2
974,778	-0,2
975,2	-0,2
975,621	-0,19
976,042	-0,17
976,464	-0,17
976,885	-0,16
977,306	-0,15
977,727	-0,15
978,148	-0,14
978,57	-0,12
978,991	-0,1
979,412	-0,09
979,833	-0,07
980,254	-0,07
980,675	-0,07
981,096	-0,06
981,517	-0,04
981,937	-0,03
982,358	-0,02
982,779	0,01
983,2	0,01
983,621	0,01
984,042	0,03
984,462	0,04
984,883	0,06
985,304	0,07
985,724	0,08
986,145	0,09
986,565	0,11
986,986	0,12
987,407	0,12
987,827	0,14
988,248	0,15
988,668	0,16
989,088	0,17
989,509	0,19
989,929	0,2
990,35	0,22
990,77	0,23
991,19	0,24
991,61	0,26
992,031	0,27
992,451	0,28
992,871	0,29
993,291	0,3
993,711	0,31
994,131	0,32
994,551	0,33
994,971	0,34
995,391	0,34
995,811	0,35
996,231	0,36
996,651	0,36
997,071	0,37
997,491	0,38
997,911	0,38
998,331	0,4
998,75	0,4
999,17	0,41
999,59	0,41
1000,009	0,42
1000,429	0,43
1000,849	0,43
1001,268	0,44
1001,688	0,45
1002,107	0,45
1002,527	0,45
1002,946	0,45
1003,366	0,46
1003,785	0,46
1004,205	0,47
1004,624	0,47
1005,044	0,47
1005,463	0,48
1005,882	0,48
1006,301	0,48
1006,721	0,48
1007,14	0,48
1007,559	0,49
1007,978	0,49
1008,397	0,49
1008,816	0,49
1009,235	0,49
1009,655	0,49
1010,074	0,48
1010,492	0,48
1010,911	0,48
1011,33	0,48
1011,749	0,48
1012,168	0,48
1012,587	0,48
1013,006	0,48
1013,425	0,48
1013,843	0,48
1014,262	0,48
1014,681	0,48
1015,099	0,48
1015,518	0,48
1015,937	0,48
1016,355	0,48
1016,774	0,48
1017,192	0,48
1017,611	0,48
1018,029	0,48
1018,448	0,48
1018,866	0,48
1019,285	0,48
1019,703	0,48
1020,121	0,48
1020,54	0,48
1020,958	0,48
1021,376	0,48
1021,794	0,47
1022,213	0,47
1022,631	0,47
1023,049	0,47
1023,467	0,47
1023,885	0,47
1024,303	0,47
1024,721	0,47
1025,139	0,47
1025,557	0,47
1025,975	0,47
1026,393	0,46
1026,811	0,46
1027,229	0,46
1027,647	0,46
1028,065	0,46
1028,482	0,46
1028,9	0,46
1029,318	0,46
1029,735	0,46
1030,153	0,46
1030,571	0,46
1030,988	0,46
1031,406	0,46
1031,823	0,46
1032,241	0,46
1032,659	0,46
1033,076	0,46
1033,493	0,46
1033,911	0,46
1034,328	0,46
1034,746	0,46
1035,163	0,46
1035,58	0,46
1035,997	0,46
1036,415	0,46
1036,832	0,46
1037,249	0,46
1037,666	0,46
1038,083	0,46
1038,501	0,46
1038,918	0,46
1039,335	0,46
1039,752	0,46
1040,169	0,46
1040,586	0,46
1041,003	0,46
1041,419	0,46
1041,836	0,46
1042,253	0,46
1042,67	0,46
1043,087	0,46
1043,504	0,46
1043,92	0,46
1044,337	0,46
1044,754	0,46
1045,17	0,45
1045,587	0,45
1046,004	0,45
1046,42	0,45
1046,837	0,45
1047,253	0,45
1047,67	0,45
1048,086	0,45
1048,503	0,45
1048,919	0,45
1049,335	0,45
1049,752	0,45
1050,168	0,46
1050,584	0,46
1051,001	0,46
1051,417	0,46
1051,833	0,46
1052,249	0,46
1052,665	0,46
1053,081	0,46
1053,497	0,46
1053,914	0,46
1054,33	0,47
1054,746	0,47
1055,162	0,47
1055,578	0,47
1055,993	0,47
1056,409	0,47
1056,825	0,47
1057,241	0,47
1057,657	0,47
1058,073	0,47
1058,488	0,47
1058,904	0,47
1059,32	0,47
1059,736	0,47
1060,151	0,47
1060,567	0,47
1060,982	0,47
1061,398	0,47
1061,813	0,47
1062,229	0,47
1062,644	0,47
1063,06	0,47
1063,475	0,47
1063,891	0,47
1064,306	0,47
1064,721	0,47
1065,137	0,47
1065,552	0,47
1065,967	0,47
1066,382	0,47
1066,798	0,47
1067,213	0,47
1067,628	0,47
1068,043	0,47
1068,458	0,47
1068,873	0,46
1069,288	0,46
1069,703	0,46
1070,118	0,47
1070,533	0,47
1070,948	0,47
1071,363	0,47
1071,778	0,47
1072,193	0,47
1072,607	0,47
1073,022	0,47
1073,437	0,47
1073,852	0,47
1074,266	0,47
1074,681	0,47
1075,096	0,47
1075,51	0,47
1075,925	0,47
1076,339	0,47
1076,754	0,47
1077,168	0,47
1077,583	0,47
1077,997	0,47
1078,412	0,47
1078,826	0,46
1079,24	0,46
1079,655	0,46
1080,069	0,46
1080,483	0,46
1080,897	0,46
1081,312	0,46
1081,726	0,46
1082,14	0,46
1082,554	0,46
1082,968	0,45
1083,382	0,45
1083,796	0,45
1084,21	0,45
1084,624	0,45
1085,038	0,44
1085,452	0,44
1085,866	0,44
1086,28	0,44
1086,694	0,44
1087,108	0,44
1087,521	0,43
1087,935	0,43
1088,349	0,43
1088,763	0,43
1089,176	0,43
1089,59	0,43
1090,004	0,42
1090,417	0,42
1090,831	0,42
1091,244	0,41
1091,658	0,41
1092,071	0,41
1092,485	0,4
1092,898	0,4
1093,312	0,4
1093,725	0,4
1094,138	0,39
1094,552	0,39
1094,965	0,39
1095,378	0,38
1095,791	0,38
1096,205	0,38
1096,618	0,38
1097,031	0,38
1097,444	0,37
1097,857	0,37
1098,27	0,37
1098,683	0,36
1099,096	0,36
1099,509	0,36
1099,922	0,35
1100,335	0,35
1100,748	0,34
1101,161	0,34
1101,574	0,33
1101,986	0,33
1102,399	0,33
1102,812	0,32
1103,225	0,32
1103,637	0,32
1104,05	0,31
1104,463	0,32
1104,875	0,31
1105,288	0,31
1105,7	0,3
1106,113	0,29
1106,525	0,29
1106,938	0,28
1107,35	0,27
1107,763	0,27
1108,175	0,27
1108,588	0,26
1109	0,25
1109,412	0,25
1109,824	0,24
1110,237	0,25
1110,649	0,26
1111,061	0,25
