Data from 18C-808nm-8A-cont_Absorbance__15__01444.txt Node

Date: Mon Jul 17 17:17:13 CEST 2023
User: Laser008
Spectrometer: MAYP115816
Trigger mode: 0
Integration Time (sec): 2,500000E-1
Scans to average: 10
Electric dark correction enabled: true
Nonlinearity correction enabled: true
Boxcar width: 5
XAxis mode: Wavelengths
Number of Pixels in Spectrum: 2068
>>>>>Begin Spectral Data<<<<<
198,914	-0,72
199,384	-0,5
199,855	-0,36
200,325	-0,28
200,796	-0,25
201,266	-0,2
201,737	-0,18
202,207	-0,17
202,677	-0,16
203,147	-0,14
203,618	-0,11
204,088	-0,09
204,558	-0,07
205,028	-0,07
205,498	-0,08
205,968	-0,07
206,439	-0,09
206,909	-0,08
207,379	-0,08
207,849	-0,09
208,319	-0,1
208,789	-0,11
209,258	-0,11
209,728	-0,13
210,198	-0,12
210,668	-0,12
211,138	-0,12
211,608	-0,12
212,077	-0,12
212,547	-0,13
213,017	-0,14
213,486	-0,15
213,956	-0,15
214,426	-0,16
214,895	-0,16
215,365	-0,16
215,834	-0,17
216,304	-0,17
216,773	-0,18
217,243	-0,19
217,712	-0,2
218,181	-0,2
218,651	-0,19
219,12	-0,19
219,589	-0,19
220,058	-0,18
220,528	-0,19
220,997	-0,18
221,466	-0,2
221,935	-0,2
222,404	-0,2
222,873	-0,19
223,342	-0,18
223,812	-0,19
224,281	-0,19
224,749	-0,19
225,218	-0,2
225,687	-0,21
226,156	-0,2
226,625	-0,18
227,094	-0,17
227,563	-0,17
228,031	-0,19
228,5	-0,19
228,969	-0,2
229,438	-0,2
229,906	-0,19
230,375	-0,18
230,844	-0,17
231,312	-0,17
231,781	-0,18
232,249	-0,18
232,718	-0,18
233,186	-0,15
233,655	-0,15
234,123	-0,14
234,591	-0,14
235,06	-0,14
235,528	-0,15
235,996	-0,15
236,465	-0,15
236,933	-0,14
237,401	-0,14
237,869	-0,13
238,337	-0,13
238,805	-0,12
239,274	-0,11
239,742	-0,12
240,21	-0,12
240,678	-0,12
241,146	-0,11
241,614	-0,11
242,081	-0,11
242,549	-0,1
243,017	-0,11
243,485	-0,12
243,953	-0,12
244,421	-0,12
244,888	-0,11
245,356	-0,11
245,824	-0,11
246,291	-0,12
246,759	-0,12
247,227	-0,13
247,694	-0,12
248,162	-0,12
248,629	-0,1
249,097	-0,12
249,564	-0,12
250,032	-0,14
250,499	-0,14
250,967	-0,14
251,434	-0,14
251,901	-0,14
252,369	-0,14
252,836	-0,15
253,303	-0,16
253,77	-0,17
254,237	-0,16
254,705	-0,16
255,172	-0,15
255,639	-0,15
256,106	-0,16
256,573	-0,16
257,04	-0,16
257,507	-0,16
257,974	-0,16
258,441	-0,15
258,908	-0,15
259,375	-0,16
259,841	-0,17
260,308	-0,17
260,775	-0,17
261,242	-0,17
261,709	-0,17
262,175	-0,18
262,642	-0,17
263,109	-0,17
263,575	-0,18
264,042	-0,17
264,508	-0,16
264,975	-0,17
265,441	-0,18
265,908	-0,18
266,374	-0,17
266,841	-0,18
267,307	-0,17
267,773	-0,17
268,24	-0,17
268,706	-0,16
269,172	-0,17
269,639	-0,19
270,105	-0,17
270,571	-0,17
271,037	-0,18
271,503	-0,2
271,969	-0,19
272,435	-0,19
272,902	-0,21
273,368	-0,21
273,834	-0,22
274,3	-0,23
274,765	-0,23
275,231	-0,24
275,697	-0,23
276,163	-0,22
276,629	-0,22
277,095	-0,22
277,56	-0,22
278,026	-0,22
278,492	-0,21
278,958	-0,2
279,423	-0,2
279,889	-0,19
280,354	-0,19
280,82	-0,19
281,286	-0,2
281,751	-0,2
282,217	-0,2
282,682	-0,2
283,147	-0,21
283,613	-0,22
284,078	-0,22
284,544	-0,23
285,009	-0,24
285,474	-0,23
285,939	-0,24
286,405	-0,23
286,87	-0,22
287,335	-0,22
287,8	-0,21
288,265	-0,19
288,73	-0,2
289,195	-0,22
289,66	-0,23
290,125	-0,21
290,59	-0,21
291,055	-0,2
291,52	-0,2
291,985	-0,22
292,45	-0,23
292,915	-0,23
293,38	-0,24
293,844	-0,22
294,309	-0,2
294,774	-0,19
295,239	-0,2
295,703	-0,2
296,168	-0,2
296,632	-0,19
297,097	-0,17
297,562	-0,15
298,026	-0,17
298,491	-0,17
298,955	-0,17
299,419	-0,16
299,884	-0,16
300,348	-0,16
300,813	-0,16
301,277	-0,17
301,741	-0,17
302,205	-0,17
302,67	-0,16
303,134	-0,15
303,598	-0,15
304,062	-0,14
304,526	-0,14
304,99	-0,15
305,454	-0,15
305,919	-0,14
306,383	-0,13
306,847	-0,13
307,31	-0,14
307,774	-0,15
308,238	-0,15
308,702	-0,15
309,166	-0,16
309,63	-0,16
310,094	-0,13
310,557	-0,13
311,021	-0,13
311,485	-0,13
311,948	-0,13
312,412	-0,13
312,876	-0,12
313,339	-0,12
313,803	-0,13
314,266	-0,11
314,73	-0,12
315,193	-0,12
315,657	-0,11
316,12	-0,11
316,584	-0,1
317,047	-0,09
317,51	-0,08
317,973	-0,08
318,437	-0,08
318,9	-0,06
319,363	-0,06
319,826	-0,04
320,29	-0,05
320,753	-0,05
321,216	-0,05
321,679	-0,05
322,142	-0,05
322,605	-0,06
323,068	-0,06
323,531	-0,06
323,994	-0,06
324,457	-0,06
324,92	-0,05
325,382	-0,05
325,845	-0,04
326,308	-0,04
326,771	-0,03
327,233	-0,02
327,696	-0,02
328,159	-0,01
328,622	0
329,084	0
329,547	0,01
330,009	0
330,472	0,01
330,934	0,02
331,397	0,02
331,859	0,03
332,322	0,03
332,784	0,03
333,246	0,03
333,709	0,03
334,171	0,04
334,633	0,04
335,096	0,04
335,558	0,04
336,02	0,03
336,482	0,03
336,944	0,04
337,406	0,04
337,868	0,05
338,331	0,04
338,793	0,05
339,255	0,05
339,717	0,06
340,178	0,06
340,64	0,07
341,102	0,08
341,564	0,09
342,026	0,11
342,488	0,12
342,949	0,13
343,411	0,15
343,873	0,18
344,335	0,2
344,796	0,23
345,258	0,27
345,719	0,3
346,181	0,34
346,643	0,36
347,104	0,39
347,566	0,42
348,027	0,43
348,488	0,45
348,95	0,47
349,411	0,48
349,873	0,5
350,334	0,51
350,795	0,52
351,256	0,53
351,718	0,53
352,179	0,54
352,64	0,54
353,101	0,54
353,562	0,54
354,023	0,54
354,484	0,54
354,945	0,54
355,406	0,55
355,867	0,55
356,328	0,55
356,789	0,56
357,25	0,56
357,711	0,56
358,172	0,56
358,633	0,56
359,093	0,56
359,554	0,56
360,015	0,56
360,476	0,56
360,936	0,56
361,397	0,56
361,858	0,56
362,318	0,56
362,779	0,56
363,239	0,56
363,7	0,56
364,16	0,56
364,621	0,56
365,081	0,56
365,541	0,56
366,002	0,56
366,462	0,56
366,922	0,56
367,383	0,56
367,843	0,56
368,303	0,56
368,763	0,56
369,223	0,56
369,684	0,56
370,144	0,56
370,604	0,56
371,064	0,56
371,524	0,56
371,984	0,56
372,444	0,56
372,904	0,56
373,363	0,56
373,823	0,56
374,283	0,56
374,743	0,56
375,203	0,56
375,663	0,56
376,122	0,56
376,582	0,56
377,042	0,56
377,501	0,56
377,961	0,56
378,42	0,56
378,88	0,56
379,34	0,56
379,799	0,56
380,259	0,56
380,718	0,56
381,177	0,55
381,637	0,55
382,096	0,55
382,555	0,55
383,015	0,55
383,474	0,55
383,933	0,55
384,393	0,55
384,852	0,55
385,311	0,55
385,77	0,55
386,229	0,55
386,688	0,55
387,147	0,55
387,606	0,55
388,065	0,55
388,524	0,55
388,983	0,55
389,442	0,55
389,901	0,55
390,36	0,55
390,819	0,55
391,277	0,55
391,736	0,55
392,195	0,55
392,654	0,55
393,112	0,55
393,571	0,54
394,03	0,54
394,488	0,54
394,947	0,54
395,405	0,54
395,864	0,54
396,322	0,54
396,781	0,54
397,239	0,54
397,698	0,54
398,156	0,54
398,614	0,54
399,073	0,54
399,531	0,54
399,989	0,54
400,447	0,54
400,905	0,54
401,364	0,54
401,822	0,54
402,28	0,54
402,738	0,54
403,196	0,54
403,654	0,54
404,112	0,54
404,57	0,54
405,028	0,54
405,486	0,54
405,944	0,54
406,402	0,54
406,859	0,54
407,317	0,54
407,775	0,54
408,233	0,54
408,691	0,54
409,148	0,54
409,606	0,54
410,064	0,54
410,521	0,54
410,979	0,54
411,436	0,54
411,894	0,54
412,351	0,54
412,809	0,53
413,266	0,53
413,724	0,53
414,181	0,53
414,638	0,53
415,096	0,53
415,553	0,53
416,01	0,53
416,467	0,53
416,925	0,53
417,382	0,53
417,839	0,53
418,296	0,53
418,753	0,53
419,21	0,53
419,667	0,53
420,124	0,53
420,581	0,53
421,038	0,53
421,495	0,53
421,952	0,53
422,409	0,53
422,866	0,53
423,322	0,53
423,779	0,53
424,236	0,53
424,693	0,53
425,149	0,53
425,606	0,53
426,063	0,53
426,519	0,53
426,976	0,53
427,433	0,53
427,889	0,53
428,346	0,53
428,802	0,53
429,258	0,53
429,715	0,53
430,171	0,53
430,628	0,53
431,084	0,53
431,54	0,53
431,997	0,53
432,453	0,53
432,909	0,53
433,365	0,53
433,821	0,53
434,277	0,53
434,734	0,53
435,19	0,53
435,646	0,53
436,102	0,53
436,558	0,53
437,014	0,53
437,47	0,53
437,925	0,53
438,381	0,53
438,837	0,53
439,293	0,53
439,749	0,53
440,205	0,53
440,66	0,53
441,116	0,53
441,572	0,53
442,027	0,53
442,483	0,53
442,939	0,53
443,394	0,53
443,85	0,53
444,305	0,53
444,761	0,53
445,216	0,53
445,672	0,53
446,127	0,53
446,582	0,53
447,038	0,53
447,493	0,53
447,948	0,53
448,403	0,53
448,859	0,53
449,314	0,53
449,769	0,53
450,224	0,53
450,679	0,53
451,134	0,53
451,589	0,53
452,044	0,53
452,499	0,53
452,954	0,53
453,409	0,53
453,864	0,53
454,319	0,53
454,774	0,53
455,229	0,53
455,684	0,53
456,138	0,53
456,593	0,53
457,048	0,53
457,503	0,53
457,957	0,53
458,412	0,53
458,866	0,53
459,321	0,53
459,776	0,53
460,23	0,53
460,685	0,53
461,139	0,53
461,593	0,53
462,048	0,54
462,502	0,54
462,957	0,54
463,411	0,54
463,865	0,54
464,319	0,54
464,774	0,54
465,228	0,54
465,682	0,54
466,136	0,54
466,59	0,54
467,044	0,54
467,499	0,54
467,953	0,54
468,407	0,54
468,861	0,54
469,315	0,54
469,768	0,54
470,222	0,55
470,676	0,55
471,13	0,55
471,584	0,55
472,038	0,55
472,491	0,55
472,945	0,55
473,399	0,55
473,852	0,55
474,306	0,55
474,76	0,55
475,213	0,55
475,667	0,55
476,12	0,55
476,574	0,55
477,027	0,56
477,481	0,56
477,934	0,56
478,388	0,56
478,841	0,56
479,294	0,56
479,748	0,56
480,201	0,56
480,654	0,57
481,107	0,57
481,561	0,57
482,014	0,57
482,467	0,57
482,92	0,57
483,373	0,57
483,826	0,58
484,279	0,58
484,732	0,58
485,185	0,58
485,638	0,58
486,091	0,58
486,544	0,58
486,997	0,59
487,449	0,59
487,902	0,59
488,355	0,59
488,808	0,59
489,26	0,59
489,713	0,6
490,166	0,6
490,618	0,6
491,071	0,6
491,523	0,61
491,976	0,61
492,429	0,61
492,881	0,61
493,333	0,61
493,786	0,62
494,238	0,62
494,691	0,62
495,143	0,62
495,595	0,63
496,048	0,63
496,5	0,63
496,952	0,63
497,404	0,64
497,856	0,64
498,309	0,64
498,761	0,64
499,213	0,65
499,665	0,65
500,117	0,65
500,569	0,66
501,021	0,66
501,473	0,66
501,925	0,67
502,377	0,67
502,828	0,67
503,28	0,68
503,732	0,68
504,184	0,68
504,636	0,68
505,087	0,69
505,539	0,69
505,991	0,69
506,442	0,7
506,894	0,7
507,345	0,7
507,797	0,7
508,249	0,71
508,7	0,71
509,151	0,71
509,603	0,72
510,054	0,72
510,506	0,72
510,957	0,73
511,408	0,73
511,86	0,73
512,311	0,74
512,762	0,74
513,213	0,74
513,665	0,74
514,116	0,75
514,567	0,75
515,018	0,75
515,469	0,75
515,92	0,76
516,371	0,76
516,822	0,76
517,273	0,76
517,724	0,77
518,175	0,77
518,626	0,77
519,076	0,77
519,527	0,77
519,978	0,78
520,429	0,78
520,88	0,78
521,33	0,78
521,781	0,78
522,232	0,78
522,682	0,79
523,133	0,79
523,583	0,79
524,034	0,79
524,484	0,79
524,935	0,79
525,385	0,79
525,836	0,79
526,286	0,79
526,736	0,79
527,187	0,79
527,637	0,79
528,087	0,79
528,538	0,79
528,988	0,79
529,438	0,79
529,888	0,79
530,338	0,79
530,788	0,79
531,238	0,79
531,688	0,79
532,139	0,78
532,589	0,78
533,038	0,78
533,488	0,78
533,938	0,78
534,388	0,78
534,838	0,78
535,288	0,77
535,738	0,77
536,187	0,77
536,637	0,77
537,087	0,77
537,537	0,76
537,986	0,76
538,436	0,76
538,885	0,75
539,335	0,75
539,785	0,75
540,234	0,74
540,684	0,74
541,133	0,74
541,582	0,73
542,032	0,73
542,481	0,73
542,931	0,72
543,38	0,72
543,829	0,72
544,278	0,71
544,728	0,71
545,177	0,71
545,626	0,7
546,075	0,7
546,524	0,7
546,973	0,69
547,422	0,69
547,871	0,69
548,32	0,69
548,769	0,68
549,218	0,68
549,667	0,68
550,116	0,68
550,565	0,67
551,014	0,67
551,463	0,67
551,911	0,66
552,36	0,66
552,809	0,66
553,258	0,65
553,706	0,65
554,155	0,65
554,603	0,65
555,052	0,64
555,501	0,64
555,949	0,64
556,398	0,63
556,846	0,63
557,294	0,63
557,743	0,62
558,191	0,62
558,64	0,62
559,088	0,61
559,536	0,61
559,985	0,61
560,433	0,6
560,881	0,6
561,329	0,6
561,777	0,59
562,225	0,59
562,674	0,59
563,122	0,59
563,57	0,58
564,018	0,58
564,466	0,58
564,914	0,57
565,362	0,57
565,809	0,57
566,257	0,56
566,705	0,56
567,153	0,56
567,601	0,56
568,048	0,55
568,496	0,55
568,944	0,55
569,392	0,55
569,839	0,54
570,287	0,54
570,734	0,54
571,182	0,54
571,63	0,53
572,077	0,53
572,525	0,53
572,972	0,52
573,419	0,52
573,867	0,52
574,314	0,52
574,761	0,51
575,209	0,51
575,656	0,51
576,103	0,51
576,551	0,51
576,998	0,5
577,445	0,5
577,892	0,5
578,339	0,5
578,786	0,5
579,233	0,49
579,68	0,49
580,127	0,49
580,574	0,49
581,021	0,49
581,468	0,48
581,915	0,48
582,362	0,48
582,809	0,48
583,255	0,48
583,702	0,48
584,149	0,47
584,596	0,47
585,042	0,47
585,489	0,47
585,936	0,47
586,382	0,47
586,829	0,46
587,275	0,46
587,722	0,46
588,168	0,46
588,615	0,46
589,061	0,46
589,508	0,45
589,954	0,45
590,4	0,45
590,847	0,45
591,293	0,45
591,739	0,45
592,185	0,45
592,632	0,45
593,078	0,44
593,524	0,44
593,97	0,44
594,416	0,44
594,862	0,44
595,308	0,44
595,754	0,44
596,2	0,44
596,646	0,44
597,092	0,44
597,538	0,43
597,984	0,43
598,43	0,43
598,876	0,43
599,321	0,43
599,767	0,43
600,213	0,43
600,659	0,43
601,104	0,43
601,55	0,43
601,995	0,42
602,441	0,42
602,887	0,42
603,332	0,42
603,778	0,42
604,223	0,42
604,668	0,42
605,114	0,42
605,559	0,42
606,005	0,42
606,45	0,42
606,895	0,42
607,341	0,42
607,786	0,41
608,231	0,41
608,676	0,41
609,121	0,41
609,566	0,4
610,012	0,4
610,457	0,4
610,902	0,39
611,347	0,39
611,792	0,39
612,237	0,39
612,682	0,39
613,127	0,39
613,571	0,39
614,016	0,39
614,461	0,39
614,906	0,39
615,351	0,39
615,795	0,39
616,24	0,39
616,685	0,39
617,129	0,39
617,574	0,39
618,019	0,39
618,463	0,39
618,908	0,39
619,352	0,39
619,797	0,39
620,241	0,39
620,686	0,39
621,13	0,39
621,574	0,39
622,019	0,39
622,463	0,39
622,907	0,39
623,352	0,39
623,796	0,39
624,24	0,39
624,684	0,39
625,128	0,39
625,572	0,38
626,016	0,39
626,461	0,39
626,905	0,38
627,349	0,38
627,793	0,38
628,236	0,38
628,68	0,38
629,124	0,38
629,568	0,38
630,012	0,38
630,456	0,38
630,9	0,38
631,343	0,38
631,787	0,38
632,231	0,38
632,674	0,38
633,118	0,38
633,562	0,38
634,005	0,38
634,449	0,38
634,892	0,38
635,336	0,38
635,779	0,38
636,223	0,38
636,666	0,38
637,109	0,38
637,553	0,38
637,996	0,38
638,439	0,38
638,883	0,38
639,326	0,37
639,769	0,37
640,212	0,37
640,655	0,37
641,099	0,37
641,542	0,37
641,985	0,37
642,428	0,37
642,871	0,37
643,314	0,37
643,757	0,37
644,2	0,37
644,643	0,37
645,085	0,37
645,528	0,37
645,971	0,37
646,414	0,37
646,857	0,37
647,299	0,37
647,742	0,37
648,185	0,37
648,627	0,37
649,07	0,37
649,513	0,37
649,955	0,37
650,398	0,37
650,84	0,37
651,283	0,37
651,725	0,37
652,168	0,37
652,61	0,37
653,052	0,37
653,495	0,36
653,937	0,29
654,379	0,23
654,821	0,24
655,264	0,24
655,706	0,24
656,148	0,24
656,59	0,24
657,032	0,24
657,474	0,24
657,916	0,24
658,358	0,23
658,8	0,29
659,242	0,36
659,684	0,36
660,126	0,36
660,568	0,36
661,01	0,36
661,452	0,36
661,894	0,36
662,335	0,36
662,777	0,36
663,219	0,36
663,661	0,36
664,102	0,36
664,544	0,36
664,985	0,36
665,427	0,36
665,869	0,36
666,31	0,36
666,752	0,36
667,193	0,36
667,634	0,36
668,076	0,36
668,517	0,36
668,959	0,36
669,4	0,36
669,841	0,36
670,282	0,36
670,724	0,36
671,165	0,36
671,606	0,36
672,047	0,36
672,488	0,36
672,929	0,36
673,37	0,36
673,811	0,36
674,252	0,36
674,693	0,36
675,134	0,35
675,575	0,35
676,016	0,35
676,457	0,35
676,898	0,35
677,339	0,35
677,78	0,35
678,22	0,35
678,661	0,35
679,102	0,35
679,542	0,35
679,983	0,35
680,424	0,35
680,864	0,35
681,305	0,35
681,745	0,35
682,186	0,35
682,626	0,35
683,067	0,35
683,507	0,35
683,948	0,35
684,388	0,35
684,828	0,35
685,269	0,35
685,709	0,35
686,149	0,35
686,589	0,35
687,029	0,35
687,47	0,34
687,91	0,34
688,35	0,34
688,79	0,34
689,23	0,34
689,67	0,34
690,11	0,34
690,55	0,34
690,99	0,34
691,43	0,34
691,87	0,34
692,31	0,34
692,749	0,34
693,189	0,34
693,629	0,34
694,069	0,34
694,508	0,34
694,948	0,34
695,388	0,34
695,827	0,34
696,267	0,34
696,706	0,34
697,146	0,34
697,586	0,34
698,025	0,34
698,464	0,34
698,904	0,35
699,343	0,35
699,783	0,35
700,222	0,35
700,661	0,35
701,101	0,35
701,54	0,35
701,979	0,35
702,418	0,35
702,857	0,35
703,297	0,34
703,736	0,34
704,175	0,34
704,614	0,34
705,053	0,34
705,492	0,34
705,931	0,34
706,37	0,34
706,809	0,34
707,248	0,34
707,687	0,34
708,125	0,34
708,564	0,34
709,003	0,34
709,442	0,34
709,88	0,34
710,319	0,34
710,758	0,34
711,196	0,33
711,635	0,33
712,074	0,33
712,512	0,33
712,951	0,33
713,389	0,33
713,828	0,33
714,266	0,33
714,705	0,33
715,143	0,33
715,581	0,33
716,02	0,33
716,458	0,33
716,896	0,33
717,334	0,33
717,773	0,33
718,211	0,33
718,649	0,33
719,087	0,33
719,525	0,33
719,963	0,33
720,401	0,33
720,839	0,33
721,277	0,33
721,715	0,33
722,153	0,33
722,591	0,33
723,029	0,33
723,467	0,33
723,905	0,33
724,342	0,33
724,78	0,33
725,218	0,33
725,656	0,33
726,093	0,33
726,531	0,33
726,969	0,33
727,406	0,33
727,844	0,33
728,281	0,33
728,719	0,33
729,156	0,33
729,594	0,33
730,031	0,33
730,469	0,32
730,906	0,32
731,343	0,32
731,781	0,32
732,218	0,32
732,655	0,32
733,092	0,32
733,53	0,32
733,967	0,32
734,404	0,32
734,841	0,32
735,278	0,32
735,715	0,32
736,152	0,32
736,589	0,32
737,026	0,32
737,463	0,32
737,9	0,32
738,337	0,32
738,774	0,32
739,211	0,32
739,647	0,32
740,084	0,32
740,521	0,32
740,958	0,32
741,394	0,32
741,831	0,32
742,268	0,31
742,704	0,31
743,141	0,31
743,577	0,31
744,014	0,31
744,45	0,31
744,887	0,31
745,323	0,31
745,76	0,3
746,196	0,3
746,632	0,3
747,069	0,3
747,505	0,3
747,941	0,3
748,378	0,3
748,814	0,3
749,25	0,31
749,686	0,31
750,122	0,31
750,558	0,31
750,994	0,31
751,43	0,31
751,866	0,32
752,302	0,32
752,738	0,32
753,174	0,32
753,61	0,32
754,046	0,32
754,482	0,32
754,918	0,32
755,354	0,32
755,789	0,32
756,225	0,32
756,661	0,32
757,096	0,32
757,532	0,32
757,968	0,31
758,403	0,31
758,839	0,31
759,274	0,31
759,71	0,3
760,145	0,3
760,581	0,29
761,016	0,29
761,452	0,29
761,887	0,28
762,322	0,28
762,758	0,28
763,193	0,28
763,628	0,27
764,063	0,27
764,499	0,26
764,934	0,25
765,369	0,25
765,804	0,24
766,239	0,24
766,674	0,23
767,109	0,23
767,544	0,22
767,979	0,21
768,414	0,2
768,849	0,2
769,284	0,19
769,719	0,19
770,154	0,18
770,588	0,17
771,023	0,16
771,458	0,15
771,893	0,14
772,327	0,13
772,762	0,13
773,197	0,12
773,631	0,11
774,066	0,1
774,5	0,1
774,935	0,08
775,369	0,08
775,804	0,07
776,238	0,06
776,673	0,05
777,107	0,04
777,541	0,04
777,976	0,02
778,41	0,02
778,844	0,01
779,279	0,01
779,713	0
780,147	-0,01
780,581	-0,01
781,015	-0,02
781,449	-0,03
781,883	-0,04
782,317	-0,05
782,751	-0,06
783,185	-0,07
783,619	-0,08
784,053	-0,09
784,487	-0,09
784,921	-0,1
785,355	-0,1
785,789	-0,12
786,223	-0,13
786,656	-0,14
787,09	-0,15
787,524	-0,16
787,957	-0,17
788,391	-0,18
788,825	-0,2
789,258	-0,21
789,692	-0,23
790,125	-0,24
790,559	-0,26
790,992	-0,27
791,426	-0,3
791,859	-0,31
792,293	-0,34
792,726	-0,35
793,159	-0,37
793,593	-0,39
794,026	-0,41
794,459	-0,44
794,892	-0,47
795,326	-0,49
795,759	-0,53
796,192	-0,57
796,625	-0,61
797,058	-0,64
797,491	-0,68
797,924	-0,72
798,357	-0,77
798,79	-0,81
799,223	-0,85
799,656	-0,91
800,089	-0,95
800,522	-0,99
800,955	-1,04
801,387	-1,09
801,82	-1,15
802,253	-1,21
802,686	-1,29
803,118	-1,34
803,551	-1,4
803,984	-1,44
804,416	-1,48
804,849	-1,51
805,281	-1,63
805,714	-1,98
806,146	-2,44
806,579	-2,71
807,011	-2,87
807,444	-2,96
807,876	-3,05
808,308	-3,09
808,741	-3,12
809,173	-3,17
809,605	-3,19
810,037	-3,27
810,47	-3,19
810,902	-2,99
811,334	-2,85
811,766	-2,69
812,198	-2,46
812,63	-2,04
813,062	-1,8
813,494	-1,7
813,926	-1,61
814,358	-1,56
814,79	-1,48
815,222	-1,42
815,654	-1,37
816,086	-1,3
816,518	-1,25
816,949	-1,19
817,381	-1,15
817,813	-1,13
818,245	-1,09
818,676	-1,06
819,108	-1,02
819,54	-1,01
819,971	-0,98
820,403	-0,93
820,834	-0,92
821,266	-0,88
821,697	-0,85
822,129	-0,83
822,56	-0,81
822,991	-0,78
823,423	-0,76
823,854	-0,75
824,286	-0,72
824,717	-0,71
825,148	-0,69
825,579	-0,68
826,01	-0,67
826,442	-0,66
826,873	-0,64
827,304	-0,61
827,735	-0,6
828,166	-0,61
828,597	-0,6
829,028	-0,6
829,459	-0,6
829,89	-0,6
830,321	-0,55
830,752	-0,56
831,183	-0,55
831,613	-0,55
832,044	-0,54
832,475	-0,53
832,906	-0,54
833,336	-0,54
833,767	-0,55
834,198	-0,54
834,628	-0,53
835,059	-0,56
835,49	-0,56
835,92	-0,53
836,351	-0,54
836,781	-0,54
837,212	-0,55
837,642	-0,55
838,072	-0,54
838,503	-0,54
838,933	-0,51
839,364	-0,51
839,794	-0,5
840,224	-0,49
840,654	-0,54
841,085	-0,54
841,515	-0,51
841,945	-0,52
842,375	-0,48
842,805	-0,47
843,235	-0,45
843,665	-0,47
844,095	-0,46
844,525	-0,48
844,955	-0,47
845,385	-0,45
845,815	-0,44
846,245	-0,47
846,675	-0,48
847,105	-0,49
847,534	-0,49
847,964	-0,47
848,394	-0,46
848,824	-0,49
849,253	-0,48
849,683	-0,49
850,112	-0,5
850,542	-0,54
850,972	-0,54
851,401	-0,52
851,831	-0,5
852,26	-0,5
852,69	-0,54
853,119	-0,53
853,548	-0,54
853,978	-0,54
854,407	-0,52
854,836	-0,51
855,266	-0,5
855,695	-0,51
856,124	-0,52
856,553	-0,53
856,983	-0,55
857,412	-0,54
857,841	-0,55
858,27	-0,55
858,699	-0,56
859,128	-0,59
859,557	-0,6
859,986	-0,61
860,415	-0,59
860,844	-0,56
861,273	-0,57
861,702	-0,57
862,13	-0,56
862,559	-0,58
862,988	-0,55
863,417	-0,55
863,845	-0,53
864,274	-0,54
864,703	-0,54
865,131	-0,55
865,56	-0,55
865,989	-0,58
866,417	-0,55
866,846	-0,55
867,274	-0,54
867,703	-0,56
868,131	-0,58
868,559	-0,58
868,988	-0,6
869,416	-0,58
869,844	-0,58
870,273	-0,62
870,701	-0,6
871,129	-0,63
871,557	-0,66
871,986	-0,66
872,414	-0,67
872,842	-0,64
873,27	-0,62
873,698	-0,59
874,126	-0,64
874,554	-0,63
874,982	-0,62
875,41	-0,65
875,838	-0,6
876,266	-0,58
876,694	-0,57
877,122	-0,57
877,549	-0,61
877,977	-0,59
878,405	-0,61
878,833	-0,58
879,26	-0,56
879,688	-0,56
880,116	-0,54
880,543	-0,53
880,971	-0,52
881,399	-0,56
881,826	-0,57
882,254	-0,55
882,681	-0,59
883,109	-0,55
883,536	-0,56
883,963	-0,59
884,391	-0,56
884,818	-0,55
885,245	-0,59
885,673	-0,6
886,1	-0,57
886,527	-0,56
886,954	-0,53
887,381	-0,55
887,809	-0,56
888,236	-0,57
888,663	-0,56
889,09	-0,6
889,517	-0,63
889,944	-0,62
890,371	-0,62
890,798	-0,62
891,225	-0,62
891,652	-0,65
892,078	-0,62
892,505	-0,65
892,932	-0,61
893,359	-0,62
893,786	-0,62
894,212	-0,58
894,639	-0,59
895,066	-0,62
895,492	-0,56
895,919	-0,57
896,346	-0,57
896,772	-0,57
897,199	-0,53
897,625	-0,55
898,052	-0,51
898,478	-0,5
898,904	-0,51
899,331	-0,51
899,757	-0,53
900,183	-0,54
900,61	-0,52
901,036	-0,54
901,462	-0,54
901,888	-0,54
902,315	-0,53
902,741	-0,58
903,167	-0,56
903,593	-0,59
904,019	-0,58
904,445	-0,55
904,871	-0,58
905,297	-0,6
905,723	-0,58
906,149	-0,57
906,575	-0,58
907,001	-0,58
907,427	-0,55
907,852	-0,55
908,278	-0,55
908,704	-0,53
909,13	-0,52
909,555	-0,51
909,981	-0,5
910,407	-0,51
910,832	-0,51
911,258	-0,51
911,684	-0,52
912,109	-0,52
912,535	-0,53
912,96	-0,49
913,386	-0,52
913,811	-0,52
914,236	-0,53
914,662	-0,51
915,087	-0,55
915,512	-0,55
915,938	-0,57
916,363	-0,56
916,788	-0,58
917,213	-0,56
917,639	-0,61
918,064	-0,6
918,489	-0,59
918,914	-0,6
919,339	-0,61
919,764	-0,58
920,189	-0,59
920,614	-0,61
921,039	-0,6
921,464	-0,56
921,889	-0,59
922,314	-0,59
922,738	-0,62
923,163	-0,65
923,588	-0,64
924,013	-0,64
924,437	-0,64
924,862	-0,64
925,287	-0,59
925,711	-0,61
926,136	-0,63
926,561	-0,62
926,985	-0,6
927,41	-0,58
927,834	-0,55
928,259	-0,52
928,683	-0,5
929,108	-0,48
929,532	-0,49
929,956	-0,48
930,381	-0,46
930,805	-0,46
931,229	-0,46
931,653	-0,44
932,078	-0,44
932,502	-0,45
932,926	-0,47
933,35	-0,46
933,774	-0,45
934,198	-0,43
934,622	-0,42
935,046	-0,42
935,47	-0,43
935,894	-0,43
936,318	-0,43
936,742	-0,43
937,166	-0,43
937,59	-0,43
938,014	-0,44
938,437	-0,45
938,861	-0,47
939,285	-0,49
939,709	-0,49
940,132	-0,48
940,556	-0,49
940,98	-0,48
941,403	-0,46
941,827	-0,46
942,25	-0,48
942,674	-0,47
943,097	-0,46
943,521	-0,46
943,944	-0,47
944,368	-0,45
944,791	-0,44
945,214	-0,46
945,638	-0,47
946,061	-0,5
946,484	-0,51
946,907	-0,5
947,331	-0,5
947,754	-0,54
948,177	-0,52
948,6	-0,52
949,023	-0,52
949,446	-0,51
949,869	-0,49
950,292	-0,49
950,715	-0,46
951,138	-0,45
951,561	-0,43
951,984	-0,43
952,407	-0,41
952,83	-0,4
953,252	-0,36
953,675	-0,36
954,098	-0,38
954,521	-0,37
954,943	-0,37
955,366	-0,38
955,789	-0,36
956,211	-0,38
956,634	-0,38
957,056	-0,36
957,479	-0,36
957,902	-0,39
958,324	-0,39
958,746	-0,37
959,169	-0,37
959,591	-0,37
960,014	-0,38
960,436	-0,38
960,858	-0,38
961,281	-0,38
961,703	-0,38
962,125	-0,38
962,547	-0,36
962,969	-0,36
963,391	-0,37
963,814	-0,38
964,236	-0,37
964,658	-0,34
965,08	-0,35
965,502	-0,35
965,924	-0,32
966,346	-0,33
966,768	-0,31
967,189	-0,33
967,611	-0,33
968,033	-0,32
968,455	-0,3
968,877	-0,3
969,298	-0,31
969,72	-0,32
970,142	-0,31
970,563	-0,32
970,985	-0,3
971,407	-0,3
971,828	-0,28
972,25	-0,27
972,671	-0,26
973,093	-0,26
973,514	-0,25
973,936	-0,23
974,357	-0,22
974,778	-0,23
975,2	-0,23
975,621	-0,23
976,042	-0,21
976,464	-0,21
976,885	-0,2
977,306	-0,2
977,727	-0,19
978,148	-0,18
978,57	-0,17
978,991	-0,15
979,412	-0,13
979,833	-0,12
980,254	-0,11
980,675	-0,11
981,096	-0,1
981,517	-0,08
981,937	-0,07
982,358	-0,06
982,779	-0,04
983,2	-0,04
983,621	-0,04
984,042	-0,03
984,462	-0,03
984,883	-0,01
985,304	-0
985,724	0
986,145	0,01
986,565	0,03
986,986	0,03
987,407	0,04
987,827	0,05
988,248	0,06
988,668	0,07
989,088	0,08
989,509	0,09
989,929	0,1
990,35	0,11
990,77	0,12
991,19	0,13
991,61	0,14
992,031	0,15
992,451	0,16
992,871	0,16
993,291	0,17
993,711	0,18
994,131	0,19
994,551	0,19
994,971	0,2
995,391	0,21
995,811	0,21
996,231	0,21
996,651	0,22
997,071	0,22
997,491	0,23
997,911	0,23
998,331	0,24
998,75	0,24
999,17	0,24
999,59	0,25
1000,009	0,25
1000,429	0,26
1000,849	0,26
1001,268	0,26
1001,688	0,27
1002,107	0,27
1002,527	0,27
1002,946	0,27
1003,366	0,27
1003,785	0,28
1004,205	0,28
1004,624	0,28
1005,044	0,28
1005,463	0,28
1005,882	0,29
1006,301	0,29
1006,721	0,29
1007,14	0,29
1007,559	0,29
1007,978	0,29
1008,397	0,29
1008,816	0,29
1009,235	0,29
1009,655	0,29
1010,074	0,29
1010,492	0,29
1010,911	0,29
1011,33	0,28
1011,749	0,28
1012,168	0,28
1012,587	0,28
1013,006	0,28
1013,425	0,28
1013,843	0,28
1014,262	0,28
1014,681	0,28
1015,099	0,28
1015,518	0,28
1015,937	0,28
1016,355	0,28
1016,774	0,28
1017,192	0,28
1017,611	0,28
1018,029	0,28
1018,448	0,28
1018,866	0,28
1019,285	0,28
1019,703	0,28
1020,121	0,28
1020,54	0,28
1020,958	0,28
1021,376	0,28
1021,794	0,28
1022,213	0,28
1022,631	0,28
1023,049	0,28
1023,467	0,28
1023,885	0,28
1024,303	0,28
1024,721	0,27
1025,139	0,27
1025,557	0,27
1025,975	0,27
1026,393	0,27
1026,811	0,27
1027,229	0,27
1027,647	0,27
1028,065	0,27
1028,482	0,27
1028,9	0,27
1029,318	0,27
1029,735	0,27
1030,153	0,27
1030,571	0,27
1030,988	0,27
1031,406	0,27
1031,823	0,27
1032,241	0,27
1032,659	0,27
1033,076	0,27
1033,493	0,27
1033,911	0,27
1034,328	0,27
1034,746	0,27
1035,163	0,27
1035,58	0,27
1035,997	0,27
1036,415	0,27
1036,832	0,27
1037,249	0,27
1037,666	0,27
1038,083	0,27
1038,501	0,27
1038,918	0,27
1039,335	0,27
1039,752	0,27
1040,169	0,27
1040,586	0,27
1041,003	0,27
1041,419	0,27
1041,836	0,27
1042,253	0,26
1042,67	0,26
1043,087	0,26
1043,504	0,26
1043,92	0,26
1044,337	0,26
1044,754	0,26
1045,17	0,26
1045,587	0,26
1046,004	0,26
1046,42	0,26
1046,837	0,26
1047,253	0,26
1047,67	0,26
1048,086	0,26
1048,503	0,26
1048,919	0,26
1049,335	0,26
1049,752	0,26
1050,168	0,26
1050,584	0,26
1051,001	0,26
1051,417	0,26
1051,833	0,26
1052,249	0,26
1052,665	0,26
1053,081	0,26
1053,497	0,26
1053,914	0,26
1054,33	0,26
1054,746	0,27
1055,162	0,27
1055,578	0,27
1055,993	0,27
1056,409	0,27
1056,825	0,27
1057,241	0,27
1057,657	0,27
1058,073	0,27
1058,488	0,27
1058,904	0,27
1059,32	0,27
1059,736	0,27
1060,151	0,27
1060,567	0,27
1060,982	0,27
1061,398	0,27
1061,813	0,27
1062,229	0,27
1062,644	0,27
1063,06	0,27
1063,475	0,27
1063,891	0,27
1064,306	0,27
1064,721	0,27
1065,137	0,27
1065,552	0,27
1065,967	0,27
1066,382	0,27
1066,798	0,27
1067,213	0,27
1067,628	0,27
1068,043	0,27
1068,458	0,27
1068,873	0,27
1069,288	0,27
1069,703	0,27
1070,118	0,27
1070,533	0,27
1070,948	0,27
1071,363	0,27
1071,778	0,27
1072,193	0,27
1072,607	0,27
1073,022	0,27
1073,437	0,27
1073,852	0,27
1074,266	0,27
1074,681	0,27
1075,096	0,27
1075,51	0,27
1075,925	0,27
1076,339	0,27
1076,754	0,27
1077,168	0,27
1077,583	0,27
1077,997	0,27
1078,412	0,27
1078,826	0,27
1079,24	0,27
1079,655	0,27
1080,069	0,27
1080,483	0,26
1080,897	0,26
1081,312	0,26
1081,726	0,26
1082,14	0,26
1082,554	0,26
1082,968	0,26
1083,382	0,26
1083,796	0,26
1084,21	0,26
1084,624	0,26
1085,038	0,26
1085,452	0,26
1085,866	0,25
1086,28	0,25
1086,694	0,25
1087,108	0,25
1087,521	0,25
1087,935	0,25
1088,349	0,25
1088,763	0,24
1089,176	0,24
1089,59	0,24
1090,004	0,24
1090,417	0,24
1090,831	0,23
1091,244	0,23
1091,658	0,23
1092,071	0,23
1092,485	0,23
1092,898	0,23
1093,312	0,22
1093,725	0,22
1094,138	0,22
1094,552	0,22
1094,965	0,22
1095,378	0,22
1095,791	0,22
1096,205	0,22
1096,618	0,21
1097,031	0,21
1097,444	0,21
1097,857	0,21
1098,27	0,2
1098,683	0,2
1099,096	0,2
1099,509	0,2
1099,922	0,19
1100,335	0,19
1100,748	0,19
1101,161	0,18
1101,574	0,18
1101,986	0,18
1102,399	0,18
1102,812	0,17
1103,225	0,17
1103,637	0,17
1104,05	0,16
1104,463	0,16
1104,875	0,16
1105,288	0,16
1105,7	0,15
1106,113	0,15
1106,525	0,15
1106,938	0,15
1107,35	0,14
1107,763	0,14
1108,175	0,14
1108,588	0,13
1109	0,13
1109,412	0,12
1109,824	0,13
1110,237	0,13
1110,649	0,14
1111,061	0,13
