Data from 18C-808nm-8A-cont_Absorbance__634__02063.txt Node

Date: Mon Jul 17 17:43:00 CEST 2023
User: Laser008
Spectrometer: MAYP115816
Trigger mode: 0
Integration Time (sec): 2,500000E-1
Scans to average: 10
Electric dark correction enabled: true
Nonlinearity correction enabled: true
Boxcar width: 5
XAxis mode: Wavelengths
Number of Pixels in Spectrum: 2068
>>>>>Begin Spectral Data<<<<<
198,914	-0,69
199,384	-0,49
199,855	-0,38
200,325	-0,29
200,796	-0,25
201,266	-0,21
201,737	-0,19
202,207	-0,17
202,677	-0,16
203,147	-0,14
203,618	-0,11
204,088	-0,1
204,558	-0,08
205,028	-0,06
205,498	-0,07
205,968	-0,07
206,439	-0,09
206,909	-0,07
207,379	-0,08
207,849	-0,08
208,319	-0,08
208,789	-0,09
209,258	-0,09
209,728	-0,1
210,198	-0,1
210,668	-0,1
211,138	-0,09
211,608	-0,09
212,077	-0,09
212,547	-0,09
213,017	-0,1
213,486	-0,1
213,956	-0,1
214,426	-0,12
214,895	-0,12
215,365	-0,13
215,834	-0,14
216,304	-0,14
216,773	-0,15
217,243	-0,15
217,712	-0,17
218,181	-0,16
218,651	-0,17
219,12	-0,17
219,589	-0,16
220,058	-0,15
220,528	-0,16
220,997	-0,17
221,466	-0,18
221,935	-0,18
222,404	-0,18
222,873	-0,17
223,342	-0,17
223,812	-0,17
224,281	-0,16
224,749	-0,16
225,218	-0,18
225,687	-0,17
226,156	-0,16
226,625	-0,14
227,094	-0,15
227,563	-0,15
228,031	-0,16
228,5	-0,16
228,969	-0,16
229,438	-0,16
229,906	-0,14
230,375	-0,13
230,844	-0,13
231,312	-0,12
231,781	-0,14
232,249	-0,13
232,718	-0,13
233,186	-0,12
233,655	-0,14
234,123	-0,13
234,591	-0,14
235,06	-0,15
235,528	-0,15
235,996	-0,15
236,465	-0,15
236,933	-0,14
237,401	-0,14
237,869	-0,13
238,337	-0,13
238,805	-0,12
239,274	-0,12
239,742	-0,11
240,21	-0,1
240,678	-0,1
241,146	-0,08
241,614	-0,08
242,081	-0,07
242,549	-0,08
243,017	-0,08
243,485	-0,08
243,953	-0,08
244,421	-0,07
244,888	-0,07
245,356	-0,07
245,824	-0,07
246,291	-0,08
246,759	-0,09
247,227	-0,1
247,694	-0,08
248,162	-0,08
248,629	-0,07
249,097	-0,08
249,564	-0,1
250,032	-0,11
250,499	-0,11
250,967	-0,12
251,434	-0,12
251,901	-0,12
252,369	-0,12
252,836	-0,14
253,303	-0,15
253,77	-0,17
254,237	-0,16
254,705	-0,15
255,172	-0,14
255,639	-0,14
256,106	-0,15
256,573	-0,14
257,04	-0,15
257,507	-0,15
257,974	-0,15
258,441	-0,13
258,908	-0,13
259,375	-0,14
259,841	-0,15
260,308	-0,16
260,775	-0,16
261,242	-0,15
261,709	-0,16
262,175	-0,18
262,642	-0,17
263,109	-0,17
263,575	-0,19
264,042	-0,16
264,508	-0,16
264,975	-0,18
265,441	-0,2
265,908	-0,21
266,374	-0,19
266,841	-0,2
267,307	-0,2
267,773	-0,19
268,24	-0,2
268,706	-0,2
269,172	-0,21
269,639	-0,23
270,105	-0,21
270,571	-0,21
271,037	-0,2
271,503	-0,22
271,969	-0,21
272,435	-0,2
272,902	-0,22
273,368	-0,22
273,834	-0,22
274,3	-0,22
274,765	-0,21
275,231	-0,22
275,697	-0,2
276,163	-0,2
276,629	-0,2
277,095	-0,21
277,56	-0,2
278,026	-0,21
278,492	-0,19
278,958	-0,19
279,423	-0,2
279,889	-0,19
280,354	-0,19
280,82	-0,19
281,286	-0,21
281,751	-0,21
282,217	-0,2
282,682	-0,2
283,147	-0,21
283,613	-0,2
284,078	-0,21
284,544	-0,22
285,009	-0,23
285,474	-0,22
285,939	-0,23
286,405	-0,21
286,87	-0,21
287,335	-0,21
287,8	-0,2
288,265	-0,19
288,73	-0,21
289,195	-0,23
289,66	-0,23
290,125	-0,21
290,59	-0,22
291,055	-0,22
291,52	-0,22
291,985	-0,22
292,45	-0,24
292,915	-0,23
293,38	-0,23
293,844	-0,22
294,309	-0,2
294,774	-0,18
295,239	-0,19
295,703	-0,18
296,168	-0,17
296,632	-0,17
297,097	-0,15
297,562	-0,14
298,026	-0,15
298,491	-0,15
298,955	-0,15
299,419	-0,15
299,884	-0,15
300,348	-0,14
300,813	-0,14
301,277	-0,14
301,741	-0,14
302,205	-0,14
302,67	-0,13
303,134	-0,12
303,598	-0,12
304,062	-0,11
304,526	-0,1
304,99	-0,11
305,454	-0,11
305,919	-0,11
306,383	-0,11
306,847	-0,11
307,31	-0,12
307,774	-0,13
308,238	-0,13
308,702	-0,12
309,166	-0,13
309,63	-0,14
310,094	-0,11
310,557	-0,11
311,021	-0,11
311,485	-0,11
311,948	-0,11
312,412	-0,1
312,876	-0,1
313,339	-0,1
313,803	-0,1
314,266	-0,1
314,73	-0,1
315,193	-0,11
315,657	-0,1
316,12	-0,1
316,584	-0,08
317,047	-0,08
317,51	-0,07
317,973	-0,06
318,437	-0,05
318,9	-0,05
319,363	-0,04
319,826	-0,03
320,29	-0,03
320,753	-0,03
321,216	-0,04
321,679	-0,04
322,142	-0,04
322,605	-0,05
323,068	-0,05
323,531	-0,05
323,994	-0,04
324,457	-0,04
324,92	-0,03
325,382	-0,03
325,845	-0,03
326,308	-0,01
326,771	-0,01
327,233	-0
327,696	0,01
328,159	0,02
328,622	0,02
329,084	0,02
329,547	0,03
330,009	0,03
330,472	0,05
330,934	0,06
331,397	0,06
331,859	0,06
332,322	0,06
332,784	0,06
333,246	0,07
333,709	0,08
334,171	0,08
334,633	0,09
335,096	0,09
335,558	0,09
336,02	0,08
336,482	0,09
336,944	0,09
337,406	0,1
337,868	0,11
338,331	0,1
338,793	0,11
339,255	0,11
339,717	0,11
340,178	0,12
340,64	0,13
341,102	0,14
341,564	0,14
342,026	0,16
342,488	0,17
342,949	0,18
343,411	0,21
343,873	0,24
344,335	0,28
344,796	0,32
345,258	0,37
345,719	0,42
346,181	0,48
346,643	0,53
347,104	0,56
347,566	0,61
348,027	0,64
348,488	0,67
348,95	0,69
349,411	0,72
349,873	0,74
350,334	0,77
350,795	0,79
351,256	0,8
351,718	0,81
352,179	0,82
352,64	0,82
353,101	0,82
353,562	0,83
354,023	0,83
354,484	0,83
354,945	0,84
355,406	0,84
355,867	0,84
356,328	0,84
356,789	0,86
357,25	0,86
357,711	0,86
358,172	0,86
358,633	0,87
359,093	0,87
359,554	0,87
360,015	0,87
360,476	0,87
360,936	0,87
361,397	0,87
361,858	0,87
362,318	0,87
362,779	0,87
363,239	0,87
363,7	0,87
364,16	0,87
364,621	0,87
365,081	0,87
365,541	0,87
366,002	0,87
366,462	0,87
366,922	0,87
367,383	0,87
367,843	0,87
368,303	0,87
368,763	0,87
369,223	0,87
369,684	0,87
370,144	0,87
370,604	0,87
371,064	0,87
371,524	0,87
371,984	0,87
372,444	0,87
372,904	0,87
373,363	0,87
373,823	0,87
374,283	0,87
374,743	0,87
375,203	0,87
375,663	0,87
376,122	0,87
376,582	0,87
377,042	0,87
377,501	0,87
377,961	0,87
378,42	0,87
378,88	0,87
379,34	0,87
379,799	0,87
380,259	0,87
380,718	0,87
381,177	0,87
381,637	0,87
382,096	0,87
382,555	0,86
383,015	0,86
383,474	0,86
383,933	0,86
384,393	0,86
384,852	0,86
385,311	0,86
385,77	0,86
386,229	0,86
386,688	0,86
387,147	0,86
387,606	0,86
388,065	0,86
388,524	0,86
388,983	0,86
389,442	0,86
389,901	0,86
390,36	0,86
390,819	0,86
391,277	0,86
391,736	0,86
392,195	0,86
392,654	0,86
393,112	0,86
393,571	0,86
394,03	0,85
394,488	0,85
394,947	0,85
395,405	0,85
395,864	0,85
396,322	0,85
396,781	0,85
397,239	0,85
397,698	0,85
398,156	0,85
398,614	0,85
399,073	0,85
399,531	0,85
399,989	0,85
400,447	0,85
400,905	0,85
401,364	0,85
401,822	0,85
402,28	0,85
402,738	0,85
403,196	0,85
403,654	0,85
404,112	0,85
404,57	0,85
405,028	0,85
405,486	0,85
405,944	0,85
406,402	0,85
406,859	0,85
407,317	0,85
407,775	0,85
408,233	0,85
408,691	0,85
409,148	0,85
409,606	0,85
410,064	0,85
410,521	0,85
410,979	0,84
411,436	0,84
411,894	0,84
412,351	0,84
412,809	0,84
413,266	0,84
413,724	0,84
414,181	0,84
414,638	0,84
415,096	0,84
415,553	0,84
416,01	0,84
416,467	0,84
416,925	0,84
417,382	0,84
417,839	0,84
418,296	0,84
418,753	0,84
419,21	0,84
419,667	0,84
420,124	0,84
420,581	0,84
421,038	0,84
421,495	0,84
421,952	0,84
422,409	0,84
422,866	0,84
423,322	0,84
423,779	0,84
424,236	0,84
424,693	0,84
425,149	0,84
425,606	0,84
426,063	0,84
426,519	0,84
426,976	0,84
427,433	0,84
427,889	0,84
428,346	0,84
428,802	0,84
429,258	0,84
429,715	0,84
430,171	0,84
430,628	0,84
431,084	0,84
431,54	0,84
431,997	0,84
432,453	0,84
432,909	0,84
433,365	0,84
433,821	0,83
434,277	0,83
434,734	0,83
435,19	0,83
435,646	0,83
436,102	0,83
436,558	0,83
437,014	0,83
437,47	0,83
437,925	0,83
438,381	0,83
438,837	0,84
439,293	0,84
439,749	0,84
440,205	0,84
440,66	0,84
441,116	0,84
441,572	0,84
442,027	0,84
442,483	0,84
442,939	0,84
443,394	0,84
443,85	0,84
444,305	0,84
444,761	0,84
445,216	0,84
445,672	0,84
446,127	0,84
446,582	0,84
447,038	0,84
447,493	0,84
447,948	0,84
448,403	0,84
448,859	0,84
449,314	0,84
449,769	0,84
450,224	0,84
450,679	0,84
451,134	0,85
451,589	0,85
452,044	0,85
452,499	0,85
452,954	0,85
453,409	0,85
453,864	0,85
454,319	0,85
454,774	0,85
455,229	0,85
455,684	0,85
456,138	0,85
456,593	0,85
457,048	0,85
457,503	0,85
457,957	0,85
458,412	0,85
458,866	0,85
459,321	0,85
459,776	0,85
460,23	0,85
460,685	0,85
461,139	0,85
461,593	0,85
462,048	0,86
462,502	0,86
462,957	0,86
463,411	0,86
463,865	0,86
464,319	0,86
464,774	0,86
465,228	0,86
465,682	0,86
466,136	0,86
466,59	0,86
467,044	0,87
467,499	0,87
467,953	0,87
468,407	0,87
468,861	0,87
469,315	0,87
469,768	0,87
470,222	0,87
470,676	0,87
471,13	0,87
471,584	0,87
472,038	0,87
472,491	0,88
472,945	0,88
473,399	0,88
473,852	0,88
474,306	0,88
474,76	0,88
475,213	0,88
475,667	0,89
476,12	0,89
476,574	0,89
477,027	0,89
477,481	0,89
477,934	0,89
478,388	0,9
478,841	0,9
479,294	0,9
479,748	0,9
480,201	0,9
480,654	0,91
481,107	0,91
481,561	0,91
482,014	0,91
482,467	0,91
482,92	0,91
483,373	0,92
483,826	0,92
484,279	0,92
484,732	0,92
485,185	0,93
485,638	0,93
486,091	0,93
486,544	0,93
486,997	0,93
487,449	0,94
487,902	0,94
488,355	0,94
488,808	0,95
489,26	0,95
489,713	0,95
490,166	0,95
490,618	0,96
491,071	0,96
491,523	0,96
491,976	0,97
492,429	0,97
492,881	0,97
493,333	0,98
493,786	0,98
494,238	0,98
494,691	0,99
495,143	0,99
495,595	1
496,048	1
496,5	1
496,952	1,01
497,404	1,01
497,856	1,02
498,309	1,02
498,761	1,03
499,213	1,03
499,665	1,03
500,117	1,04
500,569	1,04
501,021	1,05
501,473	1,05
501,925	1,06
502,377	1,06
502,828	1,07
503,28	1,07
503,732	1,07
504,184	1,08
504,636	1,08
505,087	1,09
505,539	1,09
505,991	1,09
506,442	1,1
506,894	1,1
507,345	1,11
507,797	1,11
508,249	1,12
508,7	1,12
509,151	1,13
509,603	1,13
510,054	1,13
510,506	1,14
510,957	1,14
511,408	1,15
511,86	1,15
512,311	1,16
512,762	1,16
513,213	1,16
513,665	1,16
514,116	1,17
514,567	1,17
515,018	1,18
515,469	1,18
515,92	1,18
516,371	1,19
516,822	1,19
517,273	1,19
517,724	1,2
518,175	1,2
518,626	1,2
519,076	1,2
519,527	1,21
519,978	1,21
520,429	1,21
520,88	1,21
521,33	1,22
521,781	1,22
522,232	1,22
522,682	1,22
523,133	1,22
523,583	1,23
524,034	1,23
524,484	1,23
524,935	1,23
525,385	1,23
525,836	1,23
526,286	1,23
526,736	1,23
527,187	1,23
527,637	1,23
528,087	1,23
528,538	1,23
528,988	1,23
529,438	1,23
529,888	1,22
530,338	1,22
530,788	1,22
531,238	1,22
531,688	1,22
532,139	1,22
532,589	1,21
533,038	1,21
533,488	1,21
533,938	1,21
534,388	1,21
534,838	1,2
535,288	1,2
535,738	1,2
536,187	1,19
536,637	1,19
537,087	1,18
537,537	1,18
537,986	1,17
538,436	1,17
538,885	1,16
539,335	1,16
539,785	1,15
540,234	1,15
540,684	1,14
541,133	1,14
541,582	1,13
542,032	1,13
542,481	1,12
542,931	1,11
543,38	1,11
543,829	1,1
544,278	1,09
544,728	1,09
545,177	1,08
545,626	1,08
546,075	1,07
546,524	1,07
546,973	1,06
547,422	1,06
547,871	1,05
548,32	1,05
548,769	1,05
549,218	1,04
549,667	1,04
550,116	1,04
550,565	1,03
551,014	1,03
551,463	1,02
551,911	1,02
552,36	1,01
552,809	1,01
553,258	1
553,706	1
554,155	0,99
554,603	0,99
555,052	0,98
555,501	0,98
555,949	0,97
556,398	0,97
556,846	0,96
557,294	0,95
557,743	0,95
558,191	0,94
558,64	0,94
559,088	0,93
559,536	0,92
559,985	0,92
560,433	0,91
560,881	0,91
561,329	0,9
561,777	0,9
562,225	0,89
562,674	0,89
563,122	0,89
563,57	0,88
564,018	0,88
564,466	0,87
564,914	0,87
565,362	0,86
565,809	0,86
566,257	0,85
566,705	0,85
567,153	0,84
567,601	0,84
568,048	0,83
568,496	0,83
568,944	0,82
569,392	0,82
569,839	0,81
570,287	0,81
570,734	0,81
571,182	0,8
571,63	0,8
572,077	0,79
572,525	0,79
572,972	0,79
573,419	0,78
573,867	0,78
574,314	0,77
574,761	0,77
575,209	0,76
575,656	0,76
576,103	0,76
576,551	0,75
576,998	0,75
577,445	0,75
577,892	0,74
578,339	0,74
578,786	0,74
579,233	0,73
579,68	0,73
580,127	0,73
580,574	0,72
581,021	0,72
581,468	0,71
581,915	0,71
582,362	0,71
582,809	0,71
583,255	0,7
583,702	0,7
584,149	0,7
584,596	0,69
585,042	0,69
585,489	0,69
585,936	0,68
586,382	0,68
586,829	0,68
587,275	0,68
587,722	0,68
588,168	0,67
588,615	0,67
589,061	0,67
589,508	0,66
589,954	0,66
590,4	0,66
590,847	0,66
591,293	0,66
591,739	0,65
592,185	0,65
592,632	0,65
593,078	0,65
593,524	0,65
593,97	0,65
594,416	0,64
594,862	0,64
595,308	0,64
595,754	0,64
596,2	0,64
596,646	0,63
597,092	0,63
597,538	0,63
597,984	0,63
598,43	0,63
598,876	0,63
599,321	0,62
599,767	0,62
600,213	0,62
600,659	0,62
601,104	0,62
601,55	0,62
601,995	0,61
602,441	0,61
602,887	0,61
603,332	0,61
603,778	0,61
604,223	0,61
604,668	0,6
605,114	0,6
605,559	0,6
606,005	0,6
606,45	0,6
606,895	0,6
607,341	0,6
607,786	0,6
608,231	0,59
608,676	0,59
609,121	0,58
609,566	0,57
610,012	0,57
610,457	0,56
610,902	0,56
611,347	0,56
611,792	0,55
612,237	0,55
612,682	0,55
613,127	0,55
613,571	0,55
614,016	0,56
614,461	0,56
614,906	0,56
615,351	0,56
615,795	0,56
616,24	0,56
616,685	0,56
617,129	0,56
617,574	0,56
618,019	0,56
618,463	0,56
618,908	0,56
619,352	0,56
619,797	0,56
620,241	0,56
620,686	0,56
621,13	0,56
621,574	0,56
622,019	0,56
622,463	0,56
622,907	0,56
623,352	0,55
623,796	0,55
624,24	0,55
624,684	0,55
625,128	0,55
625,572	0,55
626,016	0,55
626,461	0,55
626,905	0,55
627,349	0,55
627,793	0,55
628,236	0,55
628,68	0,55
629,124	0,55
629,568	0,55
630,012	0,54
630,456	0,54
630,9	0,54
631,343	0,54
631,787	0,54
632,231	0,54
632,674	0,54
633,118	0,54
633,562	0,54
634,005	0,54
634,449	0,54
634,892	0,54
635,336	0,54
635,779	0,54
636,223	0,54
636,666	0,54
637,109	0,54
637,553	0,54
637,996	0,54
638,439	0,54
638,883	0,54
639,326	0,54
639,769	0,54
640,212	0,53
640,655	0,53
641,099	0,53
641,542	0,53
641,985	0,53
642,428	0,53
642,871	0,53
643,314	0,53
643,757	0,53
644,2	0,53
644,643	0,53
645,085	0,53
645,528	0,53
645,971	0,53
646,414	0,53
646,857	0,53
647,299	0,52
647,742	0,52
648,185	0,52
648,627	0,52
649,07	0,52
649,513	0,52
649,955	0,52
650,398	0,52
650,84	0,52
651,283	0,52
651,725	0,52
652,168	0,52
652,61	0,52
653,052	0,52
653,495	0,52
653,937	0,43
654,379	0,37
654,821	0,38
655,264	0,38
655,706	0,38
656,148	0,38
656,59	0,38
657,032	0,38
657,474	0,38
657,916	0,38
658,358	0,37
658,8	0,44
659,242	0,52
659,684	0,52
660,126	0,52
660,568	0,52
661,01	0,52
661,452	0,52
661,894	0,52
662,335	0,52
662,777	0,52
663,219	0,52
663,661	0,52
664,102	0,51
664,544	0,51
664,985	0,51
665,427	0,51
665,869	0,51
666,31	0,51
666,752	0,51
667,193	0,51
667,634	0,51
668,076	0,51
668,517	0,51
668,959	0,51
669,4	0,51
669,841	0,51
670,282	0,51
670,724	0,51
671,165	0,51
671,606	0,51
672,047	0,51
672,488	0,51
672,929	0,51
673,37	0,51
673,811	0,51
674,252	0,51
674,693	0,51
675,134	0,51
675,575	0,5
676,016	0,5
676,457	0,51
676,898	0,51
677,339	0,51
677,78	0,51
678,22	0,51
678,661	0,51
679,102	0,51
679,542	0,51
679,983	0,51
680,424	0,51
680,864	0,51
681,305	0,51
681,745	0,51
682,186	0,51
682,626	0,51
683,067	0,51
683,507	0,51
683,948	0,51
684,388	0,51
684,828	0,51
685,269	0,51
685,709	0,51
686,149	0,5
686,589	0,5
687,029	0,5
687,47	0,5
687,91	0,5
688,35	0,5
688,79	0,5
689,23	0,5
689,67	0,5
690,11	0,5
690,55	0,5
690,99	0,5
691,43	0,5
691,87	0,5
692,31	0,49
692,749	0,49
693,189	0,49
693,629	0,49
694,069	0,49
694,508	0,49
694,948	0,49
695,388	0,49
695,827	0,49
696,267	0,49
696,706	0,49
697,146	0,49
697,586	0,49
698,025	0,5
698,464	0,5
698,904	0,5
699,343	0,5
699,783	0,5
700,222	0,5
700,661	0,5
701,101	0,5
701,54	0,5
701,979	0,5
702,418	0,5
702,857	0,5
703,297	0,5
703,736	0,5
704,175	0,5
704,614	0,5
705,053	0,5
705,492	0,5
705,931	0,5
706,37	0,49
706,809	0,49
707,248	0,49
707,687	0,49
708,125	0,49
708,564	0,49
709,003	0,49
709,442	0,49
709,88	0,49
710,319	0,49
710,758	0,49
711,196	0,49
711,635	0,49
712,074	0,49
712,512	0,49
712,951	0,49
713,389	0,49
713,828	0,49
714,266	0,48
714,705	0,48
715,143	0,48
715,581	0,48
716,02	0,49
716,458	0,49
716,896	0,48
717,334	0,48
717,773	0,49
718,211	0,49
718,649	0,49
719,087	0,49
719,525	0,49
719,963	0,49
720,401	0,49
720,839	0,49
721,277	0,49
721,715	0,49
722,153	0,48
722,591	0,48
723,029	0,48
723,467	0,48
723,905	0,48
724,342	0,48
724,78	0,48
725,218	0,48
725,656	0,48
726,093	0,48
726,531	0,48
726,969	0,48
727,406	0,48
727,844	0,48
728,281	0,48
728,719	0,48
729,156	0,48
729,594	0,48
730,031	0,48
730,469	0,48
730,906	0,48
731,343	0,48
731,781	0,48
732,218	0,48
732,655	0,47
733,092	0,47
733,53	0,47
733,967	0,47
734,404	0,47
734,841	0,47
735,278	0,47
735,715	0,47
736,152	0,47
736,589	0,47
737,026	0,47
737,463	0,47
737,9	0,47
738,337	0,47
738,774	0,47
739,211	0,47
739,647	0,47
740,084	0,47
740,521	0,47
740,958	0,47
741,394	0,47
741,831	0,48
742,268	0,48
742,704	0,48
743,141	0,47
743,577	0,47
744,014	0,47
744,45	0,47
744,887	0,47
745,323	0,47
745,76	0,47
746,196	0,47
746,632	0,47
747,069	0,47
747,505	0,47
747,941	0,47
748,378	0,47
748,814	0,47
749,25	0,47
749,686	0,47
750,122	0,47
750,558	0,47
750,994	0,47
751,43	0,47
751,866	0,47
752,302	0,47
752,738	0,47
753,174	0,47
753,61	0,47
754,046	0,47
754,482	0,47
754,918	0,47
755,354	0,47
755,789	0,47
756,225	0,47
756,661	0,46
757,096	0,46
757,532	0,46
757,968	0,46
758,403	0,46
758,839	0,46
759,274	0,45
759,71	0,45
760,145	0,44
760,581	0,44
761,016	0,43
761,452	0,43
761,887	0,42
762,322	0,42
762,758	0,41
763,193	0,41
763,628	0,4
764,063	0,39
764,499	0,39
764,934	0,38
765,369	0,37
765,804	0,36
766,239	0,36
766,674	0,35
767,109	0,35
767,544	0,34
767,979	0,33
768,414	0,32
768,849	0,31
769,284	0,3
769,719	0,29
770,154	0,28
770,588	0,27
771,023	0,26
771,458	0,24
771,893	0,23
772,327	0,21
772,762	0,2
773,197	0,19
773,631	0,18
774,066	0,18
774,5	0,17
774,935	0,15
775,369	0,15
775,804	0,13
776,238	0,13
776,673	0,12
777,107	0,11
777,541	0,1
777,976	0,09
778,41	0,09
778,844	0,07
779,279	0,07
779,713	0,06
780,147	0,05
780,581	0,04
781,015	0,03
781,449	0,02
781,883	0,01
782,317	0
782,751	-0,01
783,185	-0,03
783,619	-0,03
784,053	-0,04
784,487	-0,05
784,921	-0,05
785,355	-0,06
785,789	-0,07
786,223	-0,08
786,656	-0,1
787,09	-0,11
787,524	-0,12
787,957	-0,13
788,391	-0,15
788,825	-0,16
789,258	-0,18
789,692	-0,19
790,125	-0,21
790,559	-0,23
790,992	-0,25
791,426	-0,26
791,859	-0,28
792,293	-0,31
792,726	-0,32
793,159	-0,34
793,593	-0,36
794,026	-0,38
794,459	-0,41
794,892	-0,44
795,326	-0,46
795,759	-0,5
796,192	-0,54
796,625	-0,58
797,058	-0,61
797,491	-0,65
797,924	-0,69
798,357	-0,74
798,79	-0,78
799,223	-0,82
799,656	-0,88
800,089	-0,93
800,522	-0,97
800,955	-1,01
801,387	-1,07
801,82	-1,12
802,253	-1,19
802,686	-1,26
803,118	-1,32
803,551	-1,37
803,984	-1,41
804,416	-1,45
804,849	-1,47
805,281	-1,56
805,714	-1,89
806,146	-2,39
806,579	-2,67
807,011	-2,84
807,444	-2,94
807,876	-3,04
808,308	-3,08
808,741	-3,11
809,173	-3,17
809,605	-3,19
810,037	-3,27
810,47	-3,19
810,902	-3
811,334	-2,86
811,766	-2,71
812,198	-2,5
812,63	-2,07
813,062	-1,8
813,494	-1,69
813,926	-1,6
814,358	-1,55
814,79	-1,47
815,222	-1,41
815,654	-1,36
816,086	-1,3
816,518	-1,24
816,949	-1,19
817,381	-1,15
817,813	-1,13
818,245	-1,09
818,676	-1,05
819,108	-1,01
819,54	-1
819,971	-0,98
820,403	-0,92
820,834	-0,91
821,266	-0,87
821,697	-0,84
822,129	-0,83
822,56	-0,8
822,991	-0,78
823,423	-0,76
823,854	-0,75
824,286	-0,73
824,717	-0,72
825,148	-0,7
825,579	-0,69
826,01	-0,68
826,442	-0,67
826,873	-0,66
827,304	-0,63
827,735	-0,62
828,166	-0,62
828,597	-0,62
829,028	-0,61
829,459	-0,62
829,89	-0,62
830,321	-0,58
830,752	-0,59
831,183	-0,57
831,613	-0,57
832,044	-0,57
832,475	-0,56
832,906	-0,56
833,336	-0,57
833,767	-0,58
834,198	-0,57
834,628	-0,55
835,059	-0,58
835,49	-0,59
835,92	-0,56
836,351	-0,56
836,781	-0,57
837,212	-0,58
837,642	-0,57
838,072	-0,56
838,503	-0,57
838,933	-0,54
839,364	-0,56
839,794	-0,53
840,224	-0,52
840,654	-0,56
841,085	-0,56
841,515	-0,53
841,945	-0,54
842,375	-0,49
842,805	-0,49
843,235	-0,47
843,665	-0,49
844,095	-0,46
844,525	-0,48
844,955	-0,49
845,385	-0,47
845,815	-0,46
846,245	-0,47
846,675	-0,47
847,105	-0,5
847,534	-0,5
847,964	-0,48
848,394	-0,47
848,824	-0,51
849,253	-0,51
849,683	-0,51
850,112	-0,52
850,542	-0,55
850,972	-0,56
851,401	-0,53
851,831	-0,52
852,26	-0,53
852,69	-0,57
853,119	-0,56
853,548	-0,55
853,978	-0,56
854,407	-0,53
854,836	-0,53
855,266	-0,52
855,695	-0,54
856,124	-0,56
856,553	-0,57
856,983	-0,58
857,412	-0,57
857,841	-0,58
858,27	-0,58
858,699	-0,58
859,128	-0,62
859,557	-0,63
859,986	-0,64
860,415	-0,61
860,844	-0,58
861,273	-0,58
861,702	-0,58
862,13	-0,56
862,559	-0,58
862,988	-0,56
863,417	-0,56
863,845	-0,55
864,274	-0,55
864,703	-0,55
865,131	-0,56
865,56	-0,57
865,989	-0,6
866,417	-0,57
866,846	-0,57
867,274	-0,57
867,703	-0,58
868,131	-0,59
868,559	-0,58
868,988	-0,6
869,416	-0,59
869,844	-0,6
870,273	-0,63
870,701	-0,61
871,129	-0,64
871,557	-0,67
871,986	-0,66
872,414	-0,68
872,842	-0,66
873,27	-0,64
873,698	-0,62
874,126	-0,65
874,554	-0,64
874,982	-0,63
875,41	-0,66
875,838	-0,61
876,266	-0,6
876,694	-0,6
877,122	-0,59
877,549	-0,64
877,977	-0,62
878,405	-0,64
878,833	-0,61
879,26	-0,59
879,688	-0,6
880,116	-0,58
880,543	-0,56
880,971	-0,54
881,399	-0,56
881,826	-0,57
882,254	-0,54
882,681	-0,58
883,109	-0,55
883,536	-0,56
883,963	-0,58
884,391	-0,56
884,818	-0,54
885,245	-0,58
885,673	-0,61
886,1	-0,58
886,527	-0,58
886,954	-0,55
887,381	-0,57
887,809	-0,58
888,236	-0,58
888,663	-0,59
889,09	-0,62
889,517	-0,64
889,944	-0,63
890,371	-0,61
890,798	-0,62
891,225	-0,62
891,652	-0,65
892,078	-0,62
892,505	-0,65
892,932	-0,6
893,359	-0,62
893,786	-0,62
894,212	-0,58
894,639	-0,6
895,066	-0,63
895,492	-0,57
895,919	-0,56
896,346	-0,56
896,772	-0,56
897,199	-0,53
897,625	-0,56
898,052	-0,52
898,478	-0,51
898,904	-0,53
899,331	-0,52
899,757	-0,53
900,183	-0,56
900,61	-0,54
901,036	-0,54
901,462	-0,54
901,888	-0,54
902,315	-0,53
902,741	-0,58
903,167	-0,56
903,593	-0,59
904,019	-0,57
904,445	-0,54
904,871	-0,56
905,297	-0,58
905,723	-0,57
906,149	-0,57
906,575	-0,57
907,001	-0,56
907,427	-0,53
907,852	-0,53
908,278	-0,55
908,704	-0,53
909,13	-0,53
909,555	-0,53
909,981	-0,52
910,407	-0,52
910,832	-0,52
911,258	-0,52
911,684	-0,52
912,109	-0,53
912,535	-0,55
912,96	-0,5
913,386	-0,54
913,811	-0,54
914,236	-0,55
914,662	-0,53
915,087	-0,57
915,512	-0,57
915,938	-0,59
916,363	-0,58
916,788	-0,59
917,213	-0,56
917,639	-0,61
918,064	-0,58
918,489	-0,59
918,914	-0,59
919,339	-0,6
919,764	-0,58
920,189	-0,57
920,614	-0,6
921,039	-0,61
921,464	-0,57
921,889	-0,6
922,314	-0,61
922,738	-0,64
923,163	-0,65
923,588	-0,65
924,013	-0,65
924,437	-0,64
924,862	-0,66
925,287	-0,61
925,711	-0,61
926,136	-0,62
926,561	-0,6
926,985	-0,6
927,41	-0,57
927,834	-0,55
928,259	-0,52
928,683	-0,5
929,108	-0,47
929,532	-0,48
929,956	-0,48
930,381	-0,47
930,805	-0,47
931,229	-0,46
931,653	-0,44
932,078	-0,44
932,502	-0,45
932,926	-0,47
933,35	-0,46
933,774	-0,46
934,198	-0,44
934,622	-0,44
935,046	-0,45
935,47	-0,45
935,894	-0,45
936,318	-0,45
936,742	-0,45
937,166	-0,46
937,59	-0,44
938,014	-0,47
938,437	-0,47
938,861	-0,49
939,285	-0,5
939,709	-0,49
940,132	-0,48
940,556	-0,49
940,98	-0,49
941,403	-0,48
941,827	-0,48
942,25	-0,5
942,674	-0,49
943,097	-0,48
943,521	-0,48
943,944	-0,5
944,368	-0,49
944,791	-0,48
945,214	-0,5
945,638	-0,51
946,061	-0,53
946,484	-0,53
946,907	-0,51
947,331	-0,51
947,754	-0,55
948,177	-0,52
948,6	-0,52
949,023	-0,51
949,446	-0,51
949,869	-0,5
950,292	-0,49
950,715	-0,47
951,138	-0,46
951,561	-0,44
951,984	-0,44
952,407	-0,43
952,83	-0,42
953,252	-0,38
953,675	-0,38
954,098	-0,39
954,521	-0,37
954,943	-0,36
955,366	-0,36
955,789	-0,34
956,211	-0,35
956,634	-0,36
957,056	-0,34
957,479	-0,34
957,902	-0,37
958,324	-0,37
958,746	-0,35
959,169	-0,36
959,591	-0,38
960,014	-0,39
960,436	-0,38
960,858	-0,38
961,281	-0,37
961,703	-0,38
962,125	-0,38
962,547	-0,36
962,969	-0,37
963,391	-0,38
963,814	-0,38
964,236	-0,37
964,658	-0,34
965,08	-0,35
965,502	-0,34
965,924	-0,32
966,346	-0,32
966,768	-0,32
967,189	-0,33
967,611	-0,32
968,033	-0,32
968,455	-0,3
968,877	-0,32
969,298	-0,33
969,72	-0,33
970,142	-0,32
970,563	-0,33
970,985	-0,31
971,407	-0,3
971,828	-0,28
972,25	-0,28
972,671	-0,26
973,093	-0,26
973,514	-0,24
973,936	-0,21
974,357	-0,2
974,778	-0,2
975,2	-0,2
975,621	-0,19
976,042	-0,17
976,464	-0,16
976,885	-0,15
977,306	-0,14
977,727	-0,14
978,148	-0,13
978,57	-0,12
978,991	-0,1
979,412	-0,09
979,833	-0,08
980,254	-0,07
980,675	-0,08
981,096	-0,06
981,517	-0,05
981,937	-0,04
982,358	-0,02
982,779	-0,01
983,2	-0,01
983,621	-0,01
984,042	0,01
984,462	0,02
984,883	0,04
985,304	0,05
985,724	0,06
986,145	0,08
986,565	0,1
986,986	0,11
987,407	0,12
987,827	0,14
988,248	0,15
988,668	0,17
989,088	0,18
989,509	0,2
989,929	0,21
990,35	0,22
990,77	0,23
991,19	0,24
991,61	0,25
992,031	0,26
992,451	0,27
992,871	0,28
993,291	0,29
993,711	0,29
994,131	0,3
994,551	0,31
994,971	0,32
995,391	0,32
995,811	0,33
996,231	0,34
996,651	0,35
997,071	0,35
997,491	0,36
997,911	0,37
998,331	0,38
998,75	0,39
999,17	0,39
999,59	0,4
1000,009	0,4
1000,429	0,41
1000,849	0,42
1001,268	0,42
1001,688	0,43
1002,107	0,43
1002,527	0,44
1002,946	0,44
1003,366	0,44
1003,785	0,45
1004,205	0,45
1004,624	0,46
1005,044	0,46
1005,463	0,46
1005,882	0,46
1006,301	0,46
1006,721	0,47
1007,14	0,47
1007,559	0,47
1007,978	0,47
1008,397	0,47
1008,816	0,47
1009,235	0,47
1009,655	0,47
1010,074	0,47
1010,492	0,47
1010,911	0,47
1011,33	0,47
1011,749	0,47
1012,168	0,47
1012,587	0,47
1013,006	0,47
1013,425	0,47
1013,843	0,46
1014,262	0,46
1014,681	0,46
1015,099	0,46
1015,518	0,46
1015,937	0,46
1016,355	0,46
1016,774	0,46
1017,192	0,46
1017,611	0,46
1018,029	0,46
1018,448	0,46
1018,866	0,46
1019,285	0,46
1019,703	0,46
1020,121	0,46
1020,54	0,46
1020,958	0,46
1021,376	0,46
1021,794	0,46
1022,213	0,46
1022,631	0,46
1023,049	0,46
1023,467	0,46
1023,885	0,46
1024,303	0,46
1024,721	0,46
1025,139	0,45
1025,557	0,45
1025,975	0,45
1026,393	0,45
1026,811	0,45
1027,229	0,45
1027,647	0,45
1028,065	0,45
1028,482	0,45
1028,9	0,45
1029,318	0,45
1029,735	0,44
1030,153	0,44
1030,571	0,44
1030,988	0,44
1031,406	0,44
1031,823	0,44
1032,241	0,44
1032,659	0,44
1033,076	0,45
1033,493	0,45
1033,911	0,45
1034,328	0,45
1034,746	0,45
1035,163	0,45
1035,58	0,45
1035,997	0,45
1036,415	0,45
1036,832	0,45
1037,249	0,45
1037,666	0,45
1038,083	0,45
1038,501	0,45
1038,918	0,45
1039,335	0,45
1039,752	0,45
1040,169	0,45
1040,586	0,44
1041,003	0,44
1041,419	0,45
1041,836	0,44
1042,253	0,44
1042,67	0,44
1043,087	0,44
1043,504	0,44
1043,92	0,44
1044,337	0,44
1044,754	0,44
1045,17	0,44
1045,587	0,44
1046,004	0,44
1046,42	0,44
1046,837	0,44
1047,253	0,44
1047,67	0,44
1048,086	0,44
1048,503	0,44
1048,919	0,44
1049,335	0,44
1049,752	0,44
1050,168	0,44
1050,584	0,44
1051,001	0,44
1051,417	0,44
1051,833	0,44
1052,249	0,44
1052,665	0,45
1053,081	0,45
1053,497	0,45
1053,914	0,45
1054,33	0,45
1054,746	0,45
1055,162	0,45
1055,578	0,45
1055,993	0,46
1056,409	0,46
1056,825	0,46
1057,241	0,46
1057,657	0,46
1058,073	0,46
1058,488	0,46
1058,904	0,46
1059,32	0,46
1059,736	0,46
1060,151	0,46
1060,567	0,46
1060,982	0,46
1061,398	0,46
1061,813	0,46
1062,229	0,46
1062,644	0,46
1063,06	0,46
1063,475	0,46
1063,891	0,46
1064,306	0,46
1064,721	0,45
1065,137	0,45
1065,552	0,45
1065,967	0,45
1066,382	0,45
1066,798	0,45
1067,213	0,45
1067,628	0,45
1068,043	0,45
1068,458	0,45
1068,873	0,45
1069,288	0,45
1069,703	0,45
1070,118	0,45
1070,533	0,45
1070,948	0,45
1071,363	0,45
1071,778	0,45
1072,193	0,45
1072,607	0,45
1073,022	0,45
1073,437	0,45
1073,852	0,46
1074,266	0,46
1074,681	0,46
1075,096	0,46
1075,51	0,46
1075,925	0,46
1076,339	0,46
1076,754	0,45
1077,168	0,45
1077,583	0,45
1077,997	0,45
1078,412	0,45
1078,826	0,45
1079,24	0,45
1079,655	0,45
1080,069	0,45
1080,483	0,44
1080,897	0,44
1081,312	0,44
1081,726	0,44
1082,14	0,44
1082,554	0,44
1082,968	0,44
1083,382	0,44
1083,796	0,44
1084,21	0,43
1084,624	0,43
1085,038	0,43
1085,452	0,43
1085,866	0,43
1086,28	0,43
1086,694	0,42
1087,108	0,43
1087,521	0,42
1087,935	0,42
1088,349	0,42
1088,763	0,41
1089,176	0,41
1089,59	0,41
1090,004	0,41
1090,417	0,4
1090,831	0,4
1091,244	0,4
1091,658	0,39
1092,071	0,39
1092,485	0,39
1092,898	0,39
1093,312	0,39
1093,725	0,38
1094,138	0,38
1094,552	0,38
1094,965	0,38
1095,378	0,38
1095,791	0,37
1096,205	0,37
1096,618	0,37
1097,031	0,36
1097,444	0,36
1097,857	0,36
1098,27	0,35
1098,683	0,35
1099,096	0,35
1099,509	0,34
1099,922	0,34
1100,335	0,33
1100,748	0,33
1101,161	0,32
1101,574	0,32
1101,986	0,31
1102,399	0,31
1102,812	0,31
1103,225	0,3
1103,637	0,29
1104,05	0,29
1104,463	0,29
1104,875	0,28
1105,288	0,28
1105,7	0,28
1106,113	0,27
1106,525	0,27
1106,938	0,26
1107,35	0,26
1107,763	0,26
1108,175	0,25
1108,588	0,25
1109	0,25
1109,412	0,24
1109,824	0,24
1110,237	0,24
1110,649	0,24
1111,061	0,24
