Data from 18C-808nm-8A-cont_Absorbance__684__02113.txt Node

Date: Mon Jul 17 17:45:05 CEST 2023
User: Laser008
Spectrometer: MAYP115816
Trigger mode: 0
Integration Time (sec): 2,500000E-1
Scans to average: 10
Electric dark correction enabled: true
Nonlinearity correction enabled: true
Boxcar width: 5
XAxis mode: Wavelengths
Number of Pixels in Spectrum: 2068
>>>>>Begin Spectral Data<<<<<
198,914	-0,64
199,384	-0,43
199,855	-0,32
200,325	-0,24
200,796	-0,2
201,266	-0,15
201,737	-0,13
202,207	-0,12
202,677	-0,11
203,147	-0,1
203,618	-0,07
204,088	-0,05
204,558	-0,04
205,028	-0,03
205,498	-0,04
205,968	-0,04
206,439	-0,06
206,909	-0,05
207,379	-0,06
207,849	-0,06
208,319	-0,06
208,789	-0,06
209,258	-0,07
209,728	-0,08
210,198	-0,08
210,668	-0,08
211,138	-0,07
211,608	-0,07
212,077	-0,07
212,547	-0,06
213,017	-0,07
213,486	-0,08
213,956	-0,09
214,426	-0,1
214,895	-0,09
215,365	-0,09
215,834	-0,1
216,304	-0,12
216,773	-0,12
217,243	-0,13
217,712	-0,15
218,181	-0,14
218,651	-0,14
219,12	-0,13
219,589	-0,14
220,058	-0,13
220,528	-0,15
220,997	-0,16
221,466	-0,16
221,935	-0,16
222,404	-0,15
222,873	-0,14
223,342	-0,14
223,812	-0,15
224,281	-0,15
224,749	-0,15
225,218	-0,16
225,687	-0,16
226,156	-0,14
226,625	-0,13
227,094	-0,13
227,563	-0,14
228,031	-0,15
228,5	-0,15
228,969	-0,16
229,438	-0,15
229,906	-0,14
230,375	-0,14
230,844	-0,13
231,312	-0,12
231,781	-0,13
232,249	-0,12
232,718	-0,12
233,186	-0,1
233,655	-0,1
234,123	-0,1
234,591	-0,09
235,06	-0,09
235,528	-0,1
235,996	-0,09
236,465	-0,09
236,933	-0,1
237,401	-0,09
237,869	-0,08
238,337	-0,08
238,805	-0,08
239,274	-0,07
239,742	-0,07
240,21	-0,07
240,678	-0,07
241,146	-0,06
241,614	-0,06
242,081	-0,05
242,549	-0,06
243,017	-0,06
243,485	-0,07
243,953	-0,07
244,421	-0,07
244,888	-0,07
245,356	-0,07
245,824	-0,06
246,291	-0,06
246,759	-0,07
247,227	-0,08
247,694	-0,07
248,162	-0,06
248,629	-0,06
249,097	-0,07
249,564	-0,07
250,032	-0,08
250,499	-0,08
250,967	-0,09
251,434	-0,1
251,901	-0,09
252,369	-0,09
252,836	-0,11
253,303	-0,12
253,77	-0,13
254,237	-0,12
254,705	-0,13
255,172	-0,12
255,639	-0,12
256,106	-0,13
256,573	-0,13
257,04	-0,14
257,507	-0,14
257,974	-0,15
258,441	-0,13
258,908	-0,14
259,375	-0,16
259,841	-0,15
260,308	-0,16
260,775	-0,17
261,242	-0,15
261,709	-0,16
262,175	-0,17
262,642	-0,17
263,109	-0,16
263,575	-0,18
264,042	-0,16
264,508	-0,16
264,975	-0,18
265,441	-0,19
265,908	-0,18
266,374	-0,17
266,841	-0,17
267,307	-0,16
267,773	-0,16
268,24	-0,17
268,706	-0,17
269,172	-0,17
269,639	-0,17
270,105	-0,15
270,571	-0,17
271,037	-0,17
271,503	-0,19
271,969	-0,18
272,435	-0,18
272,902	-0,2
273,368	-0,21
273,834	-0,2
274,3	-0,21
274,765	-0,21
275,231	-0,21
275,697	-0,19
276,163	-0,19
276,629	-0,19
277,095	-0,2
277,56	-0,2
278,026	-0,2
278,492	-0,18
278,958	-0,19
279,423	-0,2
279,889	-0,2
280,354	-0,2
280,82	-0,2
281,286	-0,22
281,751	-0,21
282,217	-0,2
282,682	-0,21
283,147	-0,2
283,613	-0,21
284,078	-0,2
284,544	-0,2
285,009	-0,2
285,474	-0,2
285,939	-0,2
286,405	-0,19
286,87	-0,18
287,335	-0,18
287,8	-0,17
288,265	-0,16
288,73	-0,17
289,195	-0,19
289,66	-0,19
290,125	-0,18
290,59	-0,19
291,055	-0,18
291,52	-0,19
291,985	-0,19
292,45	-0,21
292,915	-0,21
293,38	-0,21
293,844	-0,19
294,309	-0,19
294,774	-0,17
295,239	-0,19
295,703	-0,19
296,168	-0,18
296,632	-0,18
297,097	-0,16
297,562	-0,14
298,026	-0,15
298,491	-0,15
298,955	-0,15
299,419	-0,14
299,884	-0,14
300,348	-0,13
300,813	-0,12
301,277	-0,12
301,741	-0,13
302,205	-0,13
302,67	-0,12
303,134	-0,12
303,598	-0,11
304,062	-0,11
304,526	-0,11
304,99	-0,11
305,454	-0,11
305,919	-0,1
306,383	-0,11
306,847	-0,09
307,31	-0,11
307,774	-0,12
308,238	-0,11
308,702	-0,11
309,166	-0,12
309,63	-0,11
310,094	-0,1
310,557	-0,1
311,021	-0,1
311,485	-0,1
311,948	-0,1
312,412	-0,08
312,876	-0,07
313,339	-0,08
313,803	-0,08
314,266	-0,08
314,73	-0,09
315,193	-0,08
315,657	-0,07
316,12	-0,07
316,584	-0,06
317,047	-0,06
317,51	-0,05
317,973	-0,05
318,437	-0,05
318,9	-0,04
319,363	-0,03
319,826	-0,02
320,29	-0,04
320,753	-0,04
321,216	-0,04
321,679	-0,04
322,142	-0,04
322,605	-0,05
323,068	-0,04
323,531	-0,04
323,994	-0,02
324,457	-0,02
324,92	-0,01
325,382	0
325,845	0,01
326,308	0,01
326,771	0,01
327,233	0,02
327,696	0,03
328,159	0,04
328,622	0,04
329,084	0,04
329,547	0,04
330,009	0,05
330,472	0,06
330,934	0,07
331,397	0,07
331,859	0,08
332,322	0,08
332,784	0,09
333,246	0,09
333,709	0,09
334,171	0,09
334,633	0,09
335,096	0,09
335,558	0,09
336,02	0,09
336,482	0,09
336,944	0,1
337,406	0,12
337,868	0,12
338,331	0,12
338,793	0,13
339,255	0,14
339,717	0,15
340,178	0,16
340,64	0,17
341,102	0,18
341,564	0,18
342,026	0,2
342,488	0,2
342,949	0,22
343,411	0,26
343,873	0,29
344,335	0,31
344,796	0,35
345,258	0,4
345,719	0,44
346,181	0,5
346,643	0,55
347,104	0,59
347,566	0,63
348,027	0,67
348,488	0,69
348,95	0,72
349,411	0,75
349,873	0,79
350,334	0,81
350,795	0,84
351,256	0,85
351,718	0,86
352,179	0,87
352,64	0,88
353,101	0,88
353,562	0,89
354,023	0,89
354,484	0,89
354,945	0,9
355,406	0,9
355,867	0,9
356,328	0,91
356,789	0,91
357,25	0,91
357,711	0,91
358,172	0,92
358,633	0,92
359,093	0,92
359,554	0,92
360,015	0,92
360,476	0,93
360,936	0,93
361,397	0,93
361,858	0,93
362,318	0,93
362,779	0,93
363,239	0,93
363,7	0,94
364,16	0,94
364,621	0,94
365,081	0,94
365,541	0,94
366,002	0,94
366,462	0,94
366,922	0,94
367,383	0,94
367,843	0,94
368,303	0,94
368,763	0,94
369,223	0,94
369,684	0,94
370,144	0,94
370,604	0,94
371,064	0,94
371,524	0,94
371,984	0,94
372,444	0,94
372,904	0,94
373,363	0,94
373,823	0,94
374,283	0,93
374,743	0,93
375,203	0,93
375,663	0,93
376,122	0,93
376,582	0,93
377,042	0,93
377,501	0,93
377,961	0,93
378,42	0,93
378,88	0,93
379,34	0,93
379,799	0,93
380,259	0,93
380,718	0,93
381,177	0,93
381,637	0,93
382,096	0,93
382,555	0,93
383,015	0,93
383,474	0,93
383,933	0,93
384,393	0,93
384,852	0,93
385,311	0,93
385,77	0,93
386,229	0,93
386,688	0,93
387,147	0,93
387,606	0,93
388,065	0,93
388,524	0,93
388,983	0,93
389,442	0,93
389,901	0,93
390,36	0,92
390,819	0,92
391,277	0,92
391,736	0,92
392,195	0,92
392,654	0,92
393,112	0,92
393,571	0,92
394,03	0,92
394,488	0,92
394,947	0,92
395,405	0,92
395,864	0,92
396,322	0,92
396,781	0,92
397,239	0,92
397,698	0,92
398,156	0,92
398,614	0,92
399,073	0,92
399,531	0,92
399,989	0,92
400,447	0,92
400,905	0,92
401,364	0,92
401,822	0,92
402,28	0,92
402,738	0,92
403,196	0,92
403,654	0,92
404,112	0,92
404,57	0,92
405,028	0,92
405,486	0,92
405,944	0,91
406,402	0,91
406,859	0,91
407,317	0,91
407,775	0,92
408,233	0,91
408,691	0,91
409,148	0,91
409,606	0,91
410,064	0,91
410,521	0,91
410,979	0,91
411,436	0,91
411,894	0,91
412,351	0,91
412,809	0,91
413,266	0,91
413,724	0,91
414,181	0,91
414,638	0,91
415,096	0,91
415,553	0,91
416,01	0,91
416,467	0,91
416,925	0,91
417,382	0,91
417,839	0,91
418,296	0,91
418,753	0,91
419,21	0,91
419,667	0,91
420,124	0,91
420,581	0,91
421,038	0,91
421,495	0,91
421,952	0,91
422,409	0,91
422,866	0,91
423,322	0,91
423,779	0,91
424,236	0,91
424,693	0,91
425,149	0,91
425,606	0,91
426,063	0,91
426,519	0,91
426,976	0,91
427,433	0,91
427,889	0,91
428,346	0,91
428,802	0,91
429,258	0,91
429,715	0,91
430,171	0,91
430,628	0,91
431,084	0,91
431,54	0,91
431,997	0,91
432,453	0,91
432,909	0,91
433,365	0,91
433,821	0,9
434,277	0,9
434,734	0,9
435,19	0,9
435,646	0,9
436,102	0,9
436,558	0,9
437,014	0,9
437,47	0,9
437,925	0,9
438,381	0,9
438,837	0,91
439,293	0,91
439,749	0,91
440,205	0,91
440,66	0,91
441,116	0,91
441,572	0,91
442,027	0,91
442,483	0,91
442,939	0,91
443,394	0,91
443,85	0,91
444,305	0,91
444,761	0,91
445,216	0,91
445,672	0,91
446,127	0,91
446,582	0,91
447,038	0,91
447,493	0,91
447,948	0,91
448,403	0,91
448,859	0,91
449,314	0,91
449,769	0,92
450,224	0,92
450,679	0,92
451,134	0,92
451,589	0,92
452,044	0,92
452,499	0,92
452,954	0,92
453,409	0,92
453,864	0,92
454,319	0,92
454,774	0,92
455,229	0,92
455,684	0,92
456,138	0,92
456,593	0,92
457,048	0,92
457,503	0,92
457,957	0,92
458,412	0,92
458,866	0,92
459,321	0,92
459,776	0,92
460,23	0,92
460,685	0,92
461,139	0,92
461,593	0,93
462,048	0,93
462,502	0,93
462,957	0,93
463,411	0,93
463,865	0,93
464,319	0,93
464,774	0,93
465,228	0,93
465,682	0,93
466,136	0,94
466,59	0,94
467,044	0,94
467,499	0,94
467,953	0,94
468,407	0,94
468,861	0,94
469,315	0,94
469,768	0,94
470,222	0,94
470,676	0,94
471,13	0,95
471,584	0,95
472,038	0,95
472,491	0,95
472,945	0,95
473,399	0,95
473,852	0,95
474,306	0,95
474,76	0,95
475,213	0,96
475,667	0,96
476,12	0,96
476,574	0,96
477,027	0,96
477,481	0,96
477,934	0,97
478,388	0,97
478,841	0,97
479,294	0,97
479,748	0,97
480,201	0,98
480,654	0,98
481,107	0,98
481,561	0,98
482,014	0,98
482,467	0,98
482,92	0,99
483,373	0,99
483,826	0,99
484,279	0,99
484,732	1
485,185	1
485,638	1
486,091	1
486,544	1,01
486,997	1,01
487,449	1,01
487,902	1,01
488,355	1,02
488,808	1,02
489,26	1,02
489,713	1,02
490,166	1,03
490,618	1,03
491,071	1,03
491,523	1,04
491,976	1,04
492,429	1,04
492,881	1,05
493,333	1,05
493,786	1,05
494,238	1,06
494,691	1,06
495,143	1,07
495,595	1,07
496,048	1,07
496,5	1,08
496,952	1,08
497,404	1,09
497,856	1,09
498,309	1,09
498,761	1,1
499,213	1,1
499,665	1,11
500,117	1,11
500,569	1,12
501,021	1,12
501,473	1,12
501,925	1,13
502,377	1,13
502,828	1,14
503,28	1,14
503,732	1,15
504,184	1,15
504,636	1,16
505,087	1,16
505,539	1,16
505,991	1,17
506,442	1,17
506,894	1,18
507,345	1,18
507,797	1,19
508,249	1,19
508,7	1,2
509,151	1,2
509,603	1,21
510,054	1,21
510,506	1,21
510,957	1,22
511,408	1,22
511,86	1,22
512,311	1,23
512,762	1,23
513,213	1,23
513,665	1,24
514,116	1,24
514,567	1,24
515,018	1,25
515,469	1,25
515,92	1,26
516,371	1,26
516,822	1,26
517,273	1,27
517,724	1,27
518,175	1,27
518,626	1,28
519,076	1,28
519,527	1,28
519,978	1,28
520,429	1,29
520,88	1,29
521,33	1,29
521,781	1,29
522,232	1,29
522,682	1,29
523,133	1,29
523,583	1,3
524,034	1,3
524,484	1,3
524,935	1,3
525,385	1,3
525,836	1,3
526,286	1,3
526,736	1,3
527,187	1,3
527,637	1,3
528,087	1,3
528,538	1,3
528,988	1,3
529,438	1,3
529,888	1,3
530,338	1,3
530,788	1,29
531,238	1,29
531,688	1,29
532,139	1,29
532,589	1,29
533,038	1,28
533,488	1,28
533,938	1,28
534,388	1,28
534,838	1,27
535,288	1,27
535,738	1,27
536,187	1,26
536,637	1,26
537,087	1,25
537,537	1,25
537,986	1,25
538,436	1,24
538,885	1,23
539,335	1,23
539,785	1,22
540,234	1,22
540,684	1,21
541,133	1,21
541,582	1,2
542,032	1,19
542,481	1,19
542,931	1,18
543,38	1,17
543,829	1,17
544,278	1,16
544,728	1,15
545,177	1,15
545,626	1,14
546,075	1,14
546,524	1,13
546,973	1,13
547,422	1,12
547,871	1,12
548,32	1,12
548,769	1,11
549,218	1,11
549,667	1,11
550,116	1,11
550,565	1,1
551,014	1,1
551,463	1,09
551,911	1,09
552,36	1,09
552,809	1,08
553,258	1,08
553,706	1,07
554,155	1,07
554,603	1,06
555,052	1,06
555,501	1,05
555,949	1,04
556,398	1,04
556,846	1,03
557,294	1,03
557,743	1,02
558,191	1,02
558,64	1,01
559,088	1
559,536	1
559,985	0,99
560,433	0,99
560,881	0,98
561,329	0,98
561,777	0,97
562,225	0,97
562,674	0,96
563,122	0,96
563,57	0,95
564,018	0,95
564,466	0,94
564,914	0,94
565,362	0,93
565,809	0,93
566,257	0,92
566,705	0,92
567,153	0,91
567,601	0,91
568,048	0,91
568,496	0,9
568,944	0,9
569,392	0,89
569,839	0,89
570,287	0,89
570,734	0,88
571,182	0,88
571,63	0,87
572,077	0,87
572,525	0,86
572,972	0,86
573,419	0,86
573,867	0,85
574,314	0,85
574,761	0,84
575,209	0,84
575,656	0,83
576,103	0,83
576,551	0,83
576,998	0,82
577,445	0,82
577,892	0,82
578,339	0,81
578,786	0,81
579,233	0,81
579,68	0,8
580,127	0,8
580,574	0,8
581,021	0,79
581,468	0,79
581,915	0,79
582,362	0,78
582,809	0,78
583,255	0,78
583,702	0,77
584,149	0,77
584,596	0,77
585,042	0,76
585,489	0,76
585,936	0,76
586,382	0,75
586,829	0,75
587,275	0,75
587,722	0,75
588,168	0,74
588,615	0,74
589,061	0,74
589,508	0,74
589,954	0,74
590,4	0,73
590,847	0,73
591,293	0,73
591,739	0,73
592,185	0,72
592,632	0,72
593,078	0,72
593,524	0,72
593,97	0,72
594,416	0,72
594,862	0,72
595,308	0,71
595,754	0,71
596,2	0,71
596,646	0,71
597,092	0,7
597,538	0,7
597,984	0,7
598,43	0,7
598,876	0,7
599,321	0,7
599,767	0,69
600,213	0,69
600,659	0,69
601,104	0,69
601,55	0,69
601,995	0,69
602,441	0,68
602,887	0,68
603,332	0,68
603,778	0,68
604,223	0,68
604,668	0,68
605,114	0,68
605,559	0,68
606,005	0,68
606,45	0,68
606,895	0,68
607,341	0,67
607,786	0,67
608,231	0,67
608,676	0,66
609,121	0,65
609,566	0,64
610,012	0,64
610,457	0,63
610,902	0,63
611,347	0,62
611,792	0,62
612,237	0,62
612,682	0,62
613,127	0,62
613,571	0,62
614,016	0,62
614,461	0,63
614,906	0,63
615,351	0,63
615,795	0,64
616,24	0,64
616,685	0,64
617,129	0,64
617,574	0,64
618,019	0,64
618,463	0,64
618,908	0,64
619,352	0,64
619,797	0,64
620,241	0,64
620,686	0,63
621,13	0,63
621,574	0,63
622,019	0,63
622,463	0,63
622,907	0,63
623,352	0,63
623,796	0,63
624,24	0,63
624,684	0,62
625,128	0,62
625,572	0,62
626,016	0,62
626,461	0,62
626,905	0,62
627,349	0,62
627,793	0,62
628,236	0,62
628,68	0,62
629,124	0,62
629,568	0,62
630,012	0,62
630,456	0,62
630,9	0,62
631,343	0,62
631,787	0,62
632,231	0,62
632,674	0,62
633,118	0,62
633,562	0,62
634,005	0,62
634,449	0,62
634,892	0,62
635,336	0,62
635,779	0,61
636,223	0,61
636,666	0,61
637,109	0,61
637,553	0,61
637,996	0,61
638,439	0,61
638,883	0,61
639,326	0,61
639,769	0,61
640,212	0,61
640,655	0,61
641,099	0,61
641,542	0,61
641,985	0,61
642,428	0,61
642,871	0,61
643,314	0,61
643,757	0,61
644,2	0,61
644,643	0,6
645,085	0,6
645,528	0,6
645,971	0,6
646,414	0,6
646,857	0,6
647,299	0,6
647,742	0,6
648,185	0,6
648,627	0,6
649,07	0,59
649,513	0,59
649,955	0,59
650,398	0,59
650,84	0,59
651,283	0,59
651,725	0,59
652,168	0,59
652,61	0,59
653,052	0,59
653,495	0,59
653,937	0,5
654,379	0,45
654,821	0,45
655,264	0,45
655,706	0,45
656,148	0,45
656,59	0,45
657,032	0,45
657,474	0,45
657,916	0,45
658,358	0,45
658,8	0,51
659,242	0,59
659,684	0,59
660,126	0,59
660,568	0,59
661,01	0,59
661,452	0,59
661,894	0,59
662,335	0,59
662,777	0,59
663,219	0,59
663,661	0,59
664,102	0,59
664,544	0,59
664,985	0,59
665,427	0,59
665,869	0,59
666,31	0,59
666,752	0,59
667,193	0,59
667,634	0,59
668,076	0,59
668,517	0,59
668,959	0,59
669,4	0,59
669,841	0,59
670,282	0,59
670,724	0,59
671,165	0,59
671,606	0,59
672,047	0,59
672,488	0,58
672,929	0,58
673,37	0,58
673,811	0,58
674,252	0,58
674,693	0,58
675,134	0,58
675,575	0,58
676,016	0,58
676,457	0,58
676,898	0,58
677,339	0,58
677,78	0,58
678,22	0,58
678,661	0,58
679,102	0,58
679,542	0,58
679,983	0,58
680,424	0,58
680,864	0,58
681,305	0,58
681,745	0,58
682,186	0,58
682,626	0,58
683,067	0,59
683,507	0,58
683,948	0,58
684,388	0,58
684,828	0,58
685,269	0,58
685,709	0,58
686,149	0,58
686,589	0,58
687,029	0,58
687,47	0,58
687,91	0,58
688,35	0,58
688,79	0,58
689,23	0,58
689,67	0,57
690,11	0,57
690,55	0,57
690,99	0,57
691,43	0,57
691,87	0,57
692,31	0,57
692,749	0,57
693,189	0,57
693,629	0,57
694,069	0,57
694,508	0,57
694,948	0,57
695,388	0,57
695,827	0,57
696,267	0,57
696,706	0,57
697,146	0,57
697,586	0,57
698,025	0,57
698,464	0,57
698,904	0,57
699,343	0,57
699,783	0,57
700,222	0,58
700,661	0,58
701,101	0,58
701,54	0,58
701,979	0,57
702,418	0,57
702,857	0,57
703,297	0,57
703,736	0,57
704,175	0,58
704,614	0,57
705,053	0,57
705,492	0,57
705,931	0,57
706,37	0,57
706,809	0,57
707,248	0,57
707,687	0,57
708,125	0,57
708,564	0,56
709,003	0,56
709,442	0,56
709,88	0,56
710,319	0,56
710,758	0,56
711,196	0,56
711,635	0,56
712,074	0,56
712,512	0,56
712,951	0,56
713,389	0,56
713,828	0,56
714,266	0,56
714,705	0,56
715,143	0,56
715,581	0,56
716,02	0,56
716,458	0,56
716,896	0,56
717,334	0,56
717,773	0,56
718,211	0,56
718,649	0,56
719,087	0,56
719,525	0,56
719,963	0,56
720,401	0,56
720,839	0,56
721,277	0,56
721,715	0,56
722,153	0,56
722,591	0,56
723,029	0,56
723,467	0,56
723,905	0,56
724,342	0,56
724,78	0,56
725,218	0,56
725,656	0,56
726,093	0,56
726,531	0,56
726,969	0,56
727,406	0,56
727,844	0,56
728,281	0,56
728,719	0,55
729,156	0,55
729,594	0,55
730,031	0,55
730,469	0,55
730,906	0,55
731,343	0,55
731,781	0,55
732,218	0,55
732,655	0,55
733,092	0,55
733,53	0,55
733,967	0,55
734,404	0,55
734,841	0,55
735,278	0,55
735,715	0,55
736,152	0,55
736,589	0,55
737,026	0,55
737,463	0,55
737,9	0,55
738,337	0,55
738,774	0,55
739,211	0,55
739,647	0,55
740,084	0,55
740,521	0,55
740,958	0,55
741,394	0,55
741,831	0,55
742,268	0,55
742,704	0,55
743,141	0,55
743,577	0,55
744,014	0,55
744,45	0,55
744,887	0,54
745,323	0,54
745,76	0,54
746,196	0,54
746,632	0,54
747,069	0,54
747,505	0,54
747,941	0,54
748,378	0,54
748,814	0,54
749,25	0,54
749,686	0,54
750,122	0,54
750,558	0,54
750,994	0,54
751,43	0,54
751,866	0,54
752,302	0,54
752,738	0,54
753,174	0,54
753,61	0,54
754,046	0,54
754,482	0,54
754,918	0,53
755,354	0,53
755,789	0,53
756,225	0,53
756,661	0,53
757,096	0,53
757,532	0,53
757,968	0,52
758,403	0,52
758,839	0,52
759,274	0,51
759,71	0,51
760,145	0,5
760,581	0,5
761,016	0,49
761,452	0,48
761,887	0,48
762,322	0,47
762,758	0,47
763,193	0,46
763,628	0,45
764,063	0,44
764,499	0,44
764,934	0,43
765,369	0,42
765,804	0,41
766,239	0,41
766,674	0,4
767,109	0,39
767,544	0,38
767,979	0,37
768,414	0,36
768,849	0,35
769,284	0,34
769,719	0,33
770,154	0,32
770,588	0,31
771,023	0,29
771,458	0,28
771,893	0,27
772,327	0,25
772,762	0,24
773,197	0,23
773,631	0,22
774,066	0,21
774,5	0,2
774,935	0,18
775,369	0,17
775,804	0,16
776,238	0,15
776,673	0,14
777,107	0,13
777,541	0,12
777,976	0,11
778,41	0,11
778,844	0,09
779,279	0,08
779,713	0,08
780,147	0,06
780,581	0,06
781,015	0,05
781,449	0,04
781,883	0,03
782,317	0,01
782,751	-0,01
783,185	-0,02
783,619	-0,03
784,053	-0,04
784,487	-0,05
784,921	-0,06
785,355	-0,06
785,789	-0,07
786,223	-0,08
786,656	-0,09
787,09	-0,1
787,524	-0,1
787,957	-0,11
788,391	-0,13
788,825	-0,15
789,258	-0,16
789,692	-0,17
790,125	-0,19
790,559	-0,21
790,992	-0,23
791,426	-0,26
791,859	-0,27
792,293	-0,31
792,726	-0,32
793,159	-0,34
793,593	-0,36
794,026	-0,38
794,459	-0,42
794,892	-0,45
795,326	-0,47
795,759	-0,51
796,192	-0,56
796,625	-0,6
797,058	-0,62
797,491	-0,66
797,924	-0,7
798,357	-0,75
798,79	-0,79
799,223	-0,83
799,656	-0,89
800,089	-0,94
800,522	-0,98
800,955	-1,02
801,387	-1,08
801,82	-1,14
802,253	-1,2
802,686	-1,28
803,118	-1,34
803,551	-1,39
803,984	-1,43
804,416	-1,47
804,849	-1,5
805,281	-1,63
805,714	-1,99
806,146	-2,44
806,579	-2,7
807,011	-2,87
807,444	-2,96
807,876	-3,06
808,308	-3,09
808,741	-3,12
809,173	-3,18
809,605	-3,2
810,037	-3,27
810,47	-3,19
810,902	-3
811,334	-2,85
811,766	-2,71
812,198	-2,48
812,63	-2,05
813,062	-1,8
813,494	-1,7
813,926	-1,61
814,358	-1,55
814,79	-1,47
815,222	-1,41
815,654	-1,36
816,086	-1,3
816,518	-1,24
816,949	-1,19
817,381	-1,15
817,813	-1,13
818,245	-1,09
818,676	-1,05
819,108	-1,02
819,54	-1,01
819,971	-0,98
820,403	-0,93
820,834	-0,92
821,266	-0,87
821,697	-0,85
822,129	-0,84
822,56	-0,81
822,991	-0,79
823,423	-0,76
823,854	-0,75
824,286	-0,72
824,717	-0,7
825,148	-0,69
825,579	-0,68
826,01	-0,67
826,442	-0,66
826,873	-0,64
827,304	-0,61
827,735	-0,6
828,166	-0,61
828,597	-0,61
829,028	-0,6
829,459	-0,61
829,89	-0,61
830,321	-0,56
830,752	-0,57
831,183	-0,56
831,613	-0,55
832,044	-0,55
832,475	-0,54
832,906	-0,55
833,336	-0,56
833,767	-0,56
834,198	-0,54
834,628	-0,52
835,059	-0,55
835,49	-0,56
835,92	-0,53
836,351	-0,54
836,781	-0,53
837,212	-0,54
837,642	-0,54
838,072	-0,52
838,503	-0,53
838,933	-0,51
839,364	-0,52
839,794	-0,5
840,224	-0,5
840,654	-0,55
841,085	-0,55
841,515	-0,53
841,945	-0,53
842,375	-0,49
842,805	-0,48
843,235	-0,47
843,665	-0,49
844,095	-0,48
844,525	-0,49
844,955	-0,49
845,385	-0,47
845,815	-0,45
846,245	-0,47
846,675	-0,47
847,105	-0,49
847,534	-0,49
847,964	-0,47
848,394	-0,45
848,824	-0,47
849,253	-0,46
849,683	-0,46
850,112	-0,47
850,542	-0,51
850,972	-0,51
851,401	-0,49
851,831	-0,47
852,26	-0,47
852,69	-0,51
853,119	-0,5
853,548	-0,5
853,978	-0,51
854,407	-0,5
854,836	-0,5
855,266	-0,48
855,695	-0,5
856,124	-0,51
856,553	-0,53
856,983	-0,55
857,412	-0,54
857,841	-0,56
858,27	-0,56
858,699	-0,57
859,128	-0,6
859,557	-0,61
859,986	-0,63
860,415	-0,6
860,844	-0,57
861,273	-0,58
861,702	-0,59
862,13	-0,57
862,559	-0,58
862,988	-0,56
863,417	-0,55
863,845	-0,54
864,274	-0,54
864,703	-0,54
865,131	-0,55
865,56	-0,57
865,989	-0,6
866,417	-0,57
866,846	-0,57
867,274	-0,56
867,703	-0,59
868,131	-0,6
868,559	-0,59
868,988	-0,62
869,416	-0,59
869,844	-0,6
870,273	-0,62
870,701	-0,6
871,129	-0,63
871,557	-0,66
871,986	-0,66
872,414	-0,68
872,842	-0,65
873,27	-0,63
873,698	-0,6
874,126	-0,65
874,554	-0,62
874,982	-0,62
875,41	-0,64
875,838	-0,59
876,266	-0,56
876,694	-0,57
877,122	-0,55
877,549	-0,59
877,977	-0,57
878,405	-0,6
878,833	-0,56
879,26	-0,56
879,688	-0,56
880,116	-0,54
880,543	-0,53
880,971	-0,52
881,399	-0,54
881,826	-0,55
882,254	-0,54
882,681	-0,58
883,109	-0,54
883,536	-0,56
883,963	-0,57
884,391	-0,55
884,818	-0,54
885,245	-0,57
885,673	-0,6
886,1	-0,56
886,527	-0,57
886,954	-0,53
887,381	-0,55
887,809	-0,55
888,236	-0,56
888,663	-0,57
889,09	-0,61
889,517	-0,63
889,944	-0,62
890,371	-0,61
890,798	-0,62
891,225	-0,62
891,652	-0,65
892,078	-0,62
892,505	-0,65
892,932	-0,61
893,359	-0,62
893,786	-0,62
894,212	-0,58
894,639	-0,6
895,066	-0,63
895,492	-0,57
895,919	-0,57
896,346	-0,56
896,772	-0,57
897,199	-0,55
897,625	-0,57
898,052	-0,53
898,478	-0,51
898,904	-0,53
899,331	-0,53
899,757	-0,54
900,183	-0,57
900,61	-0,55
901,036	-0,55
901,462	-0,54
901,888	-0,53
902,315	-0,52
902,741	-0,58
903,167	-0,57
903,593	-0,59
904,019	-0,57
904,445	-0,54
904,871	-0,56
905,297	-0,58
905,723	-0,58
906,149	-0,57
906,575	-0,58
907,001	-0,58
907,427	-0,55
907,852	-0,54
908,278	-0,54
908,704	-0,53
909,13	-0,52
909,555	-0,51
909,981	-0,51
910,407	-0,5
910,832	-0,5
911,258	-0,51
911,684	-0,52
912,109	-0,52
912,535	-0,53
912,96	-0,5
913,386	-0,54
913,811	-0,54
914,236	-0,56
914,662	-0,53
915,087	-0,57
915,512	-0,57
915,938	-0,58
916,363	-0,56
916,788	-0,57
917,213	-0,56
917,639	-0,6
918,064	-0,57
918,489	-0,57
918,914	-0,58
919,339	-0,59
919,764	-0,58
920,189	-0,58
920,614	-0,6
921,039	-0,6
921,464	-0,56
921,889	-0,59
922,314	-0,61
922,738	-0,65
923,163	-0,66
923,588	-0,66
924,013	-0,66
924,437	-0,65
924,862	-0,65
925,287	-0,61
925,711	-0,62
926,136	-0,63
926,561	-0,62
926,985	-0,6
927,41	-0,57
927,834	-0,54
928,259	-0,51
928,683	-0,49
929,108	-0,46
929,532	-0,48
929,956	-0,46
930,381	-0,45
930,805	-0,45
931,229	-0,43
931,653	-0,42
932,078	-0,42
932,502	-0,43
932,926	-0,44
933,35	-0,44
933,774	-0,44
934,198	-0,41
934,622	-0,41
935,046	-0,42
935,47	-0,42
935,894	-0,42
936,318	-0,42
936,742	-0,42
937,166	-0,43
937,59	-0,42
938,014	-0,44
938,437	-0,44
938,861	-0,47
939,285	-0,47
939,709	-0,46
940,132	-0,47
940,556	-0,47
940,98	-0,46
941,403	-0,45
941,827	-0,45
942,25	-0,46
942,674	-0,46
943,097	-0,46
943,521	-0,46
943,944	-0,47
944,368	-0,47
944,791	-0,46
945,214	-0,48
945,638	-0,48
946,061	-0,51
946,484	-0,52
946,907	-0,52
947,331	-0,52
947,754	-0,55
948,177	-0,52
948,6	-0,52
949,023	-0,52
949,446	-0,52
949,869	-0,5
950,292	-0,5
950,715	-0,47
951,138	-0,44
951,561	-0,42
951,984	-0,42
952,407	-0,4
952,83	-0,39
953,252	-0,35
953,675	-0,35
954,098	-0,35
954,521	-0,34
954,943	-0,33
955,366	-0,35
955,789	-0,33
956,211	-0,35
956,634	-0,36
957,056	-0,34
957,479	-0,35
957,902	-0,37
958,324	-0,38
958,746	-0,36
959,169	-0,37
959,591	-0,38
960,014	-0,38
960,436	-0,38
960,858	-0,37
961,281	-0,36
961,703	-0,38
962,125	-0,38
962,547	-0,36
962,969	-0,37
963,391	-0,37
963,814	-0,38
964,236	-0,37
964,658	-0,35
965,08	-0,34
965,502	-0,33
965,924	-0,31
966,346	-0,31
966,768	-0,29
967,189	-0,32
967,611	-0,31
968,033	-0,31
968,455	-0,29
968,877	-0,31
969,298	-0,32
969,72	-0,33
970,142	-0,32
970,563	-0,33
970,985	-0,31
971,407	-0,3
971,828	-0,27
972,25	-0,27
972,671	-0,26
973,093	-0,26
973,514	-0,23
973,936	-0,21
974,357	-0,2
974,778	-0,2
975,2	-0,18
975,621	-0,18
976,042	-0,16
976,464	-0,16
976,885	-0,14
977,306	-0,12
977,727	-0,11
978,148	-0,1
978,57	-0,08
978,991	-0,07
979,412	-0,06
979,833	-0,05
980,254	-0,05
980,675	-0,04
981,096	-0,02
981,517	-0,01
981,937	-0,01
982,358	-0
982,779	0,01
983,2	0,01
983,621	0,02
984,042	0,03
984,462	0,04
984,883	0,06
985,304	0,08
985,724	0,08
986,145	0,09
986,565	0,11
986,986	0,13
987,407	0,14
987,827	0,16
988,248	0,18
988,668	0,19
989,088	0,2
989,509	0,21
989,929	0,23
990,35	0,24
990,77	0,26
991,19	0,26
991,61	0,28
992,031	0,29
992,451	0,3
992,871	0,32
993,291	0,34
993,711	0,35
994,131	0,36
994,551	0,37
994,971	0,38
995,391	0,39
995,811	0,4
996,231	0,41
996,651	0,41
997,071	0,42
997,491	0,43
997,911	0,44
998,331	0,45
998,75	0,45
999,17	0,46
999,59	0,46
1000,009	0,47
1000,429	0,48
1000,849	0,49
1001,268	0,49
1001,688	0,5
1002,107	0,5
1002,527	0,51
1002,946	0,51
1003,366	0,51
1003,785	0,52
1004,205	0,52
1004,624	0,53
1005,044	0,53
1005,463	0,53
1005,882	0,53
1006,301	0,54
1006,721	0,54
1007,14	0,54
1007,559	0,54
1007,978	0,55
1008,397	0,55
1008,816	0,55
1009,235	0,55
1009,655	0,55
1010,074	0,55
1010,492	0,55
1010,911	0,55
1011,33	0,55
1011,749	0,54
1012,168	0,54
1012,587	0,54
1013,006	0,54
1013,425	0,54
1013,843	0,54
1014,262	0,54
1014,681	0,54
1015,099	0,54
1015,518	0,54
1015,937	0,54
1016,355	0,54
1016,774	0,54
1017,192	0,54
1017,611	0,54
1018,029	0,54
1018,448	0,54
1018,866	0,54
1019,285	0,54
1019,703	0,53
1020,121	0,53
1020,54	0,53
1020,958	0,53
1021,376	0,53
1021,794	0,53
1022,213	0,53
1022,631	0,53
1023,049	0,53
1023,467	0,53
1023,885	0,53
1024,303	0,53
1024,721	0,53
1025,139	0,53
1025,557	0,53
1025,975	0,53
1026,393	0,52
1026,811	0,52
1027,229	0,52
1027,647	0,52
1028,065	0,52
1028,482	0,52
1028,9	0,51
1029,318	0,52
1029,735	0,51
1030,153	0,51
1030,571	0,51
1030,988	0,52
1031,406	0,52
1031,823	0,52
1032,241	0,52
1032,659	0,52
1033,076	0,52
1033,493	0,52
1033,911	0,52
1034,328	0,52
1034,746	0,52
1035,163	0,52
1035,58	0,52
1035,997	0,52
1036,415	0,52
1036,832	0,52
1037,249	0,52
1037,666	0,52
1038,083	0,52
1038,501	0,52
1038,918	0,52
1039,335	0,52
1039,752	0,51
1040,169	0,52
1040,586	0,52
1041,003	0,52
1041,419	0,52
1041,836	0,52
1042,253	0,52
1042,67	0,52
1043,087	0,52
1043,504	0,52
1043,92	0,52
1044,337	0,52
1044,754	0,51
1045,17	0,51
1045,587	0,51
1046,004	0,51
1046,42	0,51
1046,837	0,51
1047,253	0,51
1047,67	0,51
1048,086	0,51
1048,503	0,51
1048,919	0,51
1049,335	0,51
1049,752	0,51
1050,168	0,51
1050,584	0,51
1051,001	0,52
1051,417	0,52
1051,833	0,52
1052,249	0,52
1052,665	0,52
1053,081	0,52
1053,497	0,52
1053,914	0,52
1054,33	0,52
1054,746	0,53
1055,162	0,53
1055,578	0,53
1055,993	0,53
1056,409	0,53
1056,825	0,53
1057,241	0,53
1057,657	0,53
1058,073	0,53
1058,488	0,53
1058,904	0,53
1059,32	0,53
1059,736	0,53
1060,151	0,53
1060,567	0,53
1060,982	0,53
1061,398	0,53
1061,813	0,53
1062,229	0,53
1062,644	0,53
1063,06	0,53
1063,475	0,53
1063,891	0,53
1064,306	0,53
1064,721	0,53
1065,137	0,53
1065,552	0,53
1065,967	0,53
1066,382	0,53
1066,798	0,53
1067,213	0,52
1067,628	0,52
1068,043	0,52
1068,458	0,52
1068,873	0,52
1069,288	0,52
1069,703	0,52
1070,118	0,52
1070,533	0,52
1070,948	0,52
1071,363	0,52
1071,778	0,52
1072,193	0,52
1072,607	0,53
1073,022	0,53
1073,437	0,53
1073,852	0,53
1074,266	0,53
1074,681	0,53
1075,096	0,53
1075,51	0,53
1075,925	0,53
1076,339	0,52
1076,754	0,52
1077,168	0,52
1077,583	0,52
1077,997	0,52
1078,412	0,52
1078,826	0,52
1079,24	0,52
1079,655	0,51
1080,069	0,51
1080,483	0,51
1080,897	0,51
1081,312	0,51
1081,726	0,51
1082,14	0,51
1082,554	0,51
1082,968	0,5
1083,382	0,5
1083,796	0,5
1084,21	0,5
1084,624	0,5
1085,038	0,5
1085,452	0,5
1085,866	0,49
1086,28	0,49
1086,694	0,49
1087,108	0,49
1087,521	0,49
1087,935	0,49
1088,349	0,49
1088,763	0,48
1089,176	0,48
1089,59	0,48
1090,004	0,48
1090,417	0,47
1090,831	0,47
1091,244	0,47
1091,658	0,46
1092,071	0,46
1092,485	0,46
1092,898	0,45
1093,312	0,45
1093,725	0,45
1094,138	0,45
1094,552	0,44
1094,965	0,44
1095,378	0,44
1095,791	0,43
1096,205	0,43
1096,618	0,42
1097,031	0,42
1097,444	0,42
1097,857	0,41
1098,27	0,41
1098,683	0,4
1099,096	0,4
1099,509	0,4
1099,922	0,39
1100,335	0,39
1100,748	0,38
1101,161	0,37
1101,574	0,37
1101,986	0,37
1102,399	0,36
1102,812	0,36
1103,225	0,35
1103,637	0,35
1104,05	0,35
1104,463	0,35
1104,875	0,35
1105,288	0,34
1105,7	0,34
1106,113	0,33
1106,525	0,33
1106,938	0,33
1107,35	0,32
1107,763	0,31
1108,175	0,31
1108,588	0,31
1109	0,3
1109,412	0,29
1109,824	0,29
1110,237	0,28
1110,649	0,28
1111,061	0,27
