Data from 18C-808nm-8A-cont_Absorbance__294__01723.txt Node

Date: Mon Jul 17 17:28:50 CEST 2023
User: Laser008
Spectrometer: MAYP115816
Trigger mode: 0
Integration Time (sec): 2,500000E-1
Scans to average: 10
Electric dark correction enabled: true
Nonlinearity correction enabled: true
Boxcar width: 5
XAxis mode: Wavelengths
Number of Pixels in Spectrum: 2068
>>>>>Begin Spectral Data<<<<<
198,914	-0,73
199,384	-0,5
199,855	-0,35
200,325	-0,26
200,796	-0,24
201,266	-0,19
201,737	-0,17
202,207	-0,16
202,677	-0,15
203,147	-0,13
203,618	-0,1
204,088	-0,08
204,558	-0,06
205,028	-0,06
205,498	-0,06
205,968	-0,06
206,439	-0,08
206,909	-0,06
207,379	-0,06
207,849	-0,06
208,319	-0,07
208,789	-0,08
209,258	-0,07
209,728	-0,09
210,198	-0,09
210,668	-0,09
211,138	-0,08
211,608	-0,08
212,077	-0,08
212,547	-0,09
213,017	-0,09
213,486	-0,1
213,956	-0,11
214,426	-0,12
214,895	-0,11
215,365	-0,12
215,834	-0,12
216,304	-0,13
216,773	-0,13
217,243	-0,15
217,712	-0,16
218,181	-0,15
218,651	-0,15
219,12	-0,14
219,589	-0,14
220,058	-0,13
220,528	-0,15
220,997	-0,15
221,466	-0,16
221,935	-0,17
222,404	-0,16
222,873	-0,15
223,342	-0,15
223,812	-0,14
224,281	-0,14
224,749	-0,15
225,218	-0,17
225,687	-0,17
226,156	-0,16
226,625	-0,15
227,094	-0,15
227,563	-0,15
228,031	-0,16
228,5	-0,16
228,969	-0,17
229,438	-0,17
229,906	-0,15
230,375	-0,15
230,844	-0,14
231,312	-0,14
231,781	-0,15
232,249	-0,14
232,718	-0,14
233,186	-0,12
233,655	-0,13
234,123	-0,13
234,591	-0,13
235,06	-0,13
235,528	-0,13
235,996	-0,12
236,465	-0,13
236,933	-0,13
237,401	-0,13
237,869	-0,12
238,337	-0,12
238,805	-0,11
239,274	-0,11
239,742	-0,11
240,21	-0,1
240,678	-0,1
241,146	-0,09
241,614	-0,09
242,081	-0,08
242,549	-0,08
243,017	-0,08
243,485	-0,08
243,953	-0,08
244,421	-0,07
244,888	-0,07
245,356	-0,07
245,824	-0,07
246,291	-0,07
246,759	-0,08
247,227	-0,08
247,694	-0,07
248,162	-0,07
248,629	-0,07
249,097	-0,08
249,564	-0,09
250,032	-0,1
250,499	-0,1
250,967	-0,11
251,434	-0,11
251,901	-0,11
252,369	-0,1
252,836	-0,12
253,303	-0,13
253,77	-0,14
254,237	-0,13
254,705	-0,13
255,172	-0,12
255,639	-0,13
256,106	-0,14
256,573	-0,14
257,04	-0,15
257,507	-0,16
257,974	-0,16
258,441	-0,15
258,908	-0,15
259,375	-0,16
259,841	-0,16
260,308	-0,17
260,775	-0,16
261,242	-0,15
261,709	-0,16
262,175	-0,17
262,642	-0,16
263,109	-0,16
263,575	-0,17
264,042	-0,16
264,508	-0,15
264,975	-0,17
265,441	-0,18
265,908	-0,19
266,374	-0,19
266,841	-0,19
267,307	-0,19
267,773	-0,19
268,24	-0,19
268,706	-0,19
269,172	-0,2
269,639	-0,22
270,105	-0,2
270,571	-0,2
271,037	-0,21
271,503	-0,22
271,969	-0,22
272,435	-0,22
272,902	-0,23
273,368	-0,24
273,834	-0,23
274,3	-0,23
274,765	-0,23
275,231	-0,23
275,697	-0,22
276,163	-0,21
276,629	-0,2
277,095	-0,2
277,56	-0,19
278,026	-0,19
278,492	-0,18
278,958	-0,18
279,423	-0,19
279,889	-0,19
280,354	-0,19
280,82	-0,18
281,286	-0,2
281,751	-0,21
282,217	-0,21
282,682	-0,2
283,147	-0,2
283,613	-0,21
284,078	-0,2
284,544	-0,21
285,009	-0,21
285,474	-0,2
285,939	-0,23
286,405	-0,21
286,87	-0,21
287,335	-0,21
287,8	-0,21
288,265	-0,19
288,73	-0,21
289,195	-0,24
289,66	-0,23
290,125	-0,22
290,59	-0,22
291,055	-0,21
291,52	-0,21
291,985	-0,22
292,45	-0,23
292,915	-0,23
293,38	-0,23
293,844	-0,21
294,309	-0,19
294,774	-0,18
295,239	-0,2
295,703	-0,21
296,168	-0,2
296,632	-0,19
297,097	-0,17
297,562	-0,15
298,026	-0,15
298,491	-0,15
298,955	-0,15
299,419	-0,14
299,884	-0,14
300,348	-0,13
300,813	-0,11
301,277	-0,13
301,741	-0,13
302,205	-0,13
302,67	-0,13
303,134	-0,13
303,598	-0,13
304,062	-0,12
304,526	-0,12
304,99	-0,13
305,454	-0,13
305,919	-0,13
306,383	-0,13
306,847	-0,13
307,31	-0,14
307,774	-0,15
308,238	-0,14
308,702	-0,14
309,166	-0,16
309,63	-0,16
310,094	-0,13
310,557	-0,12
311,021	-0,13
311,485	-0,12
311,948	-0,12
312,412	-0,11
312,876	-0,1
313,339	-0,11
313,803	-0,12
314,266	-0,11
314,73	-0,11
315,193	-0,11
315,657	-0,1
316,12	-0,1
316,584	-0,08
317,047	-0,09
317,51	-0,07
317,973	-0,07
318,437	-0,06
318,9	-0,05
319,363	-0,04
319,826	-0,04
320,29	-0,05
320,753	-0,05
321,216	-0,04
321,679	-0,05
322,142	-0,04
322,605	-0,05
323,068	-0,05
323,531	-0,04
323,994	-0,04
324,457	-0,03
324,92	-0,02
325,382	-0
325,845	-0
326,308	0,01
326,771	0,01
327,233	0,01
327,696	0,02
328,159	0,03
328,622	0,04
329,084	0,04
329,547	0,05
330,009	0,05
330,472	0,05
330,934	0,05
331,397	0,06
331,859	0,06
332,322	0,06
332,784	0,07
333,246	0,08
333,709	0,08
334,171	0,07
334,633	0,08
335,096	0,08
335,558	0,08
336,02	0,08
336,482	0,08
336,944	0,09
337,406	0,09
337,868	0,1
338,331	0,1
338,793	0,11
339,255	0,11
339,717	0,11
340,178	0,12
340,64	0,13
341,102	0,13
341,564	0,15
342,026	0,16
342,488	0,17
342,949	0,19
343,411	0,21
343,873	0,24
344,335	0,27
344,796	0,31
345,258	0,35
345,719	0,39
346,181	0,44
346,643	0,48
347,104	0,51
347,566	0,54
348,027	0,57
348,488	0,59
348,95	0,61
349,411	0,64
349,873	0,66
350,334	0,68
350,795	0,7
351,256	0,7
351,718	0,71
352,179	0,72
352,64	0,72
353,101	0,72
353,562	0,73
354,023	0,73
354,484	0,73
354,945	0,74
355,406	0,74
355,867	0,74
356,328	0,74
356,789	0,75
357,25	0,75
357,711	0,75
358,172	0,75
358,633	0,75
359,093	0,76
359,554	0,76
360,015	0,76
360,476	0,76
360,936	0,76
361,397	0,76
361,858	0,77
362,318	0,77
362,779	0,77
363,239	0,77
363,7	0,77
364,16	0,77
364,621	0,77
365,081	0,77
365,541	0,77
366,002	0,77
366,462	0,77
366,922	0,77
367,383	0,77
367,843	0,77
368,303	0,77
368,763	0,77
369,223	0,77
369,684	0,77
370,144	0,77
370,604	0,77
371,064	0,77
371,524	0,77
371,984	0,77
372,444	0,77
372,904	0,77
373,363	0,77
373,823	0,77
374,283	0,76
374,743	0,76
375,203	0,76
375,663	0,76
376,122	0,76
376,582	0,76
377,042	0,76
377,501	0,76
377,961	0,76
378,42	0,76
378,88	0,76
379,34	0,76
379,799	0,76
380,259	0,76
380,718	0,76
381,177	0,76
381,637	0,76
382,096	0,76
382,555	0,76
383,015	0,76
383,474	0,76
383,933	0,76
384,393	0,76
384,852	0,76
385,311	0,76
385,77	0,76
386,229	0,76
386,688	0,76
387,147	0,76
387,606	0,76
388,065	0,76
388,524	0,76
388,983	0,76
389,442	0,75
389,901	0,75
390,36	0,75
390,819	0,75
391,277	0,75
391,736	0,75
392,195	0,75
392,654	0,75
393,112	0,75
393,571	0,75
394,03	0,75
394,488	0,75
394,947	0,75
395,405	0,75
395,864	0,75
396,322	0,75
396,781	0,75
397,239	0,75
397,698	0,75
398,156	0,75
398,614	0,75
399,073	0,75
399,531	0,75
399,989	0,75
400,447	0,75
400,905	0,75
401,364	0,75
401,822	0,75
402,28	0,75
402,738	0,75
403,196	0,74
403,654	0,74
404,112	0,74
404,57	0,74
405,028	0,74
405,486	0,74
405,944	0,74
406,402	0,74
406,859	0,74
407,317	0,74
407,775	0,74
408,233	0,74
408,691	0,74
409,148	0,74
409,606	0,74
410,064	0,74
410,521	0,74
410,979	0,74
411,436	0,74
411,894	0,74
412,351	0,74
412,809	0,74
413,266	0,74
413,724	0,74
414,181	0,74
414,638	0,74
415,096	0,74
415,553	0,74
416,01	0,74
416,467	0,74
416,925	0,74
417,382	0,74
417,839	0,74
418,296	0,74
418,753	0,74
419,21	0,74
419,667	0,74
420,124	0,74
420,581	0,74
421,038	0,74
421,495	0,74
421,952	0,74
422,409	0,74
422,866	0,74
423,322	0,74
423,779	0,74
424,236	0,74
424,693	0,74
425,149	0,74
425,606	0,74
426,063	0,74
426,519	0,74
426,976	0,74
427,433	0,74
427,889	0,74
428,346	0,74
428,802	0,74
429,258	0,74
429,715	0,74
430,171	0,74
430,628	0,74
431,084	0,74
431,54	0,74
431,997	0,74
432,453	0,74
432,909	0,73
433,365	0,73
433,821	0,73
434,277	0,73
434,734	0,73
435,19	0,73
435,646	0,73
436,102	0,73
436,558	0,73
437,014	0,73
437,47	0,73
437,925	0,73
438,381	0,73
438,837	0,73
439,293	0,74
439,749	0,74
440,205	0,74
440,66	0,74
441,116	0,74
441,572	0,74
442,027	0,74
442,483	0,74
442,939	0,74
443,394	0,74
443,85	0,74
444,305	0,74
444,761	0,74
445,216	0,74
445,672	0,74
446,127	0,74
446,582	0,74
447,038	0,74
447,493	0,74
447,948	0,74
448,403	0,74
448,859	0,74
449,314	0,74
449,769	0,74
450,224	0,74
450,679	0,74
451,134	0,74
451,589	0,74
452,044	0,74
452,499	0,74
452,954	0,74
453,409	0,74
453,864	0,74
454,319	0,74
454,774	0,74
455,229	0,74
455,684	0,74
456,138	0,74
456,593	0,74
457,048	0,74
457,503	0,74
457,957	0,74
458,412	0,74
458,866	0,74
459,321	0,74
459,776	0,74
460,23	0,75
460,685	0,75
461,139	0,75
461,593	0,75
462,048	0,75
462,502	0,75
462,957	0,75
463,411	0,75
463,865	0,75
464,319	0,75
464,774	0,75
465,228	0,75
465,682	0,75
466,136	0,76
466,59	0,76
467,044	0,76
467,499	0,76
467,953	0,76
468,407	0,76
468,861	0,76
469,315	0,76
469,768	0,76
470,222	0,76
470,676	0,76
471,13	0,76
471,584	0,76
472,038	0,77
472,491	0,77
472,945	0,77
473,399	0,77
473,852	0,77
474,306	0,77
474,76	0,77
475,213	0,77
475,667	0,77
476,12	0,78
476,574	0,78
477,027	0,78
477,481	0,78
477,934	0,78
478,388	0,78
478,841	0,78
479,294	0,79
479,748	0,79
480,201	0,79
480,654	0,79
481,107	0,79
481,561	0,8
482,014	0,8
482,467	0,8
482,92	0,8
483,373	0,8
483,826	0,8
484,279	0,81
484,732	0,81
485,185	0,81
485,638	0,81
486,091	0,81
486,544	0,81
486,997	0,82
487,449	0,82
487,902	0,82
488,355	0,82
488,808	0,83
489,26	0,83
489,713	0,83
490,166	0,83
490,618	0,84
491,071	0,84
491,523	0,84
491,976	0,84
492,429	0,85
492,881	0,85
493,333	0,85
493,786	0,86
494,238	0,86
494,691	0,86
495,143	0,87
495,595	0,87
496,048	0,87
496,5	0,88
496,952	0,88
497,404	0,88
497,856	0,89
498,309	0,89
498,761	0,89
499,213	0,9
499,665	0,9
500,117	0,91
500,569	0,91
501,021	0,91
501,473	0,92
501,925	0,92
502,377	0,92
502,828	0,93
503,28	0,93
503,732	0,93
504,184	0,94
504,636	0,94
505,087	0,95
505,539	0,95
505,991	0,95
506,442	0,96
506,894	0,96
507,345	0,96
507,797	0,97
508,249	0,97
508,7	0,98
509,151	0,98
509,603	0,98
510,054	0,99
510,506	0,99
510,957	0,99
511,408	1
511,86	1
512,311	1
512,762	1,01
513,213	1,01
513,665	1,01
514,116	1,02
514,567	1,02
515,018	1,02
515,469	1,03
515,92	1,03
516,371	1,03
516,822	1,03
517,273	1,04
517,724	1,04
518,175	1,04
518,626	1,05
519,076	1,05
519,527	1,05
519,978	1,05
520,429	1,06
520,88	1,06
521,33	1,06
521,781	1,06
522,232	1,06
522,682	1,06
523,133	1,07
523,583	1,07
524,034	1,07
524,484	1,07
524,935	1,07
525,385	1,07
525,836	1,07
526,286	1,07
526,736	1,07
527,187	1,07
527,637	1,07
528,087	1,07
528,538	1,07
528,988	1,07
529,438	1,07
529,888	1,07
530,338	1,07
530,788	1,06
531,238	1,06
531,688	1,06
532,139	1,06
532,589	1,06
533,038	1,06
533,488	1,06
533,938	1,06
534,388	1,05
534,838	1,05
535,288	1,05
535,738	1,04
536,187	1,04
536,637	1,04
537,087	1,03
537,537	1,03
537,986	1,03
538,436	1,02
538,885	1,02
539,335	1,01
539,785	1,01
540,234	1
540,684	1
541,133	1
541,582	0,99
542,032	0,99
542,481	0,98
542,931	0,98
543,38	0,97
543,829	0,97
544,278	0,96
544,728	0,96
545,177	0,95
545,626	0,95
546,075	0,95
546,524	0,94
546,973	0,94
547,422	0,94
547,871	0,93
548,32	0,93
548,769	0,93
549,218	0,92
549,667	0,92
550,116	0,92
550,565	0,91
551,014	0,91
551,463	0,9
551,911	0,9
552,36	0,89
552,809	0,89
553,258	0,89
553,706	0,88
554,155	0,88
554,603	0,87
555,052	0,87
555,501	0,87
555,949	0,86
556,398	0,86
556,846	0,85
557,294	0,85
557,743	0,85
558,191	0,84
558,64	0,84
559,088	0,83
559,536	0,82
559,985	0,82
560,433	0,81
560,881	0,81
561,329	0,81
561,777	0,8
562,225	0,8
562,674	0,79
563,122	0,79
563,57	0,79
564,018	0,78
564,466	0,78
564,914	0,78
565,362	0,77
565,809	0,77
566,257	0,76
566,705	0,76
567,153	0,76
567,601	0,75
568,048	0,75
568,496	0,75
568,944	0,74
569,392	0,74
569,839	0,73
570,287	0,73
570,734	0,73
571,182	0,73
571,63	0,72
572,077	0,72
572,525	0,71
572,972	0,71
573,419	0,71
573,867	0,7
574,314	0,7
574,761	0,7
575,209	0,69
575,656	0,69
576,103	0,69
576,551	0,68
576,998	0,68
577,445	0,68
577,892	0,68
578,339	0,67
578,786	0,67
579,233	0,67
579,68	0,66
580,127	0,66
580,574	0,66
581,021	0,66
581,468	0,65
581,915	0,65
582,362	0,65
582,809	0,65
583,255	0,65
583,702	0,64
584,149	0,64
584,596	0,64
585,042	0,64
585,489	0,63
585,936	0,63
586,382	0,63
586,829	0,63
587,275	0,63
587,722	0,62
588,168	0,62
588,615	0,62
589,061	0,62
589,508	0,62
589,954	0,61
590,4	0,61
590,847	0,61
591,293	0,61
591,739	0,61
592,185	0,6
592,632	0,6
593,078	0,6
593,524	0,6
593,97	0,6
594,416	0,6
594,862	0,6
595,308	0,6
595,754	0,59
596,2	0,59
596,646	0,59
597,092	0,59
597,538	0,59
597,984	0,59
598,43	0,58
598,876	0,58
599,321	0,58
599,767	0,58
600,213	0,58
600,659	0,58
601,104	0,58
601,55	0,58
601,995	0,57
602,441	0,57
602,887	0,57
603,332	0,57
603,778	0,57
604,223	0,57
604,668	0,57
605,114	0,57
605,559	0,56
606,005	0,56
606,45	0,56
606,895	0,56
607,341	0,56
607,786	0,56
608,231	0,56
608,676	0,55
609,121	0,55
609,566	0,54
610,012	0,54
610,457	0,53
610,902	0,53
611,347	0,53
611,792	0,53
612,237	0,52
612,682	0,52
613,127	0,52
613,571	0,52
614,016	0,53
614,461	0,53
614,906	0,53
615,351	0,53
615,795	0,53
616,24	0,53
616,685	0,53
617,129	0,53
617,574	0,53
618,019	0,53
618,463	0,53
618,908	0,53
619,352	0,53
619,797	0,53
620,241	0,53
620,686	0,53
621,13	0,53
621,574	0,53
622,019	0,53
622,463	0,53
622,907	0,52
623,352	0,52
623,796	0,52
624,24	0,52
624,684	0,52
625,128	0,52
625,572	0,52
626,016	0,52
626,461	0,52
626,905	0,52
627,349	0,52
627,793	0,52
628,236	0,52
628,68	0,52
629,124	0,52
629,568	0,52
630,012	0,52
630,456	0,52
630,9	0,52
631,343	0,52
631,787	0,52
632,231	0,52
632,674	0,52
633,118	0,52
633,562	0,52
634,005	0,52
634,449	0,52
634,892	0,52
635,336	0,52
635,779	0,52
636,223	0,52
636,666	0,52
637,109	0,51
637,553	0,51
637,996	0,51
638,439	0,51
638,883	0,51
639,326	0,51
639,769	0,51
640,212	0,51
640,655	0,51
641,099	0,51
641,542	0,51
641,985	0,51
642,428	0,51
642,871	0,51
643,314	0,5
643,757	0,5
644,2	0,5
644,643	0,5
645,085	0,5
645,528	0,5
645,971	0,5
646,414	0,5
646,857	0,5
647,299	0,5
647,742	0,5
648,185	0,5
648,627	0,5
649,07	0,5
649,513	0,5
649,955	0,5
650,398	0,5
650,84	0,5
651,283	0,5
651,725	0,5
652,168	0,5
652,61	0,5
653,052	0,5
653,495	0,5
653,937	0,42
654,379	0,36
654,821	0,36
655,264	0,36
655,706	0,36
656,148	0,36
656,59	0,36
657,032	0,37
657,474	0,37
657,916	0,36
658,358	0,36
658,8	0,42
659,242	0,5
659,684	0,5
660,126	0,5
660,568	0,5
661,01	0,5
661,452	0,5
661,894	0,5
662,335	0,49
662,777	0,49
663,219	0,49
663,661	0,49
664,102	0,49
664,544	0,49
664,985	0,49
665,427	0,49
665,869	0,49
666,31	0,49
666,752	0,49
667,193	0,49
667,634	0,49
668,076	0,49
668,517	0,49
668,959	0,49
669,4	0,49
669,841	0,49
670,282	0,49
670,724	0,49
671,165	0,49
671,606	0,49
672,047	0,49
672,488	0,49
672,929	0,49
673,37	0,49
673,811	0,49
674,252	0,49
674,693	0,49
675,134	0,48
675,575	0,48
676,016	0,48
676,457	0,48
676,898	0,48
677,339	0,48
677,78	0,48
678,22	0,48
678,661	0,48
679,102	0,48
679,542	0,48
679,983	0,48
680,424	0,48
680,864	0,48
681,305	0,48
681,745	0,48
682,186	0,48
682,626	0,48
683,067	0,48
683,507	0,48
683,948	0,48
684,388	0,48
684,828	0,48
685,269	0,48
685,709	0,48
686,149	0,48
686,589	0,48
687,029	0,48
687,47	0,48
687,91	0,48
688,35	0,48
688,79	0,48
689,23	0,48
689,67	0,48
690,11	0,48
690,55	0,48
690,99	0,47
691,43	0,47
691,87	0,47
692,31	0,47
692,749	0,47
693,189	0,47
693,629	0,47
694,069	0,47
694,508	0,47
694,948	0,47
695,388	0,46
695,827	0,47
696,267	0,47
696,706	0,47
697,146	0,47
697,586	0,47
698,025	0,47
698,464	0,47
698,904	0,47
699,343	0,47
699,783	0,47
700,222	0,47
700,661	0,47
701,101	0,47
701,54	0,47
701,979	0,47
702,418	0,47
702,857	0,47
703,297	0,47
703,736	0,47
704,175	0,47
704,614	0,47
705,053	0,47
705,492	0,47
705,931	0,47
706,37	0,47
706,809	0,47
707,248	0,47
707,687	0,47
708,125	0,47
708,564	0,47
709,003	0,47
709,442	0,47
709,88	0,47
710,319	0,46
710,758	0,46
711,196	0,46
711,635	0,46
712,074	0,46
712,512	0,46
712,951	0,46
713,389	0,46
713,828	0,46
714,266	0,46
714,705	0,46
715,143	0,46
715,581	0,46
716,02	0,46
716,458	0,46
716,896	0,46
717,334	0,46
717,773	0,46
718,211	0,46
718,649	0,46
719,087	0,46
719,525	0,46
719,963	0,46
720,401	0,46
720,839	0,46
721,277	0,46
721,715	0,46
722,153	0,46
722,591	0,46
723,029	0,46
723,467	0,46
723,905	0,46
724,342	0,46
724,78	0,46
725,218	0,46
725,656	0,46
726,093	0,46
726,531	0,46
726,969	0,46
727,406	0,46
727,844	0,46
728,281	0,46
728,719	0,46
729,156	0,46
729,594	0,46
730,031	0,46
730,469	0,46
730,906	0,46
731,343	0,46
731,781	0,45
732,218	0,45
732,655	0,45
733,092	0,45
733,53	0,45
733,967	0,45
734,404	0,45
734,841	0,45
735,278	0,45
735,715	0,45
736,152	0,44
736,589	0,44
737,026	0,44
737,463	0,44
737,9	0,44
738,337	0,44
738,774	0,44
739,211	0,44
739,647	0,44
740,084	0,44
740,521	0,44
740,958	0,44
741,394	0,44
741,831	0,44
742,268	0,44
742,704	0,44
743,141	0,44
743,577	0,44
744,014	0,44
744,45	0,44
744,887	0,44
745,323	0,44
745,76	0,44
746,196	0,44
746,632	0,44
747,069	0,43
747,505	0,43
747,941	0,43
748,378	0,43
748,814	0,43
749,25	0,43
749,686	0,43
750,122	0,44
750,558	0,44
750,994	0,44
751,43	0,44
751,866	0,44
752,302	0,44
752,738	0,44
753,174	0,45
753,61	0,45
754,046	0,45
754,482	0,45
754,918	0,45
755,354	0,44
755,789	0,44
756,225	0,44
756,661	0,44
757,096	0,44
757,532	0,44
757,968	0,44
758,403	0,43
758,839	0,43
759,274	0,43
759,71	0,42
760,145	0,42
760,581	0,41
761,016	0,41
761,452	0,4
761,887	0,4
762,322	0,39
762,758	0,39
763,193	0,38
763,628	0,38
764,063	0,37
764,499	0,36
764,934	0,36
765,369	0,35
765,804	0,34
766,239	0,34
766,674	0,33
767,109	0,32
767,544	0,31
767,979	0,3
768,414	0,29
768,849	0,28
769,284	0,27
769,719	0,26
770,154	0,25
770,588	0,24
771,023	0,23
771,458	0,22
771,893	0,21
772,327	0,2
772,762	0,19
773,197	0,18
773,631	0,17
774,066	0,16
774,5	0,15
774,935	0,14
775,369	0,13
775,804	0,11
776,238	0,1
776,673	0,09
777,107	0,08
777,541	0,07
777,976	0,06
778,41	0,06
778,844	0,05
779,279	0,04
779,713	0,03
780,147	0,02
780,581	0,02
781,015	0,01
781,449	-0
781,883	-0,01
782,317	-0,02
782,751	-0,03
783,185	-0,04
783,619	-0,05
784,053	-0,06
784,487	-0,07
784,921	-0,07
785,355	-0,07
785,789	-0,08
786,223	-0,09
786,656	-0,1
787,09	-0,11
787,524	-0,12
787,957	-0,13
788,391	-0,15
788,825	-0,17
789,258	-0,18
789,692	-0,2
790,125	-0,21
790,559	-0,22
790,992	-0,24
791,426	-0,27
791,859	-0,29
792,293	-0,32
792,726	-0,34
793,159	-0,35
793,593	-0,37
794,026	-0,4
794,459	-0,43
794,892	-0,46
795,326	-0,49
795,759	-0,52
796,192	-0,57
796,625	-0,61
797,058	-0,64
797,491	-0,68
797,924	-0,72
798,357	-0,77
798,79	-0,81
799,223	-0,85
799,656	-0,91
800,089	-0,95
800,522	-1
800,955	-1,04
801,387	-1,1
801,82	-1,15
802,253	-1,21
802,686	-1,29
803,118	-1,35
803,551	-1,4
803,984	-1,44
804,416	-1,48
804,849	-1,52
805,281	-1,65
805,714	-2
806,146	-2,45
806,579	-2,71
807,011	-2,87
807,444	-2,96
807,876	-3,06
808,308	-3,09
808,741	-3,12
809,173	-3,17
809,605	-3,19
810,037	-3,27
810,47	-3,19
810,902	-3
811,334	-2,85
811,766	-2,7
812,198	-2,47
812,63	-2,04
813,062	-1,81
813,494	-1,7
813,926	-1,61
814,358	-1,56
814,79	-1,48
815,222	-1,42
815,654	-1,37
816,086	-1,31
816,518	-1,25
816,949	-1,2
817,381	-1,16
817,813	-1,14
818,245	-1,1
818,676	-1,06
819,108	-1,03
819,54	-1,01
819,971	-0,99
820,403	-0,94
820,834	-0,93
821,266	-0,88
821,697	-0,86
822,129	-0,85
822,56	-0,82
822,991	-0,8
823,423	-0,77
823,854	-0,76
824,286	-0,73
824,717	-0,71
825,148	-0,7
825,579	-0,69
826,01	-0,67
826,442	-0,66
826,873	-0,64
827,304	-0,6
827,735	-0,59
828,166	-0,59
828,597	-0,59
829,028	-0,59
829,459	-0,59
829,89	-0,59
830,321	-0,55
830,752	-0,56
831,183	-0,55
831,613	-0,53
832,044	-0,53
832,475	-0,52
832,906	-0,54
833,336	-0,53
833,767	-0,54
834,198	-0,54
834,628	-0,52
835,059	-0,55
835,49	-0,56
835,92	-0,53
836,351	-0,54
836,781	-0,54
837,212	-0,55
837,642	-0,56
838,072	-0,54
838,503	-0,56
838,933	-0,53
839,364	-0,54
839,794	-0,51
840,224	-0,51
840,654	-0,55
841,085	-0,56
841,515	-0,54
841,945	-0,54
842,375	-0,5
842,805	-0,49
843,235	-0,47
843,665	-0,48
844,095	-0,47
844,525	-0,49
844,955	-0,49
845,385	-0,47
845,815	-0,45
846,245	-0,47
846,675	-0,47
847,105	-0,49
847,534	-0,49
847,964	-0,48
848,394	-0,46
848,824	-0,5
849,253	-0,5
849,683	-0,49
850,112	-0,51
850,542	-0,54
850,972	-0,54
851,401	-0,52
851,831	-0,5
852,26	-0,5
852,69	-0,54
853,119	-0,53
853,548	-0,53
853,978	-0,53
854,407	-0,51
854,836	-0,5
855,266	-0,49
855,695	-0,51
856,124	-0,52
856,553	-0,53
856,983	-0,56
857,412	-0,56
857,841	-0,57
858,27	-0,57
858,699	-0,58
859,128	-0,61
859,557	-0,62
859,986	-0,63
860,415	-0,61
860,844	-0,58
861,273	-0,58
861,702	-0,59
862,13	-0,56
862,559	-0,58
862,988	-0,56
863,417	-0,55
863,845	-0,54
864,274	-0,55
864,703	-0,55
865,131	-0,55
865,56	-0,57
865,989	-0,59
866,417	-0,56
866,846	-0,57
867,274	-0,56
867,703	-0,58
868,131	-0,59
868,559	-0,59
868,988	-0,6
869,416	-0,58
869,844	-0,6
870,273	-0,62
870,701	-0,6
871,129	-0,63
871,557	-0,65
871,986	-0,65
872,414	-0,66
872,842	-0,64
873,27	-0,62
873,698	-0,59
874,126	-0,63
874,554	-0,61
874,982	-0,61
875,41	-0,64
875,838	-0,6
876,266	-0,59
876,694	-0,59
877,122	-0,57
877,549	-0,63
877,977	-0,6
878,405	-0,63
878,833	-0,6
879,26	-0,58
879,688	-0,58
880,116	-0,55
880,543	-0,53
880,971	-0,52
881,399	-0,55
881,826	-0,56
882,254	-0,55
882,681	-0,59
883,109	-0,55
883,536	-0,57
883,963	-0,59
884,391	-0,57
884,818	-0,56
885,245	-0,6
885,673	-0,62
886,1	-0,59
886,527	-0,58
886,954	-0,54
887,381	-0,55
887,809	-0,57
888,236	-0,57
888,663	-0,57
889,09	-0,61
889,517	-0,62
889,944	-0,62
890,371	-0,61
890,798	-0,62
891,225	-0,62
891,652	-0,66
892,078	-0,64
892,505	-0,66
892,932	-0,62
893,359	-0,63
893,786	-0,63
894,212	-0,61
894,639	-0,62
895,066	-0,65
895,492	-0,59
895,919	-0,59
896,346	-0,59
896,772	-0,58
897,199	-0,55
897,625	-0,59
898,052	-0,55
898,478	-0,52
898,904	-0,54
899,331	-0,53
899,757	-0,53
900,183	-0,56
900,61	-0,53
901,036	-0,53
901,462	-0,53
901,888	-0,53
902,315	-0,52
902,741	-0,58
903,167	-0,57
903,593	-0,59
904,019	-0,58
904,445	-0,56
904,871	-0,58
905,297	-0,61
905,723	-0,6
906,149	-0,59
906,575	-0,59
907,001	-0,6
907,427	-0,56
907,852	-0,55
908,278	-0,56
908,704	-0,54
909,13	-0,53
909,555	-0,53
909,981	-0,52
910,407	-0,53
910,832	-0,52
911,258	-0,53
911,684	-0,53
912,109	-0,53
912,535	-0,54
912,96	-0,49
913,386	-0,53
913,811	-0,53
914,236	-0,54
914,662	-0,52
915,087	-0,55
915,512	-0,55
915,938	-0,57
916,363	-0,56
916,788	-0,57
917,213	-0,55
917,639	-0,61
918,064	-0,58
918,489	-0,6
918,914	-0,6
919,339	-0,61
919,764	-0,59
920,189	-0,58
920,614	-0,6
921,039	-0,6
921,464	-0,56
921,889	-0,58
922,314	-0,58
922,738	-0,61
923,163	-0,62
923,588	-0,62
924,013	-0,61
924,437	-0,61
924,862	-0,63
925,287	-0,58
925,711	-0,6
926,136	-0,61
926,561	-0,6
926,985	-0,59
927,41	-0,56
927,834	-0,54
928,259	-0,51
928,683	-0,49
929,108	-0,46
929,532	-0,47
929,956	-0,46
930,381	-0,45
930,805	-0,45
931,229	-0,44
931,653	-0,43
932,078	-0,44
932,502	-0,46
932,926	-0,47
933,35	-0,47
933,774	-0,46
934,198	-0,45
934,622	-0,44
935,046	-0,45
935,47	-0,45
935,894	-0,44
936,318	-0,44
936,742	-0,43
937,166	-0,42
937,59	-0,41
938,014	-0,43
938,437	-0,43
938,861	-0,45
939,285	-0,46
939,709	-0,45
940,132	-0,46
940,556	-0,47
940,98	-0,47
941,403	-0,45
941,827	-0,45
942,25	-0,47
942,674	-0,47
943,097	-0,48
943,521	-0,48
943,944	-0,48
944,368	-0,48
944,791	-0,47
945,214	-0,48
945,638	-0,49
946,061	-0,52
946,484	-0,53
946,907	-0,52
947,331	-0,51
947,754	-0,54
948,177	-0,51
948,6	-0,51
949,023	-0,5
949,446	-0,51
949,869	-0,49
950,292	-0,5
950,715	-0,47
951,138	-0,45
951,561	-0,42
951,984	-0,42
952,407	-0,41
952,83	-0,4
953,252	-0,36
953,675	-0,36
954,098	-0,36
954,521	-0,34
954,943	-0,33
955,366	-0,34
955,789	-0,32
956,211	-0,35
956,634	-0,35
957,056	-0,33
957,479	-0,34
957,902	-0,37
958,324	-0,38
958,746	-0,36
959,169	-0,37
959,591	-0,37
960,014	-0,37
960,436	-0,37
960,858	-0,36
961,281	-0,36
961,703	-0,37
962,125	-0,37
962,547	-0,35
962,969	-0,36
963,391	-0,37
963,814	-0,39
964,236	-0,38
964,658	-0,36
965,08	-0,37
965,502	-0,37
965,924	-0,35
966,346	-0,35
966,768	-0,34
967,189	-0,36
967,611	-0,35
968,033	-0,34
968,455	-0,32
968,877	-0,32
969,298	-0,32
969,72	-0,33
970,142	-0,32
970,563	-0,32
970,985	-0,3
971,407	-0,29
971,828	-0,27
972,25	-0,26
972,671	-0,25
973,093	-0,24
973,514	-0,23
973,936	-0,22
974,357	-0,2
974,778	-0,21
975,2	-0,21
975,621	-0,2
976,042	-0,18
976,464	-0,18
976,885	-0,17
977,306	-0,16
977,727	-0,15
978,148	-0,15
978,57	-0,13
978,991	-0,11
979,412	-0,09
979,833	-0,07
980,254	-0,07
980,675	-0,07
981,096	-0,06
981,517	-0,04
981,937	-0,03
982,358	-0,02
982,779	0
983,2	-0
983,621	-0
984,042	0,02
984,462	0,02
984,883	0,04
985,304	0,06
985,724	0,06
986,145	0,07
986,565	0,08
986,986	0,09
987,407	0,1
987,827	0,11
988,248	0,13
988,668	0,14
989,088	0,15
989,509	0,16
989,929	0,17
990,35	0,18
990,77	0,2
991,19	0,2
991,61	0,21
992,031	0,23
992,451	0,24
992,871	0,25
993,291	0,26
993,711	0,27
994,131	0,27
994,551	0,29
994,971	0,3
995,391	0,3
995,811	0,31
996,231	0,32
996,651	0,32
997,071	0,33
997,491	0,34
997,911	0,35
998,331	0,35
998,75	0,36
999,17	0,36
999,59	0,37
1000,009	0,37
1000,429	0,38
1000,849	0,38
1001,268	0,39
1001,688	0,39
1002,107	0,4
1002,527	0,4
1002,946	0,4
1003,366	0,41
1003,785	0,41
1004,205	0,41
1004,624	0,42
1005,044	0,42
1005,463	0,42
1005,882	0,42
1006,301	0,42
1006,721	0,43
1007,14	0,43
1007,559	0,43
1007,978	0,43
1008,397	0,43
1008,816	0,43
1009,235	0,43
1009,655	0,43
1010,074	0,43
1010,492	0,43
1010,911	0,43
1011,33	0,43
1011,749	0,43
1012,168	0,43
1012,587	0,43
1013,006	0,43
1013,425	0,43
1013,843	0,43
1014,262	0,43
1014,681	0,43
1015,099	0,42
1015,518	0,42
1015,937	0,42
1016,355	0,42
1016,774	0,42
1017,192	0,42
1017,611	0,42
1018,029	0,42
1018,448	0,42
1018,866	0,42
1019,285	0,42
1019,703	0,42
1020,121	0,42
1020,54	0,42
1020,958	0,42
1021,376	0,42
1021,794	0,42
1022,213	0,42
1022,631	0,42
1023,049	0,42
1023,467	0,42
1023,885	0,42
1024,303	0,41
1024,721	0,41
1025,139	0,41
1025,557	0,41
1025,975	0,41
1026,393	0,41
1026,811	0,41
1027,229	0,41
1027,647	0,41
1028,065	0,41
1028,482	0,4
1028,9	0,4
1029,318	0,4
1029,735	0,4
1030,153	0,4
1030,571	0,4
1030,988	0,4
1031,406	0,4
1031,823	0,4
1032,241	0,4
1032,659	0,4
1033,076	0,4
1033,493	0,41
1033,911	0,41
1034,328	0,41
1034,746	0,41
1035,163	0,41
1035,58	0,41
1035,997	0,41
1036,415	0,41
1036,832	0,41
1037,249	0,41
1037,666	0,41
1038,083	0,41
1038,501	0,41
1038,918	0,41
1039,335	0,41
1039,752	0,41
1040,169	0,41
1040,586	0,41
1041,003	0,41
1041,419	0,41
1041,836	0,41
1042,253	0,41
1042,67	0,41
1043,087	0,41
1043,504	0,41
1043,92	0,41
1044,337	0,41
1044,754	0,41
1045,17	0,41
1045,587	0,41
1046,004	0,41
1046,42	0,41
1046,837	0,41
1047,253	0,41
1047,67	0,41
1048,086	0,41
1048,503	0,41
1048,919	0,41
1049,335	0,41
1049,752	0,41
1050,168	0,41
1050,584	0,41
1051,001	0,41
1051,417	0,41
1051,833	0,41
1052,249	0,41
1052,665	0,41
1053,081	0,41
1053,497	0,41
1053,914	0,41
1054,33	0,41
1054,746	0,42
1055,162	0,42
1055,578	0,42
1055,993	0,42
1056,409	0,42
1056,825	0,42
1057,241	0,42
1057,657	0,42
1058,073	0,42
1058,488	0,42
1058,904	0,42
1059,32	0,42
1059,736	0,42
1060,151	0,42
1060,567	0,42
1060,982	0,42
1061,398	0,42
1061,813	0,42
1062,229	0,41
1062,644	0,41
1063,06	0,41
1063,475	0,41
1063,891	0,41
1064,306	0,41
1064,721	0,41
1065,137	0,41
1065,552	0,41
1065,967	0,41
1066,382	0,41
1066,798	0,41
1067,213	0,41
1067,628	0,41
1068,043	0,41
1068,458	0,41
1068,873	0,41
1069,288	0,41
1069,703	0,41
1070,118	0,41
1070,533	0,41
1070,948	0,41
1071,363	0,41
1071,778	0,41
1072,193	0,41
1072,607	0,41
1073,022	0,41
1073,437	0,41
1073,852	0,41
1074,266	0,41
1074,681	0,41
1075,096	0,41
1075,51	0,41
1075,925	0,41
1076,339	0,41
1076,754	0,41
1077,168	0,41
1077,583	0,41
1077,997	0,41
1078,412	0,4
1078,826	0,4
1079,24	0,4
1079,655	0,4
1080,069	0,4
1080,483	0,4
1080,897	0,4
1081,312	0,4
1081,726	0,4
1082,14	0,4
1082,554	0,4
1082,968	0,4
1083,382	0,4
1083,796	0,4
1084,21	0,4
1084,624	0,4
1085,038	0,4
1085,452	0,4
1085,866	0,4
1086,28	0,39
1086,694	0,39
1087,108	0,39
1087,521	0,39
1087,935	0,39
1088,349	0,39
1088,763	0,38
1089,176	0,38
1089,59	0,38
1090,004	0,37
1090,417	0,37
1090,831	0,37
1091,244	0,36
1091,658	0,36
1092,071	0,36
1092,485	0,36
1092,898	0,35
1093,312	0,35
1093,725	0,35
1094,138	0,35
1094,552	0,34
1094,965	0,34
1095,378	0,34
1095,791	0,34
1096,205	0,34
1096,618	0,33
1097,031	0,33
1097,444	0,33
1097,857	0,32
1098,27	0,32
1098,683	0,31
1099,096	0,31
1099,509	0,3
1099,922	0,3
1100,335	0,3
1100,748	0,29
1101,161	0,29
1101,574	0,28
1101,986	0,28
1102,399	0,28
1102,812	0,27
1103,225	0,27
1103,637	0,27
1104,05	0,27
1104,463	0,27
1104,875	0,26
1105,288	0,26
1105,7	0,26
1106,113	0,26
1106,525	0,25
1106,938	0,25
1107,35	0,24
1107,763	0,24
1108,175	0,24
1108,588	0,23
1109	0,22
1109,412	0,22
1109,824	0,23
1110,237	0,23
1110,649	0,22
1111,061	0,21
