Data from 18C-808nm-8A-cont_Absorbance__679__02108.txt Node

Date: Mon Jul 17 17:44:53 CEST 2023
User: Laser008
Spectrometer: MAYP115816
Trigger mode: 0
Integration Time (sec): 2,500000E-1
Scans to average: 10
Electric dark correction enabled: true
Nonlinearity correction enabled: true
Boxcar width: 5
XAxis mode: Wavelengths
Number of Pixels in Spectrum: 2068
>>>>>Begin Spectral Data<<<<<
198,914	-0,71
199,384	-0,45
199,855	-0,32
200,325	-0,26
200,796	-0,22
201,266	-0,17
201,737	-0,15
202,207	-0,13
202,677	-0,13
203,147	-0,11
203,618	-0,07
204,088	-0,05
204,558	-0,05
205,028	-0,05
205,498	-0,06
205,968	-0,05
206,439	-0,07
206,909	-0,06
207,379	-0,08
207,849	-0,07
208,319	-0,08
208,789	-0,09
209,258	-0,09
209,728	-0,09
210,198	-0,07
210,668	-0,06
211,138	-0,06
211,608	-0,07
212,077	-0,07
212,547	-0,06
213,017	-0,07
213,486	-0,08
213,956	-0,09
214,426	-0,09
214,895	-0,09
215,365	-0,11
215,834	-0,11
216,304	-0,12
216,773	-0,13
217,243	-0,14
217,712	-0,15
218,181	-0,16
218,651	-0,15
219,12	-0,15
219,589	-0,15
220,058	-0,15
220,528	-0,15
220,997	-0,16
221,466	-0,17
221,935	-0,17
222,404	-0,16
222,873	-0,15
223,342	-0,15
223,812	-0,15
224,281	-0,15
224,749	-0,15
225,218	-0,17
225,687	-0,16
226,156	-0,15
226,625	-0,13
227,094	-0,13
227,563	-0,13
228,031	-0,16
228,5	-0,15
228,969	-0,16
229,438	-0,15
229,906	-0,14
230,375	-0,13
230,844	-0,14
231,312	-0,14
231,781	-0,15
232,249	-0,14
232,718	-0,14
233,186	-0,12
233,655	-0,12
234,123	-0,11
234,591	-0,11
235,06	-0,11
235,528	-0,11
235,996	-0,1
236,465	-0,1
236,933	-0,08
237,401	-0,09
237,869	-0,08
238,337	-0,09
238,805	-0,08
239,274	-0,08
239,742	-0,08
240,21	-0,07
240,678	-0,07
241,146	-0,07
241,614	-0,07
242,081	-0,07
242,549	-0,07
243,017	-0,07
243,485	-0,07
243,953	-0,07
244,421	-0,07
244,888	-0,07
245,356	-0,08
245,824	-0,08
246,291	-0,08
246,759	-0,08
247,227	-0,08
247,694	-0,07
248,162	-0,07
248,629	-0,06
249,097	-0,07
249,564	-0,07
250,032	-0,08
250,499	-0,08
250,967	-0,08
251,434	-0,08
251,901	-0,08
252,369	-0,08
252,836	-0,1
253,303	-0,11
253,77	-0,13
254,237	-0,12
254,705	-0,12
255,172	-0,11
255,639	-0,11
256,106	-0,12
256,573	-0,12
257,04	-0,13
257,507	-0,13
257,974	-0,14
258,441	-0,12
258,908	-0,12
259,375	-0,13
259,841	-0,14
260,308	-0,14
260,775	-0,13
261,242	-0,13
261,709	-0,13
262,175	-0,15
262,642	-0,14
263,109	-0,13
263,575	-0,15
264,042	-0,14
264,508	-0,14
264,975	-0,16
265,441	-0,17
265,908	-0,18
266,374	-0,17
266,841	-0,18
267,307	-0,17
267,773	-0,16
268,24	-0,17
268,706	-0,16
269,172	-0,17
269,639	-0,18
270,105	-0,17
270,571	-0,17
271,037	-0,17
271,503	-0,19
271,969	-0,18
272,435	-0,18
272,902	-0,2
273,368	-0,22
273,834	-0,22
274,3	-0,22
274,765	-0,22
275,231	-0,21
275,697	-0,21
276,163	-0,2
276,629	-0,2
277,095	-0,21
277,56	-0,21
278,026	-0,2
278,492	-0,18
278,958	-0,18
279,423	-0,17
279,889	-0,17
280,354	-0,18
280,82	-0,18
281,286	-0,19
281,751	-0,19
282,217	-0,18
282,682	-0,18
283,147	-0,18
283,613	-0,18
284,078	-0,19
284,544	-0,2
285,009	-0,21
285,474	-0,2
285,939	-0,21
286,405	-0,2
286,87	-0,19
287,335	-0,2
287,8	-0,19
288,265	-0,18
288,73	-0,2
289,195	-0,21
289,66	-0,21
290,125	-0,21
290,59	-0,21
291,055	-0,19
291,52	-0,19
291,985	-0,2
292,45	-0,22
292,915	-0,22
293,38	-0,22
293,844	-0,21
294,309	-0,2
294,774	-0,18
295,239	-0,19
295,703	-0,18
296,168	-0,17
296,632	-0,16
297,097	-0,14
297,562	-0,12
298,026	-0,13
298,491	-0,13
298,955	-0,12
299,419	-0,12
299,884	-0,12
300,348	-0,12
300,813	-0,12
301,277	-0,13
301,741	-0,14
302,205	-0,14
302,67	-0,13
303,134	-0,13
303,598	-0,12
304,062	-0,12
304,526	-0,11
304,99	-0,11
305,454	-0,12
305,919	-0,12
306,383	-0,11
306,847	-0,1
307,31	-0,11
307,774	-0,12
308,238	-0,12
308,702	-0,12
309,166	-0,13
309,63	-0,13
310,094	-0,11
310,557	-0,1
311,021	-0,09
311,485	-0,1
311,948	-0,09
312,412	-0,08
312,876	-0,06
313,339	-0,07
313,803	-0,06
314,266	-0,05
314,73	-0,05
315,193	-0,06
315,657	-0,05
316,12	-0,06
316,584	-0,04
317,047	-0,05
317,51	-0,04
317,973	-0,05
318,437	-0,04
318,9	-0,03
319,363	-0,03
319,826	-0,03
320,29	-0,03
320,753	-0,03
321,216	-0,03
321,679	-0,04
322,142	-0,03
322,605	-0,05
323,068	-0,04
323,531	-0,04
323,994	-0,03
324,457	-0,03
324,92	-0,02
325,382	-0,01
325,845	-0,01
326,308	-0
326,771	0,01
327,233	0,01
327,696	0,03
328,159	0,04
328,622	0,05
329,084	0,05
329,547	0,05
330,009	0,06
330,472	0,07
330,934	0,08
331,397	0,08
331,859	0,09
332,322	0,09
332,784	0,08
333,246	0,09
333,709	0,08
334,171	0,09
334,633	0,09
335,096	0,09
335,558	0,09
336,02	0,09
336,482	0,09
336,944	0,1
337,406	0,11
337,868	0,12
338,331	0,12
338,793	0,14
339,255	0,14
339,717	0,14
340,178	0,15
340,64	0,16
341,102	0,17
341,564	0,19
342,026	0,2
342,488	0,2
342,949	0,22
343,411	0,25
343,873	0,28
344,335	0,32
344,796	0,36
345,258	0,41
345,719	0,46
346,181	0,51
346,643	0,56
347,104	0,6
347,566	0,64
348,027	0,67
348,488	0,7
348,95	0,72
349,411	0,75
349,873	0,78
350,334	0,8
350,795	0,82
351,256	0,84
351,718	0,85
352,179	0,85
352,64	0,86
353,101	0,86
353,562	0,87
354,023	0,87
354,484	0,87
354,945	0,88
355,406	0,88
355,867	0,89
356,328	0,89
356,789	0,89
357,25	0,9
357,711	0,9
358,172	0,9
358,633	0,9
359,093	0,9
359,554	0,91
360,015	0,91
360,476	0,91
360,936	0,91
361,397	0,91
361,858	0,91
362,318	0,91
362,779	0,92
363,239	0,92
363,7	0,92
364,16	0,92
364,621	0,92
365,081	0,92
365,541	0,92
366,002	0,92
366,462	0,92
366,922	0,92
367,383	0,92
367,843	0,92
368,303	0,92
368,763	0,92
369,223	0,92
369,684	0,92
370,144	0,92
370,604	0,92
371,064	0,92
371,524	0,92
371,984	0,92
372,444	0,92
372,904	0,92
373,363	0,92
373,823	0,92
374,283	0,92
374,743	0,92
375,203	0,92
375,663	0,92
376,122	0,92
376,582	0,92
377,042	0,92
377,501	0,92
377,961	0,92
378,42	0,92
378,88	0,92
379,34	0,91
379,799	0,91
380,259	0,91
380,718	0,91
381,177	0,91
381,637	0,91
382,096	0,91
382,555	0,91
383,015	0,91
383,474	0,91
383,933	0,91
384,393	0,91
384,852	0,91
385,311	0,91
385,77	0,91
386,229	0,91
386,688	0,91
387,147	0,91
387,606	0,91
388,065	0,91
388,524	0,91
388,983	0,91
389,442	0,91
389,901	0,91
390,36	0,9
390,819	0,9
391,277	0,9
391,736	0,9
392,195	0,9
392,654	0,9
393,112	0,9
393,571	0,9
394,03	0,9
394,488	0,9
394,947	0,9
395,405	0,9
395,864	0,9
396,322	0,9
396,781	0,9
397,239	0,9
397,698	0,9
398,156	0,9
398,614	0,9
399,073	0,9
399,531	0,9
399,989	0,9
400,447	0,9
400,905	0,9
401,364	0,9
401,822	0,9
402,28	0,9
402,738	0,9
403,196	0,9
403,654	0,9
404,112	0,9
404,57	0,9
405,028	0,9
405,486	0,89
405,944	0,89
406,402	0,89
406,859	0,89
407,317	0,9
407,775	0,9
408,233	0,9
408,691	0,9
409,148	0,9
409,606	0,89
410,064	0,89
410,521	0,89
410,979	0,89
411,436	0,89
411,894	0,89
412,351	0,89
412,809	0,89
413,266	0,89
413,724	0,89
414,181	0,89
414,638	0,89
415,096	0,89
415,553	0,89
416,01	0,89
416,467	0,89
416,925	0,89
417,382	0,89
417,839	0,89
418,296	0,89
418,753	0,89
419,21	0,89
419,667	0,89
420,124	0,89
420,581	0,89
421,038	0,89
421,495	0,89
421,952	0,89
422,409	0,89
422,866	0,89
423,322	0,89
423,779	0,89
424,236	0,89
424,693	0,89
425,149	0,89
425,606	0,89
426,063	0,89
426,519	0,89
426,976	0,89
427,433	0,89
427,889	0,89
428,346	0,89
428,802	0,89
429,258	0,89
429,715	0,89
430,171	0,89
430,628	0,89
431,084	0,89
431,54	0,89
431,997	0,89
432,453	0,89
432,909	0,89
433,365	0,89
433,821	0,88
434,277	0,88
434,734	0,88
435,19	0,88
435,646	0,88
436,102	0,88
436,558	0,88
437,014	0,88
437,47	0,88
437,925	0,88
438,381	0,88
438,837	0,89
439,293	0,89
439,749	0,89
440,205	0,89
440,66	0,89
441,116	0,89
441,572	0,89
442,027	0,89
442,483	0,89
442,939	0,89
443,394	0,89
443,85	0,89
444,305	0,89
444,761	0,89
445,216	0,89
445,672	0,89
446,127	0,89
446,582	0,89
447,038	0,89
447,493	0,89
447,948	0,89
448,403	0,89
448,859	0,89
449,314	0,89
449,769	0,89
450,224	0,89
450,679	0,89
451,134	0,89
451,589	0,9
452,044	0,9
452,499	0,9
452,954	0,9
453,409	0,9
453,864	0,9
454,319	0,9
454,774	0,9
455,229	0,9
455,684	0,9
456,138	0,9
456,593	0,9
457,048	0,9
457,503	0,9
457,957	0,9
458,412	0,9
458,866	0,9
459,321	0,9
459,776	0,9
460,23	0,9
460,685	0,9
461,139	0,9
461,593	0,91
462,048	0,91
462,502	0,91
462,957	0,91
463,411	0,91
463,865	0,91
464,319	0,91
464,774	0,91
465,228	0,91
465,682	0,91
466,136	0,91
466,59	0,91
467,044	0,92
467,499	0,92
467,953	0,92
468,407	0,92
468,861	0,92
469,315	0,92
469,768	0,92
470,222	0,92
470,676	0,92
471,13	0,92
471,584	0,93
472,038	0,93
472,491	0,93
472,945	0,93
473,399	0,93
473,852	0,93
474,306	0,93
474,76	0,93
475,213	0,94
475,667	0,94
476,12	0,94
476,574	0,94
477,027	0,94
477,481	0,94
477,934	0,94
478,388	0,95
478,841	0,95
479,294	0,95
479,748	0,95
480,201	0,95
480,654	0,96
481,107	0,96
481,561	0,96
482,014	0,96
482,467	0,96
482,92	0,97
483,373	0,97
483,826	0,97
484,279	0,97
484,732	0,98
485,185	0,98
485,638	0,98
486,091	0,98
486,544	0,98
486,997	0,99
487,449	0,99
487,902	0,99
488,355	0,99
488,808	1
489,26	1
489,713	1
490,166	1,01
490,618	1,01
491,071	1,01
491,523	1,02
491,976	1,02
492,429	1,02
492,881	1,03
493,333	1,03
493,786	1,03
494,238	1,04
494,691	1,04
495,143	1,05
495,595	1,05
496,048	1,05
496,5	1,06
496,952	1,06
497,404	1,06
497,856	1,07
498,309	1,07
498,761	1,08
499,213	1,08
499,665	1,08
500,117	1,09
500,569	1,09
501,021	1,1
501,473	1,1
501,925	1,11
502,377	1,11
502,828	1,12
503,28	1,12
503,732	1,12
504,184	1,13
504,636	1,13
505,087	1,14
505,539	1,14
505,991	1,15
506,442	1,15
506,894	1,16
507,345	1,16
507,797	1,17
508,249	1,17
508,7	1,17
509,151	1,18
509,603	1,18
510,054	1,19
510,506	1,19
510,957	1,2
511,408	1,2
511,86	1,2
512,311	1,21
512,762	1,21
513,213	1,21
513,665	1,22
514,116	1,22
514,567	1,22
515,018	1,23
515,469	1,23
515,92	1,24
516,371	1,24
516,822	1,24
517,273	1,25
517,724	1,25
518,175	1,25
518,626	1,26
519,076	1,26
519,527	1,26
519,978	1,26
520,429	1,26
520,88	1,27
521,33	1,27
521,781	1,27
522,232	1,27
522,682	1,27
523,133	1,28
523,583	1,28
524,034	1,28
524,484	1,28
524,935	1,28
525,385	1,28
525,836	1,28
526,286	1,28
526,736	1,28
527,187	1,28
527,637	1,28
528,087	1,28
528,538	1,28
528,988	1,28
529,438	1,28
529,888	1,28
530,338	1,28
530,788	1,27
531,238	1,27
531,688	1,27
532,139	1,27
532,589	1,27
533,038	1,26
533,488	1,26
533,938	1,26
534,388	1,26
534,838	1,25
535,288	1,25
535,738	1,25
536,187	1,24
536,637	1,24
537,087	1,23
537,537	1,23
537,986	1,22
538,436	1,22
538,885	1,21
539,335	1,21
539,785	1,2
540,234	1,2
540,684	1,19
541,133	1,19
541,582	1,18
542,032	1,17
542,481	1,17
542,931	1,16
543,38	1,16
543,829	1,15
544,278	1,14
544,728	1,14
545,177	1,13
545,626	1,13
546,075	1,12
546,524	1,12
546,973	1,11
547,422	1,11
547,871	1,1
548,32	1,1
548,769	1,1
549,218	1,09
549,667	1,09
550,116	1,09
550,565	1,08
551,014	1,08
551,463	1,07
551,911	1,07
552,36	1,06
552,809	1,06
553,258	1,05
553,706	1,05
554,155	1,04
554,603	1,04
555,052	1,03
555,501	1,03
555,949	1,02
556,398	1,02
556,846	1,01
557,294	1,01
557,743	1
558,191	0,99
558,64	0,99
559,088	0,98
559,536	0,97
559,985	0,97
560,433	0,96
560,881	0,96
561,329	0,95
561,777	0,95
562,225	0,95
562,674	0,94
563,122	0,94
563,57	0,93
564,018	0,93
564,466	0,92
564,914	0,92
565,362	0,91
565,809	0,91
566,257	0,9
566,705	0,9
567,153	0,89
567,601	0,89
568,048	0,88
568,496	0,88
568,944	0,87
569,392	0,87
569,839	0,87
570,287	0,86
570,734	0,86
571,182	0,85
571,63	0,85
572,077	0,85
572,525	0,84
572,972	0,84
573,419	0,83
573,867	0,83
574,314	0,82
574,761	0,82
575,209	0,81
575,656	0,81
576,103	0,81
576,551	0,8
576,998	0,8
577,445	0,8
577,892	0,79
578,339	0,79
578,786	0,79
579,233	0,78
579,68	0,78
580,127	0,78
580,574	0,77
581,021	0,77
581,468	0,77
581,915	0,76
582,362	0,76
582,809	0,76
583,255	0,75
583,702	0,75
584,149	0,75
584,596	0,75
585,042	0,74
585,489	0,74
585,936	0,73
586,382	0,73
586,829	0,73
587,275	0,73
587,722	0,72
588,168	0,72
588,615	0,72
589,061	0,72
589,508	0,71
589,954	0,71
590,4	0,71
590,847	0,71
591,293	0,7
591,739	0,7
592,185	0,7
592,632	0,7
593,078	0,7
593,524	0,7
593,97	0,7
594,416	0,69
594,862	0,69
595,308	0,69
595,754	0,69
596,2	0,69
596,646	0,68
597,092	0,68
597,538	0,68
597,984	0,68
598,43	0,68
598,876	0,67
599,321	0,67
599,767	0,67
600,213	0,67
600,659	0,67
601,104	0,67
601,55	0,66
601,995	0,66
602,441	0,66
602,887	0,66
603,332	0,66
603,778	0,66
604,223	0,66
604,668	0,66
605,114	0,65
605,559	0,65
606,005	0,65
606,45	0,65
606,895	0,65
607,341	0,65
607,786	0,65
608,231	0,64
608,676	0,64
609,121	0,63
609,566	0,62
610,012	0,62
610,457	0,61
610,902	0,61
611,347	0,6
611,792	0,6
612,237	0,6
612,682	0,6
613,127	0,6
613,571	0,6
614,016	0,6
614,461	0,61
614,906	0,61
615,351	0,61
615,795	0,61
616,24	0,61
616,685	0,61
617,129	0,61
617,574	0,61
618,019	0,61
618,463	0,61
618,908	0,61
619,352	0,61
619,797	0,61
620,241	0,61
620,686	0,61
621,13	0,61
621,574	0,61
622,019	0,61
622,463	0,61
622,907	0,61
623,352	0,6
623,796	0,6
624,24	0,6
624,684	0,6
625,128	0,6
625,572	0,6
626,016	0,6
626,461	0,6
626,905	0,6
627,349	0,6
627,793	0,6
628,236	0,6
628,68	0,6
629,124	0,6
629,568	0,59
630,012	0,59
630,456	0,59
630,9	0,59
631,343	0,59
631,787	0,59
632,231	0,59
632,674	0,59
633,118	0,59
633,562	0,59
634,005	0,59
634,449	0,59
634,892	0,59
635,336	0,59
635,779	0,59
636,223	0,59
636,666	0,59
637,109	0,59
637,553	0,59
637,996	0,59
638,439	0,59
638,883	0,59
639,326	0,59
639,769	0,59
640,212	0,59
640,655	0,59
641,099	0,59
641,542	0,59
641,985	0,58
642,428	0,58
642,871	0,58
643,314	0,58
643,757	0,58
644,2	0,58
644,643	0,58
645,085	0,58
645,528	0,58
645,971	0,58
646,414	0,58
646,857	0,58
647,299	0,58
647,742	0,57
648,185	0,57
648,627	0,57
649,07	0,57
649,513	0,57
649,955	0,57
650,398	0,57
650,84	0,57
651,283	0,57
651,725	0,57
652,168	0,57
652,61	0,57
653,052	0,57
653,495	0,57
653,937	0,48
654,379	0,42
654,821	0,43
655,264	0,43
655,706	0,43
656,148	0,43
656,59	0,43
657,032	0,43
657,474	0,43
657,916	0,43
658,358	0,42
658,8	0,49
659,242	0,57
659,684	0,57
660,126	0,57
660,568	0,57
661,01	0,57
661,452	0,57
661,894	0,57
662,335	0,57
662,777	0,57
663,219	0,57
663,661	0,57
664,102	0,57
664,544	0,57
664,985	0,56
665,427	0,56
665,869	0,56
666,31	0,56
666,752	0,56
667,193	0,56
667,634	0,56
668,076	0,56
668,517	0,56
668,959	0,56
669,4	0,56
669,841	0,56
670,282	0,56
670,724	0,56
671,165	0,56
671,606	0,56
672,047	0,56
672,488	0,56
672,929	0,56
673,37	0,56
673,811	0,56
674,252	0,56
674,693	0,56
675,134	0,56
675,575	0,56
676,016	0,56
676,457	0,56
676,898	0,56
677,339	0,56
677,78	0,56
678,22	0,56
678,661	0,56
679,102	0,56
679,542	0,56
679,983	0,56
680,424	0,56
680,864	0,56
681,305	0,56
681,745	0,56
682,186	0,56
682,626	0,56
683,067	0,56
683,507	0,56
683,948	0,56
684,388	0,56
684,828	0,56
685,269	0,56
685,709	0,56
686,149	0,56
686,589	0,55
687,029	0,55
687,47	0,55
687,91	0,55
688,35	0,55
688,79	0,55
689,23	0,55
689,67	0,55
690,11	0,55
690,55	0,55
690,99	0,55
691,43	0,55
691,87	0,55
692,31	0,55
692,749	0,55
693,189	0,54
693,629	0,54
694,069	0,54
694,508	0,54
694,948	0,54
695,388	0,54
695,827	0,54
696,267	0,54
696,706	0,54
697,146	0,55
697,586	0,55
698,025	0,55
698,464	0,55
698,904	0,55
699,343	0,55
699,783	0,55
700,222	0,55
700,661	0,55
701,101	0,55
701,54	0,55
701,979	0,55
702,418	0,55
702,857	0,55
703,297	0,55
703,736	0,55
704,175	0,55
704,614	0,55
705,053	0,55
705,492	0,55
705,931	0,55
706,37	0,55
706,809	0,55
707,248	0,54
707,687	0,54
708,125	0,54
708,564	0,54
709,003	0,54
709,442	0,54
709,88	0,54
710,319	0,54
710,758	0,54
711,196	0,54
711,635	0,54
712,074	0,54
712,512	0,54
712,951	0,54
713,389	0,54
713,828	0,54
714,266	0,54
714,705	0,54
715,143	0,54
715,581	0,54
716,02	0,54
716,458	0,54
716,896	0,54
717,334	0,54
717,773	0,54
718,211	0,54
718,649	0,54
719,087	0,54
719,525	0,54
719,963	0,54
720,401	0,54
720,839	0,54
721,277	0,54
721,715	0,54
722,153	0,54
722,591	0,54
723,029	0,54
723,467	0,54
723,905	0,53
724,342	0,53
724,78	0,53
725,218	0,53
725,656	0,53
726,093	0,53
726,531	0,53
726,969	0,53
727,406	0,53
727,844	0,53
728,281	0,53
728,719	0,53
729,156	0,53
729,594	0,53
730,031	0,53
730,469	0,53
730,906	0,53
731,343	0,53
731,781	0,53
732,218	0,53
732,655	0,53
733,092	0,53
733,53	0,53
733,967	0,53
734,404	0,53
734,841	0,53
735,278	0,53
735,715	0,53
736,152	0,53
736,589	0,52
737,026	0,52
737,463	0,52
737,9	0,52
738,337	0,52
738,774	0,52
739,211	0,52
739,647	0,52
740,084	0,52
740,521	0,52
740,958	0,53
741,394	0,53
741,831	0,53
742,268	0,53
742,704	0,53
743,141	0,53
743,577	0,52
744,014	0,52
744,45	0,52
744,887	0,52
745,323	0,52
745,76	0,52
746,196	0,52
746,632	0,52
747,069	0,52
747,505	0,52
747,941	0,52
748,378	0,52
748,814	0,52
749,25	0,52
749,686	0,52
750,122	0,52
750,558	0,52
750,994	0,52
751,43	0,52
751,866	0,52
752,302	0,52
752,738	0,52
753,174	0,52
753,61	0,52
754,046	0,51
754,482	0,51
754,918	0,51
755,354	0,51
755,789	0,51
756,225	0,51
756,661	0,51
757,096	0,51
757,532	0,5
757,968	0,5
758,403	0,5
758,839	0,5
759,274	0,49
759,71	0,49
760,145	0,48
760,581	0,47
761,016	0,47
761,452	0,46
761,887	0,46
762,322	0,46
762,758	0,45
763,193	0,45
763,628	0,44
764,063	0,43
764,499	0,42
764,934	0,42
765,369	0,41
765,804	0,4
766,239	0,4
766,674	0,39
767,109	0,38
767,544	0,37
767,979	0,36
768,414	0,35
768,849	0,34
769,284	0,33
769,719	0,31
770,154	0,31
770,588	0,29
771,023	0,28
771,458	0,26
771,893	0,25
772,327	0,24
772,762	0,23
773,197	0,22
773,631	0,21
774,066	0,2
774,5	0,19
774,935	0,18
775,369	0,17
775,804	0,16
776,238	0,15
776,673	0,14
777,107	0,13
777,541	0,12
777,976	0,11
778,41	0,11
778,844	0,09
779,279	0,09
779,713	0,08
780,147	0,06
780,581	0,06
781,015	0,04
781,449	0,03
781,883	0,02
782,317	0,01
782,751	-0
783,185	-0,01
783,619	-0,02
784,053	-0,03
784,487	-0,04
784,921	-0,04
785,355	-0,05
785,789	-0,06
786,223	-0,06
786,656	-0,08
787,09	-0,09
787,524	-0,1
787,957	-0,11
788,391	-0,13
788,825	-0,15
789,258	-0,17
789,692	-0,19
790,125	-0,2
790,559	-0,21
790,992	-0,24
791,426	-0,26
791,859	-0,28
792,293	-0,31
792,726	-0,32
793,159	-0,34
793,593	-0,35
794,026	-0,38
794,459	-0,41
794,892	-0,44
795,326	-0,46
795,759	-0,5
796,192	-0,55
796,625	-0,59
797,058	-0,62
797,491	-0,66
797,924	-0,7
798,357	-0,75
798,79	-0,79
799,223	-0,83
799,656	-0,89
800,089	-0,94
800,522	-0,98
800,955	-1,02
801,387	-1,08
801,82	-1,13
802,253	-1,2
802,686	-1,28
803,118	-1,33
803,551	-1,39
803,984	-1,43
804,416	-1,47
804,849	-1,5
805,281	-1,62
805,714	-1,97
806,146	-2,43
806,579	-2,7
807,011	-2,86
807,444	-2,96
807,876	-3,05
808,308	-3,09
808,741	-3,12
809,173	-3,17
809,605	-3,19
810,037	-3,27
810,47	-3,19
810,902	-3
811,334	-2,85
811,766	-2,71
812,198	-2,48
812,63	-2,05
813,062	-1,8
813,494	-1,69
813,926	-1,61
814,358	-1,55
814,79	-1,47
815,222	-1,41
815,654	-1,36
816,086	-1,3
816,518	-1,25
816,949	-1,19
817,381	-1,15
817,813	-1,13
818,245	-1,09
818,676	-1,05
819,108	-1,01
819,54	-1
819,971	-0,98
820,403	-0,93
820,834	-0,91
821,266	-0,86
821,697	-0,84
822,129	-0,83
822,56	-0,8
822,991	-0,78
823,423	-0,75
823,854	-0,74
824,286	-0,71
824,717	-0,7
825,148	-0,69
825,579	-0,67
826,01	-0,66
826,442	-0,65
826,873	-0,63
827,304	-0,59
827,735	-0,58
828,166	-0,59
828,597	-0,58
829,028	-0,56
829,459	-0,57
829,89	-0,57
830,321	-0,54
830,752	-0,55
831,183	-0,54
831,613	-0,54
832,044	-0,54
832,475	-0,53
832,906	-0,54
833,336	-0,55
833,767	-0,55
834,198	-0,54
834,628	-0,52
835,059	-0,55
835,49	-0,55
835,92	-0,52
836,351	-0,52
836,781	-0,53
837,212	-0,54
837,642	-0,55
838,072	-0,52
838,503	-0,53
838,933	-0,5
839,364	-0,51
839,794	-0,5
840,224	-0,49
840,654	-0,54
841,085	-0,55
841,515	-0,52
841,945	-0,52
842,375	-0,47
842,805	-0,47
843,235	-0,46
843,665	-0,48
844,095	-0,47
844,525	-0,48
844,955	-0,49
845,385	-0,47
845,815	-0,45
846,245	-0,47
846,675	-0,48
847,105	-0,5
847,534	-0,51
847,964	-0,49
848,394	-0,48
848,824	-0,51
849,253	-0,5
849,683	-0,5
850,112	-0,51
850,542	-0,54
850,972	-0,53
851,401	-0,51
851,831	-0,5
852,26	-0,5
852,69	-0,53
853,119	-0,53
853,548	-0,53
853,978	-0,53
854,407	-0,51
854,836	-0,5
855,266	-0,49
855,695	-0,51
856,124	-0,52
856,553	-0,54
856,983	-0,56
857,412	-0,54
857,841	-0,55
858,27	-0,56
858,699	-0,56
859,128	-0,61
859,557	-0,62
859,986	-0,62
860,415	-0,6
860,844	-0,57
861,273	-0,58
861,702	-0,58
862,13	-0,57
862,559	-0,6
862,988	-0,57
863,417	-0,56
863,845	-0,54
864,274	-0,55
864,703	-0,55
865,131	-0,56
865,56	-0,56
865,989	-0,58
866,417	-0,56
866,846	-0,56
867,274	-0,55
867,703	-0,58
868,131	-0,59
868,559	-0,59
868,988	-0,6
869,416	-0,59
869,844	-0,6
870,273	-0,62
870,701	-0,6
871,129	-0,63
871,557	-0,65
871,986	-0,65
872,414	-0,67
872,842	-0,64
873,27	-0,62
873,698	-0,61
874,126	-0,65
874,554	-0,63
874,982	-0,63
875,41	-0,66
875,838	-0,61
876,266	-0,59
876,694	-0,58
877,122	-0,57
877,549	-0,64
877,977	-0,61
878,405	-0,63
878,833	-0,59
879,26	-0,58
879,688	-0,58
880,116	-0,55
880,543	-0,54
880,971	-0,53
881,399	-0,56
881,826	-0,57
882,254	-0,54
882,681	-0,57
883,109	-0,53
883,536	-0,55
883,963	-0,57
884,391	-0,55
884,818	-0,54
885,245	-0,58
885,673	-0,6
886,1	-0,56
886,527	-0,56
886,954	-0,52
887,381	-0,54
887,809	-0,55
888,236	-0,56
888,663	-0,57
889,09	-0,6
889,517	-0,63
889,944	-0,62
890,371	-0,6
890,798	-0,62
891,225	-0,62
891,652	-0,65
892,078	-0,62
892,505	-0,65
892,932	-0,6
893,359	-0,61
893,786	-0,61
894,212	-0,58
894,639	-0,6
895,066	-0,62
895,492	-0,57
895,919	-0,57
896,346	-0,56
896,772	-0,56
897,199	-0,53
897,625	-0,55
898,052	-0,51
898,478	-0,5
898,904	-0,51
899,331	-0,5
899,757	-0,52
900,183	-0,54
900,61	-0,53
901,036	-0,53
901,462	-0,54
901,888	-0,55
902,315	-0,54
902,741	-0,59
903,167	-0,57
903,593	-0,61
904,019	-0,59
904,445	-0,56
904,871	-0,58
905,297	-0,6
905,723	-0,6
906,149	-0,58
906,575	-0,57
907,001	-0,57
907,427	-0,54
907,852	-0,54
908,278	-0,54
908,704	-0,52
909,13	-0,52
909,555	-0,51
909,981	-0,5
910,407	-0,51
910,832	-0,51
911,258	-0,52
911,684	-0,52
912,109	-0,53
912,535	-0,55
912,96	-0,51
913,386	-0,55
913,811	-0,55
914,236	-0,56
914,662	-0,54
915,087	-0,57
915,512	-0,58
915,938	-0,6
916,363	-0,59
916,788	-0,6
917,213	-0,58
917,639	-0,63
918,064	-0,6
918,489	-0,61
918,914	-0,61
919,339	-0,62
919,764	-0,59
920,189	-0,58
920,614	-0,6
921,039	-0,61
921,464	-0,56
921,889	-0,59
922,314	-0,59
922,738	-0,63
923,163	-0,65
923,588	-0,64
924,013	-0,64
924,437	-0,64
924,862	-0,65
925,287	-0,6
925,711	-0,61
926,136	-0,62
926,561	-0,61
926,985	-0,59
927,41	-0,56
927,834	-0,52
928,259	-0,5
928,683	-0,47
929,108	-0,44
929,532	-0,45
929,956	-0,45
930,381	-0,44
930,805	-0,44
931,229	-0,43
931,653	-0,41
932,078	-0,41
932,502	-0,42
932,926	-0,42
933,35	-0,43
933,774	-0,43
934,198	-0,42
934,622	-0,4
935,046	-0,4
935,47	-0,42
935,894	-0,41
936,318	-0,41
936,742	-0,42
937,166	-0,43
937,59	-0,42
938,014	-0,44
938,437	-0,45
938,861	-0,46
939,285	-0,47
939,709	-0,48
940,132	-0,47
940,556	-0,47
940,98	-0,47
941,403	-0,45
941,827	-0,45
942,25	-0,47
942,674	-0,46
943,097	-0,45
943,521	-0,44
943,944	-0,45
944,368	-0,44
944,791	-0,43
945,214	-0,45
945,638	-0,46
946,061	-0,5
946,484	-0,51
946,907	-0,49
947,331	-0,49
947,754	-0,54
948,177	-0,52
948,6	-0,52
949,023	-0,51
949,446	-0,52
949,869	-0,49
950,292	-0,49
950,715	-0,46
951,138	-0,45
951,561	-0,43
951,984	-0,42
952,407	-0,41
952,83	-0,39
953,252	-0,36
953,675	-0,36
954,098	-0,36
954,521	-0,36
954,943	-0,35
955,366	-0,35
955,789	-0,34
956,211	-0,36
956,634	-0,37
957,056	-0,34
957,479	-0,35
957,902	-0,37
958,324	-0,37
958,746	-0,36
959,169	-0,36
959,591	-0,37
960,014	-0,38
960,436	-0,37
960,858	-0,36
961,281	-0,37
961,703	-0,39
962,125	-0,38
962,547	-0,36
962,969	-0,37
963,391	-0,37
963,814	-0,39
964,236	-0,37
964,658	-0,34
965,08	-0,35
965,502	-0,34
965,924	-0,31
966,346	-0,3
966,768	-0,3
967,189	-0,32
967,611	-0,3
968,033	-0,3
968,455	-0,28
968,877	-0,29
969,298	-0,3
969,72	-0,31
970,142	-0,3
970,563	-0,31
970,985	-0,3
971,407	-0,29
971,828	-0,26
972,25	-0,26
972,671	-0,25
973,093	-0,24
973,514	-0,22
973,936	-0,21
974,357	-0,19
974,778	-0,19
975,2	-0,18
975,621	-0,18
976,042	-0,16
976,464	-0,15
976,885	-0,14
977,306	-0,14
977,727	-0,14
978,148	-0,13
978,57	-0,11
978,991	-0,09
979,412	-0,08
979,833	-0,07
980,254	-0,06
980,675	-0,06
981,096	-0,05
981,517	-0,03
981,937	-0,02
982,358	-0
982,779	0,01
983,2	0,01
983,621	0,01
984,042	0,02
984,462	0,04
984,883	0,05
985,304	0,07
985,724	0,08
986,145	0,1
986,565	0,11
986,986	0,12
987,407	0,13
987,827	0,15
988,248	0,17
988,668	0,18
989,088	0,19
989,509	0,21
989,929	0,22
990,35	0,23
990,77	0,25
991,19	0,26
991,61	0,28
992,031	0,29
992,451	0,3
992,871	0,31
993,291	0,32
993,711	0,33
994,131	0,34
994,551	0,35
994,971	0,36
995,391	0,37
995,811	0,38
996,231	0,38
996,651	0,39
997,071	0,4
997,491	0,41
997,911	0,42
998,331	0,43
998,75	0,43
999,17	0,44
999,59	0,45
1000,009	0,45
1000,429	0,46
1000,849	0,47
1001,268	0,47
1001,688	0,48
1002,107	0,48
1002,527	0,48
1002,946	0,49
1003,366	0,49
1003,785	0,5
1004,205	0,5
1004,624	0,5
1005,044	0,51
1005,463	0,51
1005,882	0,51
1006,301	0,51
1006,721	0,52
1007,14	0,52
1007,559	0,52
1007,978	0,52
1008,397	0,52
1008,816	0,52
1009,235	0,52
1009,655	0,52
1010,074	0,52
1010,492	0,52
1010,911	0,52
1011,33	0,52
1011,749	0,52
1012,168	0,52
1012,587	0,52
1013,006	0,52
1013,425	0,52
1013,843	0,52
1014,262	0,52
1014,681	0,51
1015,099	0,51
1015,518	0,51
1015,937	0,51
1016,355	0,51
1016,774	0,51
1017,192	0,51
1017,611	0,51
1018,029	0,51
1018,448	0,51
1018,866	0,51
1019,285	0,51
1019,703	0,51
1020,121	0,51
1020,54	0,51
1020,958	0,51
1021,376	0,51
1021,794	0,51
1022,213	0,51
1022,631	0,51
1023,049	0,51
1023,467	0,51
1023,885	0,51
1024,303	0,51
1024,721	0,51
1025,139	0,5
1025,557	0,5
1025,975	0,5
1026,393	0,5
1026,811	0,5
1027,229	0,5
1027,647	0,5
1028,065	0,5
1028,482	0,49
1028,9	0,49
1029,318	0,49
1029,735	0,49
1030,153	0,49
1030,571	0,49
1030,988	0,5
1031,406	0,5
1031,823	0,5
1032,241	0,5
1032,659	0,5
1033,076	0,5
1033,493	0,5
1033,911	0,5
1034,328	0,5
1034,746	0,5
1035,163	0,5
1035,58	0,5
1035,997	0,5
1036,415	0,49
1036,832	0,49
1037,249	0,49
1037,666	0,49
1038,083	0,49
1038,501	0,49
1038,918	0,49
1039,335	0,49
1039,752	0,49
1040,169	0,49
1040,586	0,49
1041,003	0,49
1041,419	0,5
1041,836	0,49
1042,253	0,49
1042,67	0,5
1043,087	0,49
1043,504	0,49
1043,92	0,49
1044,337	0,49
1044,754	0,49
1045,17	0,49
1045,587	0,49
1046,004	0,49
1046,42	0,49
1046,837	0,49
1047,253	0,49
1047,67	0,49
1048,086	0,49
1048,503	0,49
1048,919	0,49
1049,335	0,49
1049,752	0,49
1050,168	0,49
1050,584	0,49
1051,001	0,49
1051,417	0,49
1051,833	0,49
1052,249	0,49
1052,665	0,5
1053,081	0,5
1053,497	0,5
1053,914	0,5
1054,33	0,5
1054,746	0,5
1055,162	0,5
1055,578	0,5
1055,993	0,51
1056,409	0,51
1056,825	0,51
1057,241	0,51
1057,657	0,51
1058,073	0,51
1058,488	0,51
1058,904	0,51
1059,32	0,51
1059,736	0,51
1060,151	0,51
1060,567	0,51
1060,982	0,51
1061,398	0,51
1061,813	0,51
1062,229	0,51
1062,644	0,51
1063,06	0,51
1063,475	0,51
1063,891	0,51
1064,306	0,51
1064,721	0,51
1065,137	0,51
1065,552	0,51
1065,967	0,5
1066,382	0,5
1066,798	0,5
1067,213	0,5
1067,628	0,5
1068,043	0,5
1068,458	0,5
1068,873	0,5
1069,288	0,5
1069,703	0,5
1070,118	0,5
1070,533	0,5
1070,948	0,5
1071,363	0,5
1071,778	0,5
1072,193	0,5
1072,607	0,5
1073,022	0,5
1073,437	0,5
1073,852	0,5
1074,266	0,51
1074,681	0,51
1075,096	0,5
1075,51	0,5
1075,925	0,5
1076,339	0,5
1076,754	0,5
1077,168	0,5
1077,583	0,5
1077,997	0,5
1078,412	0,5
1078,826	0,5
1079,24	0,49
1079,655	0,49
1080,069	0,49
1080,483	0,49
1080,897	0,49
1081,312	0,49
1081,726	0,49
1082,14	0,49
1082,554	0,49
1082,968	0,49
1083,382	0,49
1083,796	0,48
1084,21	0,48
1084,624	0,48
1085,038	0,48
1085,452	0,48
1085,866	0,47
1086,28	0,47
1086,694	0,47
1087,108	0,47
1087,521	0,47
1087,935	0,46
1088,349	0,46
1088,763	0,46
1089,176	0,46
1089,59	0,46
1090,004	0,46
1090,417	0,45
1090,831	0,45
1091,244	0,44
1091,658	0,44
1092,071	0,44
1092,485	0,44
1092,898	0,43
1093,312	0,43
1093,725	0,43
1094,138	0,43
1094,552	0,42
1094,965	0,42
1095,378	0,42
1095,791	0,42
1096,205	0,42
1096,618	0,41
1097,031	0,41
1097,444	0,4
1097,857	0,4
1098,27	0,4
1098,683	0,39
1099,096	0,39
1099,509	0,38
1099,922	0,37
1100,335	0,37
1100,748	0,36
1101,161	0,36
1101,574	0,35
1101,986	0,35
1102,399	0,35
1102,812	0,34
1103,225	0,33
1103,637	0,33
1104,05	0,33
1104,463	0,33
1104,875	0,32
1105,288	0,32
1105,7	0,31
1106,113	0,31
1106,525	0,31
1106,938	0,3
1107,35	0,29
1107,763	0,29
1108,175	0,29
1108,588	0,29
1109	0,28
1109,412	0,27
1109,824	0,27
1110,237	0,27
1110,649	0,26
1111,061	0,24
