Data from 18C-808nm-8A-cont_Absorbance__509__01938.txt Node

Date: Mon Jul 17 17:37:48 CEST 2023
User: Laser008
Spectrometer: MAYP115816
Trigger mode: 0
Integration Time (sec): 2,500000E-1
Scans to average: 10
Electric dark correction enabled: true
Nonlinearity correction enabled: true
Boxcar width: 5
XAxis mode: Wavelengths
Number of Pixels in Spectrum: 2068
>>>>>Begin Spectral Data<<<<<
198,914	-0,78
199,384	-0,56
199,855	-0,41
200,325	-0,32
200,796	-0,28
201,266	-0,23
201,737	-0,21
202,207	-0,2
202,677	-0,19
203,147	-0,17
203,618	-0,14
204,088	-0,11
204,558	-0,09
205,028	-0,09
205,498	-0,09
205,968	-0,09
206,439	-0,11
206,909	-0,1
207,379	-0,1
207,849	-0,11
208,319	-0,12
208,789	-0,12
209,258	-0,12
209,728	-0,13
210,198	-0,13
210,668	-0,12
211,138	-0,12
211,608	-0,12
212,077	-0,12
212,547	-0,11
213,017	-0,11
213,486	-0,11
213,956	-0,12
214,426	-0,13
214,895	-0,13
215,365	-0,14
215,834	-0,14
216,304	-0,16
216,773	-0,15
217,243	-0,17
217,712	-0,18
218,181	-0,18
218,651	-0,18
219,12	-0,18
219,589	-0,19
220,058	-0,18
220,528	-0,19
220,997	-0,2
221,466	-0,2
221,935	-0,21
222,404	-0,2
222,873	-0,19
223,342	-0,18
223,812	-0,18
224,281	-0,17
224,749	-0,18
225,218	-0,19
225,687	-0,19
226,156	-0,19
226,625	-0,18
227,094	-0,18
227,563	-0,18
228,031	-0,19
228,5	-0,19
228,969	-0,2
229,438	-0,2
229,906	-0,19
230,375	-0,19
230,844	-0,18
231,312	-0,18
231,781	-0,18
232,249	-0,17
232,718	-0,18
233,186	-0,16
233,655	-0,16
234,123	-0,16
234,591	-0,16
235,06	-0,17
235,528	-0,17
235,996	-0,16
236,465	-0,16
236,933	-0,15
237,401	-0,16
237,869	-0,14
238,337	-0,15
238,805	-0,14
239,274	-0,13
239,742	-0,12
240,21	-0,12
240,678	-0,11
241,146	-0,11
241,614	-0,11
242,081	-0,1
242,549	-0,1
243,017	-0,11
243,485	-0,11
243,953	-0,11
244,421	-0,11
244,888	-0,11
245,356	-0,11
245,824	-0,1
246,291	-0,11
246,759	-0,11
247,227	-0,12
247,694	-0,11
248,162	-0,1
248,629	-0,1
249,097	-0,11
249,564	-0,11
250,032	-0,12
250,499	-0,12
250,967	-0,13
251,434	-0,14
251,901	-0,13
252,369	-0,13
252,836	-0,14
253,303	-0,16
253,77	-0,17
254,237	-0,16
254,705	-0,17
255,172	-0,16
255,639	-0,16
256,106	-0,17
256,573	-0,17
257,04	-0,18
257,507	-0,18
257,974	-0,19
258,441	-0,17
258,908	-0,18
259,375	-0,19
259,841	-0,19
260,308	-0,19
260,775	-0,19
261,242	-0,18
261,709	-0,19
262,175	-0,19
262,642	-0,19
263,109	-0,18
263,575	-0,2
264,042	-0,18
264,508	-0,17
264,975	-0,19
265,441	-0,2
265,908	-0,21
266,374	-0,21
266,841	-0,21
267,307	-0,21
267,773	-0,2
268,24	-0,21
268,706	-0,21
269,172	-0,21
269,639	-0,23
270,105	-0,21
270,571	-0,22
271,037	-0,21
271,503	-0,22
271,969	-0,21
272,435	-0,21
272,902	-0,22
273,368	-0,22
273,834	-0,21
274,3	-0,22
274,765	-0,22
275,231	-0,21
275,697	-0,21
276,163	-0,21
276,629	-0,21
277,095	-0,23
277,56	-0,23
278,026	-0,24
278,492	-0,22
278,958	-0,22
279,423	-0,22
279,889	-0,21
280,354	-0,21
280,82	-0,21
281,286	-0,22
281,751	-0,22
282,217	-0,21
282,682	-0,21
283,147	-0,21
283,613	-0,22
284,078	-0,22
284,544	-0,24
285,009	-0,25
285,474	-0,25
285,939	-0,26
286,405	-0,24
286,87	-0,24
287,335	-0,24
287,8	-0,24
288,265	-0,22
288,73	-0,24
289,195	-0,25
289,66	-0,25
290,125	-0,23
290,59	-0,24
291,055	-0,23
291,52	-0,24
291,985	-0,24
292,45	-0,25
292,915	-0,25
293,38	-0,25
293,844	-0,23
294,309	-0,22
294,774	-0,2
295,239	-0,22
295,703	-0,22
296,168	-0,21
296,632	-0,21
297,097	-0,19
297,562	-0,18
298,026	-0,19
298,491	-0,19
298,955	-0,19
299,419	-0,19
299,884	-0,18
300,348	-0,18
300,813	-0,17
301,277	-0,18
301,741	-0,17
302,205	-0,16
302,67	-0,15
303,134	-0,15
303,598	-0,15
304,062	-0,14
304,526	-0,13
304,99	-0,14
305,454	-0,14
305,919	-0,14
306,383	-0,15
306,847	-0,14
307,31	-0,17
307,774	-0,17
308,238	-0,17
308,702	-0,17
309,166	-0,18
309,63	-0,18
310,094	-0,16
310,557	-0,16
311,021	-0,15
311,485	-0,16
311,948	-0,15
312,412	-0,14
312,876	-0,13
313,339	-0,13
313,803	-0,14
314,266	-0,13
314,73	-0,13
315,193	-0,14
315,657	-0,12
316,12	-0,13
316,584	-0,1
317,047	-0,11
317,51	-0,09
317,973	-0,09
318,437	-0,08
318,9	-0,06
319,363	-0,05
319,826	-0,05
320,29	-0,05
320,753	-0,06
321,216	-0,05
321,679	-0,05
322,142	-0,04
322,605	-0,06
323,068	-0,06
323,531	-0,06
323,994	-0,07
324,457	-0,07
324,92	-0,05
325,382	-0,05
325,845	-0,04
326,308	-0,03
326,771	-0,04
327,233	-0,02
327,696	-0,02
328,159	-0,01
328,622	0
329,084	0
329,547	0,01
330,009	0
330,472	0,01
330,934	0,02
331,397	0,02
331,859	0,04
332,322	0,04
332,784	0,05
333,246	0,05
333,709	0,05
334,171	0,06
334,633	0,07
335,096	0,07
335,558	0,07
336,02	0,07
336,482	0,07
336,944	0,07
337,406	0,07
337,868	0,08
338,331	0,08
338,793	0,09
339,255	0,09
339,717	0,09
340,178	0,1
340,64	0,11
341,102	0,12
341,564	0,13
342,026	0,14
342,488	0,16
342,949	0,17
343,411	0,21
343,873	0,24
344,335	0,27
344,796	0,31
345,258	0,36
345,719	0,41
346,181	0,46
346,643	0,5
347,104	0,54
347,566	0,58
348,027	0,61
348,488	0,63
348,95	0,66
349,411	0,69
349,873	0,72
350,334	0,74
350,795	0,77
351,256	0,78
351,718	0,79
352,179	0,8
352,64	0,8
353,101	0,81
353,562	0,81
354,023	0,82
354,484	0,82
354,945	0,83
355,406	0,83
355,867	0,83
356,328	0,83
356,789	0,85
357,25	0,85
357,711	0,85
358,172	0,85
358,633	0,85
359,093	0,86
359,554	0,86
360,015	0,86
360,476	0,86
360,936	0,86
361,397	0,86
361,858	0,86
362,318	0,86
362,779	0,86
363,239	0,86
363,7	0,86
364,16	0,86
364,621	0,86
365,081	0,86
365,541	0,86
366,002	0,86
366,462	0,86
366,922	0,86
367,383	0,86
367,843	0,86
368,303	0,86
368,763	0,86
369,223	0,86
369,684	0,86
370,144	0,86
370,604	0,86
371,064	0,86
371,524	0,86
371,984	0,86
372,444	0,86
372,904	0,86
373,363	0,86
373,823	0,86
374,283	0,86
374,743	0,86
375,203	0,86
375,663	0,86
376,122	0,86
376,582	0,86
377,042	0,86
377,501	0,86
377,961	0,86
378,42	0,86
378,88	0,86
379,34	0,86
379,799	0,86
380,259	0,85
380,718	0,85
381,177	0,85
381,637	0,85
382,096	0,85
382,555	0,85
383,015	0,85
383,474	0,85
383,933	0,85
384,393	0,85
384,852	0,85
385,311	0,85
385,77	0,85
386,229	0,85
386,688	0,85
387,147	0,85
387,606	0,85
388,065	0,85
388,524	0,85
388,983	0,85
389,442	0,85
389,901	0,85
390,36	0,85
390,819	0,85
391,277	0,85
391,736	0,85
392,195	0,85
392,654	0,84
393,112	0,84
393,571	0,84
394,03	0,84
394,488	0,84
394,947	0,84
395,405	0,84
395,864	0,84
396,322	0,84
396,781	0,84
397,239	0,84
397,698	0,84
398,156	0,84
398,614	0,84
399,073	0,84
399,531	0,84
399,989	0,84
400,447	0,84
400,905	0,84
401,364	0,84
401,822	0,84
402,28	0,84
402,738	0,84
403,196	0,84
403,654	0,84
404,112	0,84
404,57	0,84
405,028	0,84
405,486	0,84
405,944	0,83
406,402	0,83
406,859	0,83
407,317	0,83
407,775	0,83
408,233	0,83
408,691	0,83
409,148	0,83
409,606	0,83
410,064	0,83
410,521	0,83
410,979	0,83
411,436	0,83
411,894	0,83
412,351	0,83
412,809	0,83
413,266	0,83
413,724	0,83
414,181	0,83
414,638	0,83
415,096	0,83
415,553	0,83
416,01	0,83
416,467	0,83
416,925	0,83
417,382	0,83
417,839	0,83
418,296	0,83
418,753	0,83
419,21	0,83
419,667	0,83
420,124	0,83
420,581	0,83
421,038	0,83
421,495	0,83
421,952	0,83
422,409	0,83
422,866	0,83
423,322	0,83
423,779	0,83
424,236	0,83
424,693	0,83
425,149	0,83
425,606	0,83
426,063	0,83
426,519	0,83
426,976	0,83
427,433	0,83
427,889	0,83
428,346	0,83
428,802	0,83
429,258	0,83
429,715	0,83
430,171	0,83
430,628	0,83
431,084	0,83
431,54	0,83
431,997	0,83
432,453	0,83
432,909	0,83
433,365	0,83
433,821	0,82
434,277	0,82
434,734	0,82
435,19	0,82
435,646	0,82
436,102	0,82
436,558	0,82
437,014	0,82
437,47	0,82
437,925	0,82
438,381	0,82
438,837	0,83
439,293	0,83
439,749	0,83
440,205	0,83
440,66	0,83
441,116	0,83
441,572	0,83
442,027	0,83
442,483	0,83
442,939	0,83
443,394	0,83
443,85	0,83
444,305	0,83
444,761	0,83
445,216	0,83
445,672	0,83
446,127	0,83
446,582	0,83
447,038	0,83
447,493	0,83
447,948	0,83
448,403	0,83
448,859	0,83
449,314	0,83
449,769	0,83
450,224	0,83
450,679	0,83
451,134	0,83
451,589	0,83
452,044	0,83
452,499	0,83
452,954	0,83
453,409	0,83
453,864	0,83
454,319	0,83
454,774	0,83
455,229	0,84
455,684	0,84
456,138	0,83
456,593	0,84
457,048	0,84
457,503	0,84
457,957	0,84
458,412	0,84
458,866	0,84
459,321	0,84
459,776	0,84
460,23	0,84
460,685	0,84
461,139	0,84
461,593	0,84
462,048	0,84
462,502	0,84
462,957	0,85
463,411	0,85
463,865	0,85
464,319	0,85
464,774	0,85
465,228	0,85
465,682	0,85
466,136	0,85
466,59	0,85
467,044	0,85
467,499	0,85
467,953	0,86
468,407	0,86
468,861	0,86
469,315	0,86
469,768	0,86
470,222	0,86
470,676	0,86
471,13	0,86
471,584	0,86
472,038	0,86
472,491	0,86
472,945	0,86
473,399	0,87
473,852	0,87
474,306	0,87
474,76	0,87
475,213	0,87
475,667	0,87
476,12	0,87
476,574	0,88
477,027	0,88
477,481	0,88
477,934	0,88
478,388	0,88
478,841	0,89
479,294	0,89
479,748	0,89
480,201	0,89
480,654	0,89
481,107	0,9
481,561	0,9
482,014	0,9
482,467	0,9
482,92	0,9
483,373	0,9
483,826	0,91
484,279	0,91
484,732	0,91
485,185	0,91
485,638	0,91
486,091	0,92
486,544	0,92
486,997	0,92
487,449	0,92
487,902	0,93
488,355	0,93
488,808	0,93
489,26	0,94
489,713	0,94
490,166	0,94
490,618	0,94
491,071	0,95
491,523	0,95
491,976	0,95
492,429	0,96
492,881	0,96
493,333	0,96
493,786	0,97
494,238	0,97
494,691	0,97
495,143	0,98
495,595	0,98
496,048	0,99
496,5	0,99
496,952	0,99
497,404	1
497,856	1
498,309	1
498,761	1,01
499,213	1,01
499,665	1,02
500,117	1,02
500,569	1,03
501,021	1,03
501,473	1,04
501,925	1,04
502,377	1,04
502,828	1,05
503,28	1,05
503,732	1,06
504,184	1,06
504,636	1,07
505,087	1,07
505,539	1,07
505,991	1,08
506,442	1,08
506,894	1,09
507,345	1,09
507,797	1,1
508,249	1,1
508,7	1,1
509,151	1,11
509,603	1,11
510,054	1,12
510,506	1,12
510,957	1,13
511,408	1,13
511,86	1,13
512,311	1,14
512,762	1,14
513,213	1,14
513,665	1,15
514,116	1,15
514,567	1,15
515,018	1,16
515,469	1,16
515,92	1,17
516,371	1,17
516,822	1,17
517,273	1,17
517,724	1,18
518,175	1,18
518,626	1,18
519,076	1,19
519,527	1,19
519,978	1,19
520,429	1,19
520,88	1,2
521,33	1,2
521,781	1,2
522,232	1,2
522,682	1,2
523,133	1,2
523,583	1,21
524,034	1,21
524,484	1,21
524,935	1,21
525,385	1,21
525,836	1,21
526,286	1,21
526,736	1,21
527,187	1,21
527,637	1,21
528,087	1,21
528,538	1,21
528,988	1,21
529,438	1,21
529,888	1,21
530,338	1,2
530,788	1,2
531,238	1,2
531,688	1,2
532,139	1,2
532,589	1,2
533,038	1,2
533,488	1,19
533,938	1,19
534,388	1,19
534,838	1,18
535,288	1,18
535,738	1,18
536,187	1,17
536,637	1,17
537,087	1,16
537,537	1,16
537,986	1,16
538,436	1,15
538,885	1,15
539,335	1,14
539,785	1,13
540,234	1,13
540,684	1,12
541,133	1,12
541,582	1,11
542,032	1,11
542,481	1,1
542,931	1,1
543,38	1,09
543,829	1,09
544,278	1,08
544,728	1,07
545,177	1,07
545,626	1,06
546,075	1,06
546,524	1,06
546,973	1,05
547,422	1,05
547,871	1,04
548,32	1,04
548,769	1,03
549,218	1,03
549,667	1,03
550,116	1,02
550,565	1,02
551,014	1,01
551,463	1,01
551,911	1
552,36	1
552,809	0,99
553,258	0,99
553,706	0,98
554,155	0,98
554,603	0,97
555,052	0,97
555,501	0,96
555,949	0,96
556,398	0,95
556,846	0,95
557,294	0,94
557,743	0,94
558,191	0,93
558,64	0,92
559,088	0,92
559,536	0,91
559,985	0,91
560,433	0,9
560,881	0,9
561,329	0,89
561,777	0,89
562,225	0,88
562,674	0,88
563,122	0,88
563,57	0,87
564,018	0,87
564,466	0,86
564,914	0,86
565,362	0,85
565,809	0,85
566,257	0,84
566,705	0,84
567,153	0,83
567,601	0,83
568,048	0,82
568,496	0,82
568,944	0,81
569,392	0,81
569,839	0,81
570,287	0,8
570,734	0,8
571,182	0,8
571,63	0,79
572,077	0,79
572,525	0,78
572,972	0,78
573,419	0,78
573,867	0,77
574,314	0,77
574,761	0,76
575,209	0,76
575,656	0,75
576,103	0,75
576,551	0,75
576,998	0,75
577,445	0,74
577,892	0,74
578,339	0,74
578,786	0,73
579,233	0,73
579,68	0,72
580,127	0,72
580,574	0,72
581,021	0,71
581,468	0,71
581,915	0,71
582,362	0,7
582,809	0,7
583,255	0,7
583,702	0,7
584,149	0,7
584,596	0,69
585,042	0,69
585,489	0,68
585,936	0,68
586,382	0,68
586,829	0,68
587,275	0,68
587,722	0,67
588,168	0,67
588,615	0,67
589,061	0,66
589,508	0,66
589,954	0,66
590,4	0,66
590,847	0,65
591,293	0,65
591,739	0,65
592,185	0,65
592,632	0,65
593,078	0,65
593,524	0,64
593,97	0,64
594,416	0,64
594,862	0,64
595,308	0,64
595,754	0,64
596,2	0,64
596,646	0,63
597,092	0,63
597,538	0,63
597,984	0,63
598,43	0,63
598,876	0,62
599,321	0,62
599,767	0,62
600,213	0,62
600,659	0,62
601,104	0,62
601,55	0,62
601,995	0,61
602,441	0,61
602,887	0,61
603,332	0,61
603,778	0,61
604,223	0,61
604,668	0,6
605,114	0,6
605,559	0,6
606,005	0,6
606,45	0,6
606,895	0,6
607,341	0,6
607,786	0,6
608,231	0,59
608,676	0,59
609,121	0,58
609,566	0,57
610,012	0,57
610,457	0,57
610,902	0,56
611,347	0,56
611,792	0,56
612,237	0,55
612,682	0,55
613,127	0,55
613,571	0,55
614,016	0,56
614,461	0,56
614,906	0,56
615,351	0,56
615,795	0,56
616,24	0,56
616,685	0,56
617,129	0,56
617,574	0,57
618,019	0,57
618,463	0,56
618,908	0,56
619,352	0,56
619,797	0,56
620,241	0,56
620,686	0,56
621,13	0,56
621,574	0,56
622,019	0,56
622,463	0,56
622,907	0,55
623,352	0,55
623,796	0,55
624,24	0,55
624,684	0,55
625,128	0,55
625,572	0,55
626,016	0,55
626,461	0,55
626,905	0,55
627,349	0,55
627,793	0,55
628,236	0,55
628,68	0,55
629,124	0,55
629,568	0,55
630,012	0,55
630,456	0,55
630,9	0,55
631,343	0,55
631,787	0,55
632,231	0,55
632,674	0,55
633,118	0,54
633,562	0,54
634,005	0,54
634,449	0,54
634,892	0,54
635,336	0,54
635,779	0,54
636,223	0,54
636,666	0,54
637,109	0,54
637,553	0,54
637,996	0,54
638,439	0,54
638,883	0,54
639,326	0,54
639,769	0,54
640,212	0,54
640,655	0,54
641,099	0,53
641,542	0,53
641,985	0,53
642,428	0,53
642,871	0,53
643,314	0,53
643,757	0,53
644,2	0,53
644,643	0,53
645,085	0,53
645,528	0,53
645,971	0,53
646,414	0,53
646,857	0,53
647,299	0,52
647,742	0,52
648,185	0,52
648,627	0,52
649,07	0,52
649,513	0,52
649,955	0,52
650,398	0,52
650,84	0,52
651,283	0,52
651,725	0,52
652,168	0,52
652,61	0,52
653,052	0,52
653,495	0,52
653,937	0,43
654,379	0,38
654,821	0,38
655,264	0,39
655,706	0,39
656,148	0,39
656,59	0,39
657,032	0,39
657,474	0,39
657,916	0,38
658,358	0,38
658,8	0,44
659,242	0,52
659,684	0,52
660,126	0,52
660,568	0,52
661,01	0,52
661,452	0,52
661,894	0,52
662,335	0,52
662,777	0,52
663,219	0,52
663,661	0,52
664,102	0,52
664,544	0,52
664,985	0,52
665,427	0,52
665,869	0,52
666,31	0,52
666,752	0,52
667,193	0,52
667,634	0,52
668,076	0,52
668,517	0,52
668,959	0,52
669,4	0,52
669,841	0,52
670,282	0,52
670,724	0,52
671,165	0,51
671,606	0,51
672,047	0,51
672,488	0,51
672,929	0,51
673,37	0,51
673,811	0,51
674,252	0,51
674,693	0,51
675,134	0,51
675,575	0,51
676,016	0,51
676,457	0,5
676,898	0,5
677,339	0,5
677,78	0,5
678,22	0,5
678,661	0,5
679,102	0,5
679,542	0,51
679,983	0,51
680,424	0,51
680,864	0,51
681,305	0,51
681,745	0,51
682,186	0,51
682,626	0,51
683,067	0,51
683,507	0,51
683,948	0,51
684,388	0,51
684,828	0,51
685,269	0,51
685,709	0,5
686,149	0,5
686,589	0,5
687,029	0,5
687,47	0,5
687,91	0,5
688,35	0,5
688,79	0,5
689,23	0,5
689,67	0,5
690,11	0,5
690,55	0,5
690,99	0,5
691,43	0,5
691,87	0,5
692,31	0,49
692,749	0,49
693,189	0,49
693,629	0,49
694,069	0,49
694,508	0,49
694,948	0,49
695,388	0,49
695,827	0,49
696,267	0,49
696,706	0,49
697,146	0,49
697,586	0,49
698,025	0,49
698,464	0,49
698,904	0,49
699,343	0,49
699,783	0,49
700,222	0,49
700,661	0,49
701,101	0,49
701,54	0,49
701,979	0,49
702,418	0,49
702,857	0,5
703,297	0,5
703,736	0,5
704,175	0,49
704,614	0,49
705,053	0,49
705,492	0,49
705,931	0,49
706,37	0,49
706,809	0,49
707,248	0,49
707,687	0,49
708,125	0,49
708,564	0,49
709,003	0,49
709,442	0,49
709,88	0,49
710,319	0,49
710,758	0,49
711,196	0,49
711,635	0,49
712,074	0,49
712,512	0,48
712,951	0,48
713,389	0,48
713,828	0,48
714,266	0,48
714,705	0,48
715,143	0,48
715,581	0,48
716,02	0,48
716,458	0,48
716,896	0,48
717,334	0,48
717,773	0,48
718,211	0,48
718,649	0,48
719,087	0,48
719,525	0,48
719,963	0,48
720,401	0,48
720,839	0,48
721,277	0,48
721,715	0,48
722,153	0,48
722,591	0,48
723,029	0,48
723,467	0,48
723,905	0,48
724,342	0,48
724,78	0,48
725,218	0,48
725,656	0,48
726,093	0,48
726,531	0,48
726,969	0,48
727,406	0,48
727,844	0,48
728,281	0,48
728,719	0,48
729,156	0,48
729,594	0,48
730,031	0,48
730,469	0,48
730,906	0,48
731,343	0,48
731,781	0,48
732,218	0,47
732,655	0,47
733,092	0,47
733,53	0,47
733,967	0,47
734,404	0,47
734,841	0,47
735,278	0,47
735,715	0,47
736,152	0,47
736,589	0,47
737,026	0,47
737,463	0,47
737,9	0,47
738,337	0,47
738,774	0,47
739,211	0,47
739,647	0,47
740,084	0,47
740,521	0,47
740,958	0,47
741,394	0,47
741,831	0,47
742,268	0,47
742,704	0,47
743,141	0,47
743,577	0,47
744,014	0,47
744,45	0,47
744,887	0,47
745,323	0,47
745,76	0,47
746,196	0,46
746,632	0,46
747,069	0,46
747,505	0,46
747,941	0,46
748,378	0,46
748,814	0,46
749,25	0,46
749,686	0,46
750,122	0,46
750,558	0,47
750,994	0,47
751,43	0,47
751,866	0,47
752,302	0,47
752,738	0,47
753,174	0,47
753,61	0,47
754,046	0,47
754,482	0,47
754,918	0,47
755,354	0,47
755,789	0,47
756,225	0,47
756,661	0,46
757,096	0,46
757,532	0,46
757,968	0,46
758,403	0,46
758,839	0,45
759,274	0,45
759,71	0,44
760,145	0,44
760,581	0,43
761,016	0,43
761,452	0,42
761,887	0,42
762,322	0,41
762,758	0,41
763,193	0,4
763,628	0,39
764,063	0,39
764,499	0,38
764,934	0,38
765,369	0,37
765,804	0,36
766,239	0,35
766,674	0,35
767,109	0,34
767,544	0,33
767,979	0,32
768,414	0,31
768,849	0,29
769,284	0,29
769,719	0,27
770,154	0,26
770,588	0,25
771,023	0,24
771,458	0,23
771,893	0,22
772,327	0,21
772,762	0,2
773,197	0,19
773,631	0,18
774,066	0,17
774,5	0,16
774,935	0,15
775,369	0,14
775,804	0,13
776,238	0,12
776,673	0,11
777,107	0,1
777,541	0,09
777,976	0,08
778,41	0,07
778,844	0,06
779,279	0,06
779,713	0,05
780,147	0,04
780,581	0,03
781,015	0,02
781,449	0,01
781,883	-0
782,317	-0,01
782,751	-0,03
783,185	-0,04
783,619	-0,05
784,053	-0,06
784,487	-0,07
784,921	-0,07
785,355	-0,08
785,789	-0,09
786,223	-0,09
786,656	-0,11
787,09	-0,12
787,524	-0,13
787,957	-0,14
788,391	-0,16
788,825	-0,18
789,258	-0,19
789,692	-0,21
790,125	-0,23
790,559	-0,25
790,992	-0,27
791,426	-0,29
791,859	-0,3
792,293	-0,33
792,726	-0,34
793,159	-0,36
793,593	-0,38
794,026	-0,4
794,459	-0,43
794,892	-0,45
795,326	-0,48
795,759	-0,52
796,192	-0,56
796,625	-0,61
797,058	-0,63
797,491	-0,67
797,924	-0,71
798,357	-0,76
798,79	-0,8
799,223	-0,84
799,656	-0,89
800,089	-0,94
800,522	-0,98
800,955	-1,02
801,387	-1,08
801,82	-1,13
802,253	-1,2
802,686	-1,27
803,118	-1,33
803,551	-1,38
803,984	-1,43
804,416	-1,46
804,849	-1,49
805,281	-1,58
805,714	-1,93
806,146	-2,42
806,579	-2,69
807,011	-2,86
807,444	-2,95
807,876	-3,04
808,308	-3,07
808,741	-3,1
809,173	-3,16
809,605	-3,18
810,037	-3,26
810,47	-3,18
810,902	-2,98
811,334	-2,83
811,766	-2,67
812,198	-2,43
812,63	-2
813,062	-1,78
813,494	-1,68
813,926	-1,6
814,358	-1,54
814,79	-1,46
815,222	-1,41
815,654	-1,36
816,086	-1,29
816,518	-1,24
816,949	-1,19
817,381	-1,14
817,813	-1,13
818,245	-1,09
818,676	-1,05
819,108	-1,01
819,54	-1
819,971	-0,98
820,403	-0,93
820,834	-0,92
821,266	-0,87
821,697	-0,85
822,129	-0,83
822,56	-0,81
822,991	-0,79
823,423	-0,77
823,854	-0,76
824,286	-0,74
824,717	-0,72
825,148	-0,71
825,579	-0,7
826,01	-0,68
826,442	-0,67
826,873	-0,65
827,304	-0,62
827,735	-0,61
828,166	-0,61
828,597	-0,61
829,028	-0,61
829,459	-0,62
829,89	-0,62
830,321	-0,58
830,752	-0,59
831,183	-0,58
831,613	-0,57
832,044	-0,57
832,475	-0,56
832,906	-0,57
833,336	-0,58
833,767	-0,59
834,198	-0,58
834,628	-0,55
835,059	-0,58
835,49	-0,59
835,92	-0,56
836,351	-0,57
836,781	-0,57
837,212	-0,58
837,642	-0,58
838,072	-0,56
838,503	-0,57
838,933	-0,55
839,364	-0,56
839,794	-0,54
840,224	-0,52
840,654	-0,57
841,085	-0,58
841,515	-0,55
841,945	-0,56
842,375	-0,51
842,805	-0,5
843,235	-0,49
843,665	-0,5
844,095	-0,49
844,525	-0,51
844,955	-0,51
845,385	-0,49
845,815	-0,48
846,245	-0,5
846,675	-0,51
847,105	-0,52
847,534	-0,52
847,964	-0,5
848,394	-0,49
848,824	-0,52
849,253	-0,51
849,683	-0,5
850,112	-0,51
850,542	-0,54
850,972	-0,54
851,401	-0,51
851,831	-0,5
852,26	-0,51
852,69	-0,55
853,119	-0,54
853,548	-0,54
853,978	-0,54
854,407	-0,53
854,836	-0,53
855,266	-0,52
855,695	-0,54
856,124	-0,56
856,553	-0,57
856,983	-0,59
857,412	-0,58
857,841	-0,6
858,27	-0,6
858,699	-0,61
859,128	-0,64
859,557	-0,64
859,986	-0,65
860,415	-0,63
860,844	-0,59
861,273	-0,6
861,702	-0,6
862,13	-0,59
862,559	-0,6
862,988	-0,58
863,417	-0,57
863,845	-0,56
864,274	-0,57
864,703	-0,57
865,131	-0,57
865,56	-0,58
865,989	-0,62
866,417	-0,59
866,846	-0,59
867,274	-0,59
867,703	-0,61
868,131	-0,63
868,559	-0,63
868,988	-0,66
869,416	-0,66
869,844	-0,67
870,273	-0,7
870,701	-0,67
871,129	-0,7
871,557	-0,73
871,986	-0,72
872,414	-0,74
872,842	-0,7
873,27	-0,68
873,698	-0,66
874,126	-0,69
874,554	-0,67
874,982	-0,66
875,41	-0,7
875,838	-0,65
876,266	-0,62
876,694	-0,62
877,122	-0,61
877,549	-0,67
877,977	-0,64
878,405	-0,66
878,833	-0,63
879,26	-0,61
879,688	-0,61
880,116	-0,59
880,543	-0,57
880,971	-0,55
881,399	-0,59
881,826	-0,6
882,254	-0,58
882,681	-0,61
883,109	-0,58
883,536	-0,59
883,963	-0,6
884,391	-0,59
884,818	-0,58
885,245	-0,62
885,673	-0,65
886,1	-0,61
886,527	-0,61
886,954	-0,57
887,381	-0,59
887,809	-0,59
888,236	-0,61
888,663	-0,61
889,09	-0,65
889,517	-0,67
889,944	-0,66
890,371	-0,64
890,798	-0,66
891,225	-0,66
891,652	-0,69
892,078	-0,66
892,505	-0,69
892,932	-0,65
893,359	-0,65
893,786	-0,66
894,212	-0,63
894,639	-0,64
895,066	-0,66
895,492	-0,6
895,919	-0,6
896,346	-0,6
896,772	-0,61
897,199	-0,57
897,625	-0,6
898,052	-0,56
898,478	-0,53
898,904	-0,54
899,331	-0,54
899,757	-0,57
900,183	-0,59
900,61	-0,57
901,036	-0,58
901,462	-0,57
901,888	-0,57
902,315	-0,56
902,741	-0,62
903,167	-0,61
903,593	-0,63
904,019	-0,62
904,445	-0,58
904,871	-0,61
905,297	-0,63
905,723	-0,61
906,149	-0,61
906,575	-0,62
907,001	-0,62
907,427	-0,58
907,852	-0,57
908,278	-0,59
908,704	-0,56
909,13	-0,55
909,555	-0,54
909,981	-0,54
910,407	-0,55
910,832	-0,54
911,258	-0,54
911,684	-0,54
912,109	-0,54
912,535	-0,56
912,96	-0,52
913,386	-0,56
913,811	-0,56
914,236	-0,58
914,662	-0,56
915,087	-0,59
915,512	-0,6
915,938	-0,62
916,363	-0,61
916,788	-0,63
917,213	-0,61
917,639	-0,65
918,064	-0,62
918,489	-0,62
918,914	-0,63
919,339	-0,64
919,764	-0,61
920,189	-0,6
920,614	-0,62
921,039	-0,62
921,464	-0,58
921,889	-0,61
922,314	-0,62
922,738	-0,66
923,163	-0,67
923,588	-0,67
924,013	-0,67
924,437	-0,66
924,862	-0,68
925,287	-0,64
925,711	-0,65
926,136	-0,67
926,561	-0,65
926,985	-0,63
927,41	-0,6
927,834	-0,58
928,259	-0,55
928,683	-0,53
929,108	-0,5
929,532	-0,51
929,956	-0,51
930,381	-0,5
930,805	-0,5
931,229	-0,49
931,653	-0,48
932,078	-0,48
932,502	-0,49
932,926	-0,49
933,35	-0,49
933,774	-0,48
934,198	-0,47
934,622	-0,46
935,046	-0,46
935,47	-0,46
935,894	-0,46
936,318	-0,45
936,742	-0,45
937,166	-0,46
937,59	-0,46
938,014	-0,48
938,437	-0,49
938,861	-0,51
939,285	-0,52
939,709	-0,51
940,132	-0,52
940,556	-0,52
940,98	-0,52
941,403	-0,51
941,827	-0,51
942,25	-0,52
942,674	-0,5
943,097	-0,5
943,521	-0,5
943,944	-0,5
944,368	-0,49
944,791	-0,48
945,214	-0,5
945,638	-0,5
946,061	-0,52
946,484	-0,53
946,907	-0,52
947,331	-0,52
947,754	-0,56
948,177	-0,54
948,6	-0,54
949,023	-0,54
949,446	-0,54
949,869	-0,53
950,292	-0,53
950,715	-0,5
951,138	-0,48
951,561	-0,46
951,984	-0,46
952,407	-0,46
952,83	-0,44
953,252	-0,4
953,675	-0,4
954,098	-0,4
954,521	-0,39
954,943	-0,38
955,366	-0,39
955,789	-0,38
956,211	-0,39
956,634	-0,4
957,056	-0,37
957,479	-0,39
957,902	-0,41
958,324	-0,41
958,746	-0,39
959,169	-0,41
959,591	-0,41
960,014	-0,42
960,436	-0,42
960,858	-0,41
961,281	-0,4
961,703	-0,42
962,125	-0,42
962,547	-0,39
962,969	-0,4
963,391	-0,4
963,814	-0,41
964,236	-0,4
964,658	-0,38
965,08	-0,38
965,502	-0,37
965,924	-0,35
966,346	-0,35
966,768	-0,35
967,189	-0,37
967,611	-0,36
968,033	-0,35
968,455	-0,33
968,877	-0,33
969,298	-0,34
969,72	-0,34
970,142	-0,34
970,563	-0,34
970,985	-0,32
971,407	-0,32
971,828	-0,29
972,25	-0,28
972,671	-0,26
973,093	-0,27
973,514	-0,26
973,936	-0,24
974,357	-0,23
974,778	-0,23
975,2	-0,22
975,621	-0,22
976,042	-0,19
976,464	-0,19
976,885	-0,18
977,306	-0,17
977,727	-0,16
978,148	-0,15
978,57	-0,14
978,991	-0,13
979,412	-0,11
979,833	-0,1
980,254	-0,09
980,675	-0,09
981,096	-0,07
981,517	-0,06
981,937	-0,05
982,358	-0,03
982,779	-0,01
983,2	-0,01
983,621	-0,01
984,042	0,01
984,462	0,02
984,883	0,03
985,304	0,04
985,724	0,05
986,145	0,06
986,565	0,09
986,986	0,09
987,407	0,1
987,827	0,11
988,248	0,13
988,668	0,14
989,088	0,15
989,509	0,17
989,929	0,18
990,35	0,19
990,77	0,2
991,19	0,21
991,61	0,23
992,031	0,25
992,451	0,25
992,871	0,27
993,291	0,28
993,711	0,28
994,131	0,29
994,551	0,31
994,971	0,31
995,391	0,32
995,811	0,32
996,231	0,33
996,651	0,34
997,071	0,35
997,491	0,36
997,911	0,36
998,331	0,37
998,75	0,38
999,17	0,39
999,59	0,39
1000,009	0,4
1000,429	0,4
1000,849	0,41
1001,268	0,42
1001,688	0,42
1002,107	0,43
1002,527	0,43
1002,946	0,43
1003,366	0,44
1003,785	0,44
1004,205	0,45
1004,624	0,45
1005,044	0,45
1005,463	0,45
1005,882	0,46
1006,301	0,46
1006,721	0,46
1007,14	0,46
1007,559	0,46
1007,978	0,46
1008,397	0,47
1008,816	0,47
1009,235	0,47
1009,655	0,47
1010,074	0,47
1010,492	0,47
1010,911	0,47
1011,33	0,46
1011,749	0,46
1012,168	0,46
1012,587	0,46
1013,006	0,46
1013,425	0,46
1013,843	0,46
1014,262	0,46
1014,681	0,46
1015,099	0,46
1015,518	0,46
1015,937	0,46
1016,355	0,46
1016,774	0,46
1017,192	0,46
1017,611	0,46
1018,029	0,46
1018,448	0,46
1018,866	0,46
1019,285	0,46
1019,703	0,46
1020,121	0,46
1020,54	0,46
1020,958	0,46
1021,376	0,46
1021,794	0,45
1022,213	0,45
1022,631	0,45
1023,049	0,45
1023,467	0,45
1023,885	0,45
1024,303	0,45
1024,721	0,45
1025,139	0,45
1025,557	0,45
1025,975	0,45
1026,393	0,45
1026,811	0,44
1027,229	0,44
1027,647	0,44
1028,065	0,44
1028,482	0,44
1028,9	0,44
1029,318	0,44
1029,735	0,44
1030,153	0,44
1030,571	0,44
1030,988	0,44
1031,406	0,44
1031,823	0,44
1032,241	0,44
1032,659	0,44
1033,076	0,44
1033,493	0,44
1033,911	0,44
1034,328	0,44
1034,746	0,45
1035,163	0,45
1035,58	0,45
1035,997	0,45
1036,415	0,45
1036,832	0,45
1037,249	0,45
1037,666	0,44
1038,083	0,44
1038,501	0,44
1038,918	0,44
1039,335	0,44
1039,752	0,44
1040,169	0,44
1040,586	0,44
1041,003	0,44
1041,419	0,44
1041,836	0,44
1042,253	0,44
1042,67	0,44
1043,087	0,44
1043,504	0,44
1043,92	0,44
1044,337	0,44
1044,754	0,44
1045,17	0,44
1045,587	0,44
1046,004	0,44
1046,42	0,44
1046,837	0,44
1047,253	0,44
1047,67	0,44
1048,086	0,44
1048,503	0,44
1048,919	0,44
1049,335	0,44
1049,752	0,44
1050,168	0,44
1050,584	0,44
1051,001	0,44
1051,417	0,44
1051,833	0,44
1052,249	0,44
1052,665	0,44
1053,081	0,44
1053,497	0,44
1053,914	0,44
1054,33	0,44
1054,746	0,45
1055,162	0,45
1055,578	0,45
1055,993	0,45
1056,409	0,45
1056,825	0,45
1057,241	0,45
1057,657	0,45
1058,073	0,45
1058,488	0,45
1058,904	0,45
1059,32	0,45
1059,736	0,45
1060,151	0,45
1060,567	0,45
1060,982	0,45
1061,398	0,45
1061,813	0,45
1062,229	0,45
1062,644	0,45
1063,06	0,45
1063,475	0,45
1063,891	0,45
1064,306	0,45
1064,721	0,45
1065,137	0,45
1065,552	0,44
1065,967	0,44
1066,382	0,44
1066,798	0,44
1067,213	0,44
1067,628	0,44
1068,043	0,44
1068,458	0,44
1068,873	0,44
1069,288	0,44
1069,703	0,44
1070,118	0,44
1070,533	0,44
1070,948	0,44
1071,363	0,44
1071,778	0,44
1072,193	0,44
1072,607	0,44
1073,022	0,44
1073,437	0,44
1073,852	0,45
1074,266	0,45
1074,681	0,45
1075,096	0,45
1075,51	0,45
1075,925	0,45
1076,339	0,45
1076,754	0,44
1077,168	0,44
1077,583	0,44
1077,997	0,44
1078,412	0,44
1078,826	0,44
1079,24	0,44
1079,655	0,44
1080,069	0,44
1080,483	0,44
1080,897	0,44
1081,312	0,44
1081,726	0,44
1082,14	0,44
1082,554	0,43
1082,968	0,43
1083,382	0,43
1083,796	0,43
1084,21	0,43
1084,624	0,43
1085,038	0,43
1085,452	0,43
1085,866	0,42
1086,28	0,42
1086,694	0,42
1087,108	0,42
1087,521	0,42
1087,935	0,42
1088,349	0,41
1088,763	0,41
1089,176	0,41
1089,59	0,41
1090,004	0,4
1090,417	0,4
1090,831	0,4
1091,244	0,39
1091,658	0,39
1092,071	0,39
1092,485	0,38
1092,898	0,38
1093,312	0,38
1093,725	0,37
1094,138	0,37
1094,552	0,37
1094,965	0,36
1095,378	0,36
1095,791	0,36
1096,205	0,36
1096,618	0,36
1097,031	0,35
1097,444	0,35
1097,857	0,34
1098,27	0,34
1098,683	0,34
1099,096	0,33
1099,509	0,33
1099,922	0,32
1100,335	0,32
1100,748	0,31
1101,161	0,31
1101,574	0,3
1101,986	0,3
1102,399	0,3
1102,812	0,29
1103,225	0,29
1103,637	0,29
1104,05	0,28
1104,463	0,28
1104,875	0,27
1105,288	0,27
1105,7	0,27
1106,113	0,26
1106,525	0,26
1106,938	0,25
1107,35	0,24
1107,763	0,24
1108,175	0,24
1108,588	0,23
1109	0,23
1109,412	0,23
1109,824	0,22
1110,237	0,22
1110,649	0,22
1111,061	0,22
