Data from 18C-808nm-8A-cont_Absorbance__276__01705.txt Node

Date: Mon Jul 17 17:28:05 CEST 2023
User: Laser008
Spectrometer: MAYP115816
Trigger mode: 0
Integration Time (sec): 2,500000E-1
Scans to average: 10
Electric dark correction enabled: true
Nonlinearity correction enabled: true
Boxcar width: 5
XAxis mode: Wavelengths
Number of Pixels in Spectrum: 2068
>>>>>Begin Spectral Data<<<<<
198,914	-0,75
199,384	-0,52
199,855	-0,38
200,325	-0,29
200,796	-0,25
201,266	-0,2
201,737	-0,18
202,207	-0,17
202,677	-0,17
203,147	-0,16
203,618	-0,12
204,088	-0,1
204,558	-0,09
205,028	-0,09
205,498	-0,1
205,968	-0,1
206,439	-0,11
206,909	-0,1
207,379	-0,1
207,849	-0,1
208,319	-0,1
208,789	-0,11
209,258	-0,1
209,728	-0,12
210,198	-0,12
210,668	-0,11
211,138	-0,11
211,608	-0,11
212,077	-0,11
212,547	-0,1
213,017	-0,11
213,486	-0,11
213,956	-0,12
214,426	-0,13
214,895	-0,12
215,365	-0,13
215,834	-0,14
216,304	-0,15
216,773	-0,14
217,243	-0,15
217,712	-0,17
218,181	-0,16
218,651	-0,17
219,12	-0,16
219,589	-0,16
220,058	-0,15
220,528	-0,16
220,997	-0,16
221,466	-0,17
221,935	-0,19
222,404	-0,18
222,873	-0,16
223,342	-0,17
223,812	-0,17
224,281	-0,17
224,749	-0,17
225,218	-0,19
225,687	-0,19
226,156	-0,18
226,625	-0,16
227,094	-0,16
227,563	-0,17
228,031	-0,18
228,5	-0,18
228,969	-0,19
229,438	-0,18
229,906	-0,17
230,375	-0,16
230,844	-0,15
231,312	-0,15
231,781	-0,16
232,249	-0,14
232,718	-0,14
233,186	-0,12
233,655	-0,13
234,123	-0,12
234,591	-0,13
235,06	-0,14
235,528	-0,14
235,996	-0,14
236,465	-0,14
236,933	-0,14
237,401	-0,14
237,869	-0,13
238,337	-0,13
238,805	-0,12
239,274	-0,11
239,742	-0,11
240,21	-0,11
240,678	-0,1
241,146	-0,09
241,614	-0,08
242,081	-0,08
242,549	-0,09
243,017	-0,1
243,485	-0,1
243,953	-0,1
244,421	-0,1
244,888	-0,1
245,356	-0,1
245,824	-0,1
246,291	-0,1
246,759	-0,11
247,227	-0,11
247,694	-0,11
248,162	-0,1
248,629	-0,09
249,097	-0,09
249,564	-0,1
250,032	-0,11
250,499	-0,11
250,967	-0,11
251,434	-0,12
251,901	-0,11
252,369	-0,12
252,836	-0,12
253,303	-0,14
253,77	-0,15
254,237	-0,15
254,705	-0,14
255,172	-0,13
255,639	-0,13
256,106	-0,15
256,573	-0,15
257,04	-0,16
257,507	-0,16
257,974	-0,17
258,441	-0,15
258,908	-0,15
259,375	-0,17
259,841	-0,17
260,308	-0,17
260,775	-0,18
261,242	-0,16
261,709	-0,17
262,175	-0,18
262,642	-0,17
263,109	-0,17
263,575	-0,18
264,042	-0,17
264,508	-0,16
264,975	-0,18
265,441	-0,19
265,908	-0,2
266,374	-0,2
266,841	-0,2
267,307	-0,2
267,773	-0,19
268,24	-0,19
268,706	-0,2
269,172	-0,22
269,639	-0,23
270,105	-0,22
270,571	-0,22
271,037	-0,22
271,503	-0,22
271,969	-0,21
272,435	-0,2
272,902	-0,22
273,368	-0,24
273,834	-0,22
274,3	-0,23
274,765	-0,22
275,231	-0,21
275,697	-0,2
276,163	-0,2
276,629	-0,19
277,095	-0,2
277,56	-0,2
278,026	-0,2
278,492	-0,18
278,958	-0,19
279,423	-0,19
279,889	-0,19
280,354	-0,2
280,82	-0,2
281,286	-0,22
281,751	-0,22
282,217	-0,21
282,682	-0,2
283,147	-0,19
283,613	-0,2
284,078	-0,2
284,544	-0,21
285,009	-0,21
285,474	-0,2
285,939	-0,22
286,405	-0,2
286,87	-0,2
287,335	-0,2
287,8	-0,2
288,265	-0,18
288,73	-0,2
289,195	-0,22
289,66	-0,21
290,125	-0,19
290,59	-0,2
291,055	-0,19
291,52	-0,19
291,985	-0,18
292,45	-0,2
292,915	-0,2
293,38	-0,21
293,844	-0,19
294,309	-0,18
294,774	-0,17
295,239	-0,19
295,703	-0,19
296,168	-0,18
296,632	-0,18
297,097	-0,17
297,562	-0,16
298,026	-0,17
298,491	-0,16
298,955	-0,17
299,419	-0,16
299,884	-0,16
300,348	-0,16
300,813	-0,15
301,277	-0,16
301,741	-0,15
302,205	-0,15
302,67	-0,15
303,134	-0,14
303,598	-0,15
304,062	-0,13
304,526	-0,11
304,99	-0,13
305,454	-0,13
305,919	-0,12
306,383	-0,13
306,847	-0,13
307,31	-0,14
307,774	-0,16
308,238	-0,15
308,702	-0,14
309,166	-0,16
309,63	-0,16
310,094	-0,14
310,557	-0,13
311,021	-0,13
311,485	-0,12
311,948	-0,11
312,412	-0,1
312,876	-0,09
313,339	-0,1
313,803	-0,11
314,266	-0,11
314,73	-0,11
315,193	-0,11
315,657	-0,11
316,12	-0,11
316,584	-0,09
317,047	-0,09
317,51	-0,08
317,973	-0,07
318,437	-0,06
318,9	-0,04
319,363	-0,03
319,826	-0,02
320,29	-0,03
320,753	-0,03
321,216	-0,03
321,679	-0,04
322,142	-0,03
322,605	-0,05
323,068	-0,04
323,531	-0,05
323,994	-0,05
324,457	-0,06
324,92	-0,05
325,382	-0,05
325,845	-0,04
326,308	-0,03
326,771	-0,03
327,233	-0,03
327,696	-0,03
328,159	-0,02
328,622	-0
329,084	-0
329,547	0,01
330,009	0,01
330,472	0,03
330,934	0,03
331,397	0,04
331,859	0,04
332,322	0,05
332,784	0,05
333,246	0,06
333,709	0,06
334,171	0,06
334,633	0,07
335,096	0,06
335,558	0,06
336,02	0,06
336,482	0,07
336,944	0,08
337,406	0,09
337,868	0,09
338,331	0,1
338,793	0,1
339,255	0,11
339,717	0,12
340,178	0,13
340,64	0,14
341,102	0,14
341,564	0,15
342,026	0,17
342,488	0,17
342,949	0,18
343,411	0,21
343,873	0,24
344,335	0,26
344,796	0,29
345,258	0,34
345,719	0,38
346,181	0,43
346,643	0,47
347,104	0,5
347,566	0,53
348,027	0,56
348,488	0,58
348,95	0,61
349,411	0,63
349,873	0,66
350,334	0,67
350,795	0,69
351,256	0,7
351,718	0,71
352,179	0,71
352,64	0,72
353,101	0,72
353,562	0,73
354,023	0,73
354,484	0,73
354,945	0,73
355,406	0,74
355,867	0,74
356,328	0,74
356,789	0,74
357,25	0,75
357,711	0,75
358,172	0,75
358,633	0,75
359,093	0,75
359,554	0,76
360,015	0,76
360,476	0,76
360,936	0,76
361,397	0,76
361,858	0,76
362,318	0,76
362,779	0,76
363,239	0,76
363,7	0,76
364,16	0,76
364,621	0,76
365,081	0,76
365,541	0,76
366,002	0,76
366,462	0,76
366,922	0,76
367,383	0,76
367,843	0,76
368,303	0,76
368,763	0,76
369,223	0,76
369,684	0,76
370,144	0,76
370,604	0,76
371,064	0,76
371,524	0,76
371,984	0,76
372,444	0,76
372,904	0,76
373,363	0,76
373,823	0,76
374,283	0,76
374,743	0,76
375,203	0,76
375,663	0,76
376,122	0,76
376,582	0,76
377,042	0,76
377,501	0,76
377,961	0,76
378,42	0,76
378,88	0,76
379,34	0,76
379,799	0,76
380,259	0,76
380,718	0,76
381,177	0,76
381,637	0,76
382,096	0,76
382,555	0,76
383,015	0,76
383,474	0,76
383,933	0,76
384,393	0,76
384,852	0,75
385,311	0,75
385,77	0,75
386,229	0,75
386,688	0,75
387,147	0,75
387,606	0,75
388,065	0,75
388,524	0,75
388,983	0,75
389,442	0,75
389,901	0,75
390,36	0,75
390,819	0,75
391,277	0,75
391,736	0,75
392,195	0,75
392,654	0,75
393,112	0,75
393,571	0,75
394,03	0,75
394,488	0,75
394,947	0,75
395,405	0,75
395,864	0,75
396,322	0,75
396,781	0,75
397,239	0,75
397,698	0,75
398,156	0,75
398,614	0,75
399,073	0,75
399,531	0,75
399,989	0,75
400,447	0,74
400,905	0,74
401,364	0,74
401,822	0,74
402,28	0,74
402,738	0,74
403,196	0,74
403,654	0,74
404,112	0,74
404,57	0,74
405,028	0,74
405,486	0,74
405,944	0,74
406,402	0,74
406,859	0,74
407,317	0,74
407,775	0,74
408,233	0,74
408,691	0,74
409,148	0,74
409,606	0,74
410,064	0,74
410,521	0,74
410,979	0,74
411,436	0,74
411,894	0,74
412,351	0,74
412,809	0,74
413,266	0,74
413,724	0,74
414,181	0,74
414,638	0,74
415,096	0,74
415,553	0,74
416,01	0,74
416,467	0,74
416,925	0,74
417,382	0,74
417,839	0,74
418,296	0,74
418,753	0,74
419,21	0,74
419,667	0,74
420,124	0,74
420,581	0,74
421,038	0,74
421,495	0,74
421,952	0,73
422,409	0,73
422,866	0,74
423,322	0,74
423,779	0,74
424,236	0,74
424,693	0,74
425,149	0,74
425,606	0,74
426,063	0,74
426,519	0,74
426,976	0,74
427,433	0,73
427,889	0,73
428,346	0,73
428,802	0,73
429,258	0,73
429,715	0,73
430,171	0,73
430,628	0,73
431,084	0,73
431,54	0,73
431,997	0,73
432,453	0,73
432,909	0,73
433,365	0,73
433,821	0,73
434,277	0,73
434,734	0,73
435,19	0,73
435,646	0,73
436,102	0,73
436,558	0,73
437,014	0,73
437,47	0,73
437,925	0,73
438,381	0,73
438,837	0,73
439,293	0,73
439,749	0,73
440,205	0,73
440,66	0,73
441,116	0,73
441,572	0,73
442,027	0,73
442,483	0,73
442,939	0,73
443,394	0,73
443,85	0,73
444,305	0,73
444,761	0,73
445,216	0,74
445,672	0,74
446,127	0,74
446,582	0,73
447,038	0,74
447,493	0,73
447,948	0,74
448,403	0,74
448,859	0,74
449,314	0,74
449,769	0,74
450,224	0,74
450,679	0,74
451,134	0,74
451,589	0,74
452,044	0,74
452,499	0,74
452,954	0,74
453,409	0,74
453,864	0,74
454,319	0,74
454,774	0,74
455,229	0,74
455,684	0,74
456,138	0,74
456,593	0,74
457,048	0,74
457,503	0,74
457,957	0,74
458,412	0,74
458,866	0,74
459,321	0,74
459,776	0,74
460,23	0,74
460,685	0,74
461,139	0,74
461,593	0,75
462,048	0,75
462,502	0,75
462,957	0,75
463,411	0,75
463,865	0,75
464,319	0,75
464,774	0,75
465,228	0,75
465,682	0,75
466,136	0,75
466,59	0,75
467,044	0,76
467,499	0,76
467,953	0,76
468,407	0,76
468,861	0,76
469,315	0,76
469,768	0,76
470,222	0,76
470,676	0,76
471,13	0,76
471,584	0,76
472,038	0,76
472,491	0,76
472,945	0,76
473,399	0,77
473,852	0,77
474,306	0,77
474,76	0,77
475,213	0,77
475,667	0,77
476,12	0,77
476,574	0,77
477,027	0,78
477,481	0,78
477,934	0,78
478,388	0,78
478,841	0,78
479,294	0,78
479,748	0,78
480,201	0,79
480,654	0,79
481,107	0,79
481,561	0,79
482,014	0,79
482,467	0,79
482,92	0,8
483,373	0,8
483,826	0,8
484,279	0,8
484,732	0,8
485,185	0,8
485,638	0,81
486,091	0,81
486,544	0,81
486,997	0,81
487,449	0,81
487,902	0,82
488,355	0,82
488,808	0,82
489,26	0,82
489,713	0,83
490,166	0,83
490,618	0,83
491,071	0,83
491,523	0,84
491,976	0,84
492,429	0,84
492,881	0,84
493,333	0,85
493,786	0,85
494,238	0,85
494,691	0,86
495,143	0,86
495,595	0,86
496,048	0,87
496,5	0,87
496,952	0,87
497,404	0,88
497,856	0,88
498,309	0,88
498,761	0,89
499,213	0,89
499,665	0,89
500,117	0,9
500,569	0,9
501,021	0,9
501,473	0,91
501,925	0,91
502,377	0,92
502,828	0,92
503,28	0,92
503,732	0,93
504,184	0,93
504,636	0,93
505,087	0,94
505,539	0,94
505,991	0,95
506,442	0,95
506,894	0,95
507,345	0,96
507,797	0,96
508,249	0,96
508,7	0,97
509,151	0,97
509,603	0,98
510,054	0,98
510,506	0,98
510,957	0,99
511,408	0,99
511,86	0,99
512,311	1
512,762	1
513,213	1
513,665	1,01
514,116	1,01
514,567	1,01
515,018	1,02
515,469	1,02
515,92	1,02
516,371	1,02
516,822	1,03
517,273	1,03
517,724	1,03
518,175	1,04
518,626	1,04
519,076	1,04
519,527	1,04
519,978	1,05
520,429	1,05
520,88	1,05
521,33	1,05
521,781	1,05
522,232	1,05
522,682	1,06
523,133	1,06
523,583	1,06
524,034	1,06
524,484	1,06
524,935	1,06
525,385	1,06
525,836	1,06
526,286	1,06
526,736	1,06
527,187	1,06
527,637	1,06
528,087	1,06
528,538	1,06
528,988	1,06
529,438	1,06
529,888	1,06
530,338	1,06
530,788	1,06
531,238	1,06
531,688	1,05
532,139	1,05
532,589	1,05
533,038	1,05
533,488	1,05
533,938	1,05
534,388	1,04
534,838	1,04
535,288	1,04
535,738	1,04
536,187	1,03
536,637	1,03
537,087	1,03
537,537	1,02
537,986	1,02
538,436	1,01
538,885	1,01
539,335	1
539,785	1
540,234	1
540,684	0,99
541,133	0,99
541,582	0,98
542,032	0,98
542,481	0,98
542,931	0,97
543,38	0,97
543,829	0,96
544,278	0,96
544,728	0,95
545,177	0,95
545,626	0,94
546,075	0,94
546,524	0,94
546,973	0,93
547,422	0,93
547,871	0,93
548,32	0,92
548,769	0,92
549,218	0,92
549,667	0,91
550,116	0,91
550,565	0,91
551,014	0,9
551,463	0,9
551,911	0,89
552,36	0,89
552,809	0,89
553,258	0,88
553,706	0,88
554,155	0,87
554,603	0,87
555,052	0,87
555,501	0,86
555,949	0,86
556,398	0,85
556,846	0,85
557,294	0,85
557,743	0,84
558,191	0,84
558,64	0,83
559,088	0,83
559,536	0,82
559,985	0,82
560,433	0,81
560,881	0,81
561,329	0,8
561,777	0,8
562,225	0,8
562,674	0,79
563,122	0,79
563,57	0,79
564,018	0,78
564,466	0,78
564,914	0,77
565,362	0,77
565,809	0,77
566,257	0,76
566,705	0,76
567,153	0,76
567,601	0,75
568,048	0,75
568,496	0,75
568,944	0,74
569,392	0,74
569,839	0,74
570,287	0,73
570,734	0,73
571,182	0,73
571,63	0,72
572,077	0,72
572,525	0,72
572,972	0,71
573,419	0,71
573,867	0,71
574,314	0,7
574,761	0,7
575,209	0,69
575,656	0,69
576,103	0,69
576,551	0,69
576,998	0,68
577,445	0,68
577,892	0,68
578,339	0,68
578,786	0,67
579,233	0,67
579,68	0,67
580,127	0,66
580,574	0,66
581,021	0,66
581,468	0,66
581,915	0,65
582,362	0,65
582,809	0,65
583,255	0,65
583,702	0,65
584,149	0,64
584,596	0,64
585,042	0,64
585,489	0,64
585,936	0,63
586,382	0,63
586,829	0,63
587,275	0,63
587,722	0,63
588,168	0,63
588,615	0,62
589,061	0,62
589,508	0,62
589,954	0,62
590,4	0,62
590,847	0,61
591,293	0,61
591,739	0,61
592,185	0,61
592,632	0,61
593,078	0,6
593,524	0,6
593,97	0,6
594,416	0,6
594,862	0,6
595,308	0,6
595,754	0,6
596,2	0,6
596,646	0,59
597,092	0,59
597,538	0,59
597,984	0,59
598,43	0,59
598,876	0,59
599,321	0,59
599,767	0,59
600,213	0,58
600,659	0,58
601,104	0,58
601,55	0,58
601,995	0,58
602,441	0,58
602,887	0,58
603,332	0,57
603,778	0,57
604,223	0,57
604,668	0,57
605,114	0,57
605,559	0,57
606,005	0,57
606,45	0,57
606,895	0,57
607,341	0,57
607,786	0,56
608,231	0,56
608,676	0,56
609,121	0,55
609,566	0,55
610,012	0,54
610,457	0,54
610,902	0,54
611,347	0,53
611,792	0,53
612,237	0,53
612,682	0,53
613,127	0,53
613,571	0,53
614,016	0,53
614,461	0,54
614,906	0,54
615,351	0,54
615,795	0,54
616,24	0,54
616,685	0,54
617,129	0,54
617,574	0,54
618,019	0,54
618,463	0,54
618,908	0,54
619,352	0,54
619,797	0,54
620,241	0,54
620,686	0,54
621,13	0,54
621,574	0,53
622,019	0,53
622,463	0,53
622,907	0,53
623,352	0,53
623,796	0,53
624,24	0,53
624,684	0,53
625,128	0,53
625,572	0,53
626,016	0,53
626,461	0,53
626,905	0,53
627,349	0,53
627,793	0,53
628,236	0,53
628,68	0,53
629,124	0,52
629,568	0,52
630,012	0,52
630,456	0,52
630,9	0,52
631,343	0,52
631,787	0,52
632,231	0,52
632,674	0,52
633,118	0,52
633,562	0,52
634,005	0,52
634,449	0,52
634,892	0,52
635,336	0,52
635,779	0,52
636,223	0,52
636,666	0,52
637,109	0,52
637,553	0,52
637,996	0,52
638,439	0,52
638,883	0,52
639,326	0,52
639,769	0,52
640,212	0,52
640,655	0,52
641,099	0,52
641,542	0,51
641,985	0,51
642,428	0,51
642,871	0,51
643,314	0,51
643,757	0,51
644,2	0,51
644,643	0,51
645,085	0,51
645,528	0,51
645,971	0,51
646,414	0,51
646,857	0,51
647,299	0,51
647,742	0,51
648,185	0,51
648,627	0,51
649,07	0,5
649,513	0,5
649,955	0,5
650,398	0,51
650,84	0,51
651,283	0,51
651,725	0,51
652,168	0,51
652,61	0,51
653,052	0,51
653,495	0,51
653,937	0,42
654,379	0,36
654,821	0,37
655,264	0,37
655,706	0,37
656,148	0,37
656,59	0,37
657,032	0,37
657,474	0,37
657,916	0,37
658,358	0,36
658,8	0,42
659,242	0,5
659,684	0,51
660,126	0,5
660,568	0,5
661,01	0,5
661,452	0,5
661,894	0,5
662,335	0,5
662,777	0,5
663,219	0,5
663,661	0,5
664,102	0,5
664,544	0,5
664,985	0,5
665,427	0,5
665,869	0,5
666,31	0,5
666,752	0,5
667,193	0,5
667,634	0,5
668,076	0,5
668,517	0,5
668,959	0,5
669,4	0,5
669,841	0,5
670,282	0,5
670,724	0,5
671,165	0,5
671,606	0,5
672,047	0,5
672,488	0,5
672,929	0,5
673,37	0,5
673,811	0,5
674,252	0,49
674,693	0,49
675,134	0,49
675,575	0,49
676,016	0,49
676,457	0,49
676,898	0,49
677,339	0,49
677,78	0,49
678,22	0,49
678,661	0,49
679,102	0,49
679,542	0,49
679,983	0,49
680,424	0,49
680,864	0,49
681,305	0,49
681,745	0,49
682,186	0,49
682,626	0,49
683,067	0,49
683,507	0,49
683,948	0,49
684,388	0,49
684,828	0,49
685,269	0,49
685,709	0,49
686,149	0,49
686,589	0,49
687,029	0,48
687,47	0,48
687,91	0,48
688,35	0,48
688,79	0,48
689,23	0,48
689,67	0,48
690,11	0,48
690,55	0,48
690,99	0,48
691,43	0,48
691,87	0,48
692,31	0,48
692,749	0,48
693,189	0,47
693,629	0,47
694,069	0,47
694,508	0,47
694,948	0,47
695,388	0,47
695,827	0,47
696,267	0,47
696,706	0,47
697,146	0,48
697,586	0,48
698,025	0,48
698,464	0,48
698,904	0,48
699,343	0,48
699,783	0,48
700,222	0,48
700,661	0,48
701,101	0,48
701,54	0,48
701,979	0,48
702,418	0,48
702,857	0,48
703,297	0,48
703,736	0,48
704,175	0,48
704,614	0,48
705,053	0,48
705,492	0,48
705,931	0,48
706,37	0,48
706,809	0,48
707,248	0,47
707,687	0,47
708,125	0,47
708,564	0,47
709,003	0,47
709,442	0,47
709,88	0,47
710,319	0,47
710,758	0,47
711,196	0,47
711,635	0,47
712,074	0,47
712,512	0,47
712,951	0,47
713,389	0,46
713,828	0,46
714,266	0,46
714,705	0,46
715,143	0,46
715,581	0,46
716,02	0,46
716,458	0,46
716,896	0,46
717,334	0,46
717,773	0,47
718,211	0,47
718,649	0,47
719,087	0,47
719,525	0,47
719,963	0,47
720,401	0,47
720,839	0,47
721,277	0,47
721,715	0,47
722,153	0,47
722,591	0,47
723,029	0,47
723,467	0,47
723,905	0,47
724,342	0,47
724,78	0,47
725,218	0,47
725,656	0,47
726,093	0,47
726,531	0,47
726,969	0,47
727,406	0,47
727,844	0,47
728,281	0,47
728,719	0,47
729,156	0,47
729,594	0,46
730,031	0,46
730,469	0,46
730,906	0,46
731,343	0,46
731,781	0,46
732,218	0,46
732,655	0,46
733,092	0,46
733,53	0,46
733,967	0,46
734,404	0,45
734,841	0,45
735,278	0,45
735,715	0,45
736,152	0,45
736,589	0,45
737,026	0,45
737,463	0,45
737,9	0,45
738,337	0,45
738,774	0,45
739,211	0,45
739,647	0,45
740,084	0,45
740,521	0,45
740,958	0,45
741,394	0,45
741,831	0,45
742,268	0,45
742,704	0,45
743,141	0,45
743,577	0,45
744,014	0,45
744,45	0,45
744,887	0,45
745,323	0,45
745,76	0,44
746,196	0,44
746,632	0,44
747,069	0,44
747,505	0,44
747,941	0,44
748,378	0,44
748,814	0,44
749,25	0,44
749,686	0,44
750,122	0,44
750,558	0,44
750,994	0,45
751,43	0,45
751,866	0,45
752,302	0,45
752,738	0,45
753,174	0,45
753,61	0,45
754,046	0,45
754,482	0,45
754,918	0,45
755,354	0,45
755,789	0,45
756,225	0,45
756,661	0,45
757,096	0,44
757,532	0,44
757,968	0,44
758,403	0,44
758,839	0,44
759,274	0,43
759,71	0,43
760,145	0,42
760,581	0,42
761,016	0,41
761,452	0,41
761,887	0,4
762,322	0,4
762,758	0,39
763,193	0,39
763,628	0,38
764,063	0,37
764,499	0,37
764,934	0,36
765,369	0,35
765,804	0,35
766,239	0,34
766,674	0,33
767,109	0,32
767,544	0,32
767,979	0,31
768,414	0,3
768,849	0,29
769,284	0,28
769,719	0,27
770,154	0,26
770,588	0,25
771,023	0,24
771,458	0,23
771,893	0,22
772,327	0,21
772,762	0,2
773,197	0,19
773,631	0,18
774,066	0,17
774,5	0,16
774,935	0,15
775,369	0,14
775,804	0,13
776,238	0,11
776,673	0,1
777,107	0,09
777,541	0,08
777,976	0,07
778,41	0,07
778,844	0,06
779,279	0,05
779,713	0,04
780,147	0,03
780,581	0,02
781,015	0,02
781,449	0,01
781,883	-0
782,317	-0,01
782,751	-0,02
783,185	-0,03
783,619	-0,04
784,053	-0,05
784,487	-0,06
784,921	-0,07
785,355	-0,07
785,789	-0,08
786,223	-0,09
786,656	-0,11
787,09	-0,11
787,524	-0,12
787,957	-0,13
788,391	-0,15
788,825	-0,17
789,258	-0,18
789,692	-0,19
790,125	-0,21
790,559	-0,22
790,992	-0,24
791,426	-0,26
791,859	-0,28
792,293	-0,31
792,726	-0,33
793,159	-0,34
793,593	-0,36
794,026	-0,39
794,459	-0,42
794,892	-0,45
795,326	-0,48
795,759	-0,52
796,192	-0,56
796,625	-0,61
797,058	-0,63
797,491	-0,68
797,924	-0,72
798,357	-0,77
798,79	-0,81
799,223	-0,85
799,656	-0,91
800,089	-0,95
800,522	-1
800,955	-1,04
801,387	-1,1
801,82	-1,15
802,253	-1,21
802,686	-1,29
803,118	-1,35
803,551	-1,4
803,984	-1,44
804,416	-1,48
804,849	-1,51
805,281	-1,63
805,714	-1,97
806,146	-2,44
806,579	-2,7
807,011	-2,86
807,444	-2,96
807,876	-3,05
808,308	-3,09
808,741	-3,12
809,173	-3,17
809,605	-3,19
810,037	-3,27
810,47	-3,19
810,902	-2,99
811,334	-2,85
811,766	-2,7
812,198	-2,47
812,63	-2,04
813,062	-1,81
813,494	-1,7
813,926	-1,61
814,358	-1,56
814,79	-1,48
815,222	-1,42
815,654	-1,37
816,086	-1,31
816,518	-1,25
816,949	-1,2
817,381	-1,16
817,813	-1,14
818,245	-1,1
818,676	-1,06
819,108	-1,03
819,54	-1,01
819,971	-0,99
820,403	-0,94
820,834	-0,92
821,266	-0,88
821,697	-0,86
822,129	-0,84
822,56	-0,81
822,991	-0,79
823,423	-0,76
823,854	-0,75
824,286	-0,73
824,717	-0,71
825,148	-0,69
825,579	-0,69
826,01	-0,67
826,442	-0,67
826,873	-0,65
827,304	-0,62
827,735	-0,61
828,166	-0,62
828,597	-0,62
829,028	-0,62
829,459	-0,62
829,89	-0,62
830,321	-0,57
830,752	-0,58
831,183	-0,57
831,613	-0,56
832,044	-0,56
832,475	-0,54
832,906	-0,56
833,336	-0,56
833,767	-0,57
834,198	-0,56
834,628	-0,55
835,059	-0,58
835,49	-0,58
835,92	-0,56
836,351	-0,56
836,781	-0,56
837,212	-0,57
837,642	-0,57
838,072	-0,54
838,503	-0,55
838,933	-0,52
839,364	-0,52
839,794	-0,51
840,224	-0,5
840,654	-0,54
841,085	-0,54
841,515	-0,52
841,945	-0,52
842,375	-0,47
842,805	-0,46
843,235	-0,45
843,665	-0,47
844,095	-0,46
844,525	-0,47
844,955	-0,47
845,385	-0,45
845,815	-0,43
846,245	-0,46
846,675	-0,46
847,105	-0,48
847,534	-0,48
847,964	-0,46
848,394	-0,46
848,824	-0,49
849,253	-0,49
849,683	-0,48
850,112	-0,5
850,542	-0,54
850,972	-0,54
851,401	-0,52
851,831	-0,5
852,26	-0,51
852,69	-0,55
853,119	-0,54
853,548	-0,55
853,978	-0,55
854,407	-0,53
854,836	-0,53
855,266	-0,52
855,695	-0,53
856,124	-0,54
856,553	-0,55
856,983	-0,58
857,412	-0,56
857,841	-0,57
858,27	-0,57
858,699	-0,57
859,128	-0,59
859,557	-0,6
859,986	-0,61
860,415	-0,59
860,844	-0,56
861,273	-0,56
861,702	-0,57
862,13	-0,55
862,559	-0,58
862,988	-0,55
863,417	-0,55
863,845	-0,54
864,274	-0,56
864,703	-0,55
865,131	-0,55
865,56	-0,57
865,989	-0,6
866,417	-0,56
866,846	-0,56
867,274	-0,55
867,703	-0,57
868,131	-0,59
868,559	-0,59
868,988	-0,61
869,416	-0,6
869,844	-0,6
870,273	-0,62
870,701	-0,6
871,129	-0,64
871,557	-0,66
871,986	-0,66
872,414	-0,68
872,842	-0,64
873,27	-0,63
873,698	-0,6
874,126	-0,65
874,554	-0,64
874,982	-0,63
875,41	-0,67
875,838	-0,62
876,266	-0,59
876,694	-0,59
877,122	-0,58
877,549	-0,64
877,977	-0,61
878,405	-0,64
878,833	-0,6
879,26	-0,59
879,688	-0,58
880,116	-0,56
880,543	-0,55
880,971	-0,54
881,399	-0,57
881,826	-0,58
882,254	-0,55
882,681	-0,59
883,109	-0,55
883,536	-0,56
883,963	-0,58
884,391	-0,57
884,818	-0,55
885,245	-0,59
885,673	-0,62
886,1	-0,58
886,527	-0,57
886,954	-0,54
887,381	-0,56
887,809	-0,57
888,236	-0,58
888,663	-0,59
889,09	-0,63
889,517	-0,65
889,944	-0,65
890,371	-0,63
890,798	-0,64
891,225	-0,64
891,652	-0,67
892,078	-0,64
892,505	-0,67
892,932	-0,63
893,359	-0,64
893,786	-0,64
894,212	-0,61
894,639	-0,62
895,066	-0,64
895,492	-0,59
895,919	-0,59
896,346	-0,59
896,772	-0,58
897,199	-0,55
897,625	-0,58
898,052	-0,54
898,478	-0,52
898,904	-0,53
899,331	-0,53
899,757	-0,54
900,183	-0,57
900,61	-0,54
901,036	-0,55
901,462	-0,55
901,888	-0,55
902,315	-0,54
902,741	-0,59
903,167	-0,57
903,593	-0,6
904,019	-0,59
904,445	-0,56
904,871	-0,58
905,297	-0,6
905,723	-0,6
906,149	-0,58
906,575	-0,59
907,001	-0,59
907,427	-0,56
907,852	-0,55
908,278	-0,55
908,704	-0,53
909,13	-0,52
909,555	-0,52
909,981	-0,51
910,407	-0,51
910,832	-0,51
911,258	-0,5
911,684	-0,51
912,109	-0,52
912,535	-0,53
912,96	-0,49
913,386	-0,54
913,811	-0,54
914,236	-0,56
914,662	-0,54
915,087	-0,57
915,512	-0,57
915,938	-0,59
916,363	-0,59
916,788	-0,6
917,213	-0,58
917,639	-0,63
918,064	-0,6
918,489	-0,6
918,914	-0,6
919,339	-0,62
919,764	-0,6
920,189	-0,59
920,614	-0,61
921,039	-0,62
921,464	-0,58
921,889	-0,6
922,314	-0,61
922,738	-0,64
923,163	-0,65
923,588	-0,64
924,013	-0,64
924,437	-0,64
924,862	-0,64
925,287	-0,6
925,711	-0,6
926,136	-0,62
926,561	-0,61
926,985	-0,6
927,41	-0,57
927,834	-0,54
928,259	-0,52
928,683	-0,5
929,108	-0,47
929,532	-0,49
929,956	-0,49
930,381	-0,48
930,805	-0,48
931,229	-0,47
931,653	-0,45
932,078	-0,45
932,502	-0,47
932,926	-0,48
933,35	-0,47
933,774	-0,47
934,198	-0,45
934,622	-0,44
935,046	-0,45
935,47	-0,45
935,894	-0,45
936,318	-0,45
936,742	-0,44
937,166	-0,45
937,59	-0,44
938,014	-0,47
938,437	-0,48
938,861	-0,5
939,285	-0,51
939,709	-0,5
940,132	-0,5
940,556	-0,5
940,98	-0,5
941,403	-0,49
941,827	-0,49
942,25	-0,51
942,674	-0,5
943,097	-0,49
943,521	-0,48
943,944	-0,49
944,368	-0,48
944,791	-0,47
945,214	-0,49
945,638	-0,49
946,061	-0,53
946,484	-0,53
946,907	-0,51
947,331	-0,52
947,754	-0,56
948,177	-0,52
948,6	-0,52
949,023	-0,53
949,446	-0,53
949,869	-0,49
950,292	-0,49
950,715	-0,45
951,138	-0,45
951,561	-0,42
951,984	-0,42
952,407	-0,4
952,83	-0,39
953,252	-0,35
953,675	-0,34
954,098	-0,35
954,521	-0,35
954,943	-0,35
955,366	-0,35
955,789	-0,33
956,211	-0,34
956,634	-0,34
957,056	-0,32
957,479	-0,33
957,902	-0,35
958,324	-0,36
958,746	-0,35
959,169	-0,35
959,591	-0,35
960,014	-0,37
960,436	-0,37
960,858	-0,37
961,281	-0,38
961,703	-0,4
962,125	-0,4
962,547	-0,38
962,969	-0,39
963,391	-0,39
963,814	-0,41
964,236	-0,41
964,658	-0,37
965,08	-0,39
965,502	-0,38
965,924	-0,34
966,346	-0,34
966,768	-0,33
967,189	-0,35
967,611	-0,34
968,033	-0,34
968,455	-0,32
968,877	-0,32
969,298	-0,33
969,72	-0,32
970,142	-0,32
970,563	-0,33
970,985	-0,32
971,407	-0,31
971,828	-0,29
972,25	-0,28
972,671	-0,26
973,093	-0,26
973,514	-0,25
973,936	-0,23
974,357	-0,22
974,778	-0,22
975,2	-0,21
975,621	-0,21
976,042	-0,19
976,464	-0,18
976,885	-0,18
977,306	-0,17
977,727	-0,17
978,148	-0,16
978,57	-0,14
978,991	-0,13
979,412	-0,12
979,833	-0,11
980,254	-0,09
980,675	-0,09
981,096	-0,09
981,517	-0,07
981,937	-0,07
982,358	-0,05
982,779	-0,03
983,2	-0,03
983,621	-0,02
984,042	-0
984,462	0,01
984,883	0,03
985,304	0,05
985,724	0,06
986,145	0,07
986,565	0,09
986,986	0,1
987,407	0,11
987,827	0,13
988,248	0,14
988,668	0,15
989,088	0,16
989,509	0,17
989,929	0,18
990,35	0,19
990,77	0,2
991,19	0,21
991,61	0,23
992,031	0,23
992,451	0,24
992,871	0,25
993,291	0,26
993,711	0,27
994,131	0,28
994,551	0,29
994,971	0,3
995,391	0,3
995,811	0,31
996,231	0,31
996,651	0,32
997,071	0,33
997,491	0,34
997,911	0,35
998,331	0,36
998,75	0,36
999,17	0,37
999,59	0,37
1000,009	0,38
1000,429	0,38
1000,849	0,39
1001,268	0,4
1001,688	0,4
1002,107	0,4
1002,527	0,41
1002,946	0,41
1003,366	0,41
1003,785	0,42
1004,205	0,42
1004,624	0,42
1005,044	0,43
1005,463	0,43
1005,882	0,43
1006,301	0,43
1006,721	0,43
1007,14	0,43
1007,559	0,44
1007,978	0,44
1008,397	0,44
1008,816	0,44
1009,235	0,44
1009,655	0,44
1010,074	0,44
1010,492	0,44
1010,911	0,44
1011,33	0,44
1011,749	0,44
1012,168	0,44
1012,587	0,43
1013,006	0,43
1013,425	0,43
1013,843	0,43
1014,262	0,43
1014,681	0,43
1015,099	0,43
1015,518	0,43
1015,937	0,43
1016,355	0,43
1016,774	0,43
1017,192	0,43
1017,611	0,43
1018,029	0,43
1018,448	0,43
1018,866	0,43
1019,285	0,43
1019,703	0,43
1020,121	0,42
1020,54	0,42
1020,958	0,42
1021,376	0,42
1021,794	0,42
1022,213	0,42
1022,631	0,42
1023,049	0,42
1023,467	0,42
1023,885	0,42
1024,303	0,42
1024,721	0,42
1025,139	0,42
1025,557	0,42
1025,975	0,41
1026,393	0,41
1026,811	0,41
1027,229	0,41
1027,647	0,41
1028,065	0,41
1028,482	0,41
1028,9	0,41
1029,318	0,41
1029,735	0,41
1030,153	0,41
1030,571	0,41
1030,988	0,41
1031,406	0,41
1031,823	0,41
1032,241	0,41
1032,659	0,41
1033,076	0,41
1033,493	0,41
1033,911	0,41
1034,328	0,41
1034,746	0,41
1035,163	0,41
1035,58	0,41
1035,997	0,41
1036,415	0,41
1036,832	0,41
1037,249	0,41
1037,666	0,41
1038,083	0,41
1038,501	0,41
1038,918	0,41
1039,335	0,41
1039,752	0,41
1040,169	0,41
1040,586	0,42
1041,003	0,42
1041,419	0,42
1041,836	0,42
1042,253	0,42
1042,67	0,42
1043,087	0,42
1043,504	0,42
1043,92	0,41
1044,337	0,41
1044,754	0,41
1045,17	0,41
1045,587	0,41
1046,004	0,41
1046,42	0,41
1046,837	0,41
1047,253	0,41
1047,67	0,41
1048,086	0,41
1048,503	0,41
1048,919	0,41
1049,335	0,41
1049,752	0,41
1050,168	0,41
1050,584	0,41
1051,001	0,41
1051,417	0,41
1051,833	0,41
1052,249	0,41
1052,665	0,41
1053,081	0,41
1053,497	0,42
1053,914	0,42
1054,33	0,42
1054,746	0,42
1055,162	0,42
1055,578	0,42
1055,993	0,42
1056,409	0,42
1056,825	0,42
1057,241	0,42
1057,657	0,42
1058,073	0,42
1058,488	0,42
1058,904	0,42
1059,32	0,42
1059,736	0,42
1060,151	0,42
1060,567	0,42
1060,982	0,42
1061,398	0,42
1061,813	0,42
1062,229	0,42
1062,644	0,42
1063,06	0,42
1063,475	0,42
1063,891	0,42
1064,306	0,42
1064,721	0,41
1065,137	0,41
1065,552	0,41
1065,967	0,41
1066,382	0,41
1066,798	0,41
1067,213	0,41
1067,628	0,41
1068,043	0,41
1068,458	0,41
1068,873	0,42
1069,288	0,42
1069,703	0,41
1070,118	0,41
1070,533	0,41
1070,948	0,41
1071,363	0,41
1071,778	0,41
1072,193	0,41
1072,607	0,41
1073,022	0,41
1073,437	0,41
1073,852	0,41
1074,266	0,41
1074,681	0,41
1075,096	0,41
1075,51	0,41
1075,925	0,41
1076,339	0,41
1076,754	0,41
1077,168	0,41
1077,583	0,41
1077,997	0,41
1078,412	0,41
1078,826	0,41
1079,24	0,41
1079,655	0,41
1080,069	0,41
1080,483	0,41
1080,897	0,41
1081,312	0,41
1081,726	0,41
1082,14	0,41
1082,554	0,41
1082,968	0,4
1083,382	0,4
1083,796	0,4
1084,21	0,4
1084,624	0,4
1085,038	0,4
1085,452	0,4
1085,866	0,4
1086,28	0,4
1086,694	0,39
1087,108	0,39
1087,521	0,39
1087,935	0,39
1088,349	0,39
1088,763	0,38
1089,176	0,38
1089,59	0,38
1090,004	0,38
1090,417	0,37
1090,831	0,37
1091,244	0,37
1091,658	0,36
1092,071	0,36
1092,485	0,36
1092,898	0,35
1093,312	0,35
1093,725	0,35
1094,138	0,35
1094,552	0,34
1094,965	0,34
1095,378	0,34
1095,791	0,34
1096,205	0,33
1096,618	0,33
1097,031	0,33
1097,444	0,33
1097,857	0,33
1098,27	0,32
1098,683	0,32
1099,096	0,31
1099,509	0,31
1099,922	0,3
1100,335	0,3
1100,748	0,29
1101,161	0,29
1101,574	0,28
1101,986	0,27
1102,399	0,27
1102,812	0,27
1103,225	0,26
1103,637	0,26
1104,05	0,26
1104,463	0,26
1104,875	0,25
1105,288	0,25
1105,7	0,24
1106,113	0,24
1106,525	0,24
1106,938	0,24
1107,35	0,23
1107,763	0,23
1108,175	0,23
1108,588	0,22
1109	0,21
1109,412	0,22
1109,824	0,22
1110,237	0,22
1110,649	0,22
1111,061	0,2
