Data from 18C-808nm-8A-cont_Absorbance__494__01923.txt Node

Date: Mon Jul 17 17:37:10 CEST 2023
User: Laser008
Spectrometer: MAYP115816
Trigger mode: 0
Integration Time (sec): 2,500000E-1
Scans to average: 10
Electric dark correction enabled: true
Nonlinearity correction enabled: true
Boxcar width: 5
XAxis mode: Wavelengths
Number of Pixels in Spectrum: 2068
>>>>>Begin Spectral Data<<<<<
198,914	-0,68
199,384	-0,44
199,855	-0,33
200,325	-0,25
200,796	-0,22
201,266	-0,18
201,737	-0,15
202,207	-0,14
202,677	-0,13
203,147	-0,12
203,618	-0,1
204,088	-0,09
204,558	-0,08
205,028	-0,07
205,498	-0,08
205,968	-0,07
206,439	-0,09
206,909	-0,09
207,379	-0,1
207,849	-0,1
208,319	-0,11
208,789	-0,11
209,258	-0,1
209,728	-0,12
210,198	-0,12
210,668	-0,12
211,138	-0,12
211,608	-0,11
212,077	-0,12
212,547	-0,11
213,017	-0,13
213,486	-0,13
213,956	-0,14
214,426	-0,15
214,895	-0,15
215,365	-0,15
215,834	-0,15
216,304	-0,16
216,773	-0,16
217,243	-0,18
217,712	-0,19
218,181	-0,18
218,651	-0,17
219,12	-0,17
219,589	-0,17
220,058	-0,16
220,528	-0,17
220,997	-0,17
221,466	-0,18
221,935	-0,19
222,404	-0,19
222,873	-0,18
223,342	-0,18
223,812	-0,19
224,281	-0,18
224,749	-0,19
225,218	-0,2
225,687	-0,2
226,156	-0,19
226,625	-0,17
227,094	-0,17
227,563	-0,16
228,031	-0,17
228,5	-0,18
228,969	-0,19
229,438	-0,18
229,906	-0,17
230,375	-0,16
230,844	-0,16
231,312	-0,16
231,781	-0,17
232,249	-0,16
232,718	-0,16
233,186	-0,15
233,655	-0,15
234,123	-0,14
234,591	-0,14
235,06	-0,14
235,528	-0,15
235,996	-0,15
236,465	-0,15
236,933	-0,15
237,401	-0,14
237,869	-0,13
238,337	-0,13
238,805	-0,13
239,274	-0,12
239,742	-0,12
240,21	-0,12
240,678	-0,11
241,146	-0,1
241,614	-0,1
242,081	-0,09
242,549	-0,09
243,017	-0,1
243,485	-0,1
243,953	-0,1
244,421	-0,09
244,888	-0,09
245,356	-0,09
245,824	-0,09
246,291	-0,1
246,759	-0,1
247,227	-0,11
247,694	-0,1
248,162	-0,09
248,629	-0,08
249,097	-0,08
249,564	-0,09
250,032	-0,09
250,499	-0,1
250,967	-0,11
251,434	-0,11
251,901	-0,11
252,369	-0,11
252,836	-0,12
253,303	-0,13
253,77	-0,15
254,237	-0,15
254,705	-0,15
255,172	-0,14
255,639	-0,14
256,106	-0,15
256,573	-0,15
257,04	-0,16
257,507	-0,18
257,974	-0,18
258,441	-0,17
258,908	-0,17
259,375	-0,18
259,841	-0,19
260,308	-0,19
260,775	-0,2
261,242	-0,2
261,709	-0,2
262,175	-0,21
262,642	-0,2
263,109	-0,2
263,575	-0,21
264,042	-0,19
264,508	-0,18
264,975	-0,2
265,441	-0,2
265,908	-0,21
266,374	-0,19
266,841	-0,19
267,307	-0,2
267,773	-0,19
268,24	-0,19
268,706	-0,19
269,172	-0,21
269,639	-0,22
270,105	-0,2
270,571	-0,21
271,037	-0,21
271,503	-0,22
271,969	-0,22
272,435	-0,22
272,902	-0,23
273,368	-0,25
273,834	-0,24
274,3	-0,24
274,765	-0,25
275,231	-0,25
275,697	-0,24
276,163	-0,23
276,629	-0,22
277,095	-0,23
277,56	-0,22
278,026	-0,23
278,492	-0,21
278,958	-0,21
279,423	-0,2
279,889	-0,2
280,354	-0,2
280,82	-0,2
281,286	-0,22
281,751	-0,22
282,217	-0,21
282,682	-0,21
283,147	-0,21
283,613	-0,21
284,078	-0,2
284,544	-0,22
285,009	-0,22
285,474	-0,22
285,939	-0,24
286,405	-0,22
286,87	-0,22
287,335	-0,22
287,8	-0,21
288,265	-0,18
288,73	-0,2
289,195	-0,23
289,66	-0,23
290,125	-0,22
290,59	-0,23
291,055	-0,22
291,52	-0,22
291,985	-0,23
292,45	-0,24
292,915	-0,24
293,38	-0,24
293,844	-0,22
294,309	-0,21
294,774	-0,2
295,239	-0,22
295,703	-0,22
296,168	-0,21
296,632	-0,2
297,097	-0,18
297,562	-0,17
298,026	-0,18
298,491	-0,18
298,955	-0,18
299,419	-0,17
299,884	-0,16
300,348	-0,16
300,813	-0,14
301,277	-0,15
301,741	-0,15
302,205	-0,15
302,67	-0,15
303,134	-0,14
303,598	-0,14
304,062	-0,13
304,526	-0,13
304,99	-0,14
305,454	-0,14
305,919	-0,14
306,383	-0,14
306,847	-0,13
307,31	-0,14
307,774	-0,15
308,238	-0,15
308,702	-0,15
309,166	-0,16
309,63	-0,16
310,094	-0,13
310,557	-0,13
311,021	-0,13
311,485	-0,13
311,948	-0,12
312,412	-0,12
312,876	-0,11
313,339	-0,12
313,803	-0,13
314,266	-0,12
314,73	-0,13
315,193	-0,13
315,657	-0,12
316,12	-0,12
316,584	-0,11
317,047	-0,11
317,51	-0,09
317,973	-0,09
318,437	-0,06
318,9	-0,05
319,363	-0,04
319,826	-0,03
320,29	-0,04
320,753	-0,04
321,216	-0,05
321,679	-0,05
322,142	-0,04
322,605	-0,06
323,068	-0,06
323,531	-0,07
323,994	-0,06
324,457	-0,07
324,92	-0,05
325,382	-0,05
325,845	-0,04
326,308	-0,03
326,771	-0,02
327,233	-0,01
327,696	0
328,159	0,01
328,622	0,03
329,084	0,03
329,547	0,04
330,009	0,03
330,472	0,04
330,934	0,05
331,397	0,05
331,859	0,05
332,322	0,05
332,784	0,05
333,246	0,06
333,709	0,06
334,171	0,06
334,633	0,07
335,096	0,07
335,558	0,08
336,02	0,08
336,482	0,08
336,944	0,08
337,406	0,08
337,868	0,1
338,331	0,1
338,793	0,1
339,255	0,11
339,717	0,11
340,178	0,12
340,64	0,13
341,102	0,13
341,564	0,15
342,026	0,16
342,488	0,18
342,949	0,19
343,411	0,21
343,873	0,25
344,335	0,28
344,796	0,32
345,258	0,37
345,719	0,42
346,181	0,47
346,643	0,52
347,104	0,56
347,566	0,6
348,027	0,63
348,488	0,66
348,95	0,68
349,411	0,71
349,873	0,74
350,334	0,77
350,795	0,79
351,256	0,8
351,718	0,81
352,179	0,82
352,64	0,82
353,101	0,83
353,562	0,83
354,023	0,84
354,484	0,84
354,945	0,84
355,406	0,85
355,867	0,85
356,328	0,85
356,789	0,85
357,25	0,86
357,711	0,86
358,172	0,86
358,633	0,86
359,093	0,86
359,554	0,87
360,015	0,87
360,476	0,87
360,936	0,87
361,397	0,87
361,858	0,88
362,318	0,88
362,779	0,88
363,239	0,88
363,7	0,88
364,16	0,88
364,621	0,88
365,081	0,88
365,541	0,88
366,002	0,88
366,462	0,88
366,922	0,88
367,383	0,88
367,843	0,88
368,303	0,88
368,763	0,88
369,223	0,88
369,684	0,88
370,144	0,88
370,604	0,88
371,064	0,88
371,524	0,88
371,984	0,88
372,444	0,88
372,904	0,88
373,363	0,88
373,823	0,88
374,283	0,88
374,743	0,88
375,203	0,88
375,663	0,88
376,122	0,88
376,582	0,88
377,042	0,88
377,501	0,88
377,961	0,88
378,42	0,88
378,88	0,88
379,34	0,88
379,799	0,87
380,259	0,87
380,718	0,87
381,177	0,87
381,637	0,87
382,096	0,87
382,555	0,87
383,015	0,87
383,474	0,87
383,933	0,87
384,393	0,87
384,852	0,87
385,311	0,87
385,77	0,87
386,229	0,87
386,688	0,87
387,147	0,87
387,606	0,87
388,065	0,87
388,524	0,87
388,983	0,87
389,442	0,87
389,901	0,87
390,36	0,86
390,819	0,86
391,277	0,86
391,736	0,86
392,195	0,86
392,654	0,86
393,112	0,86
393,571	0,86
394,03	0,86
394,488	0,86
394,947	0,86
395,405	0,86
395,864	0,86
396,322	0,86
396,781	0,86
397,239	0,86
397,698	0,86
398,156	0,86
398,614	0,86
399,073	0,86
399,531	0,86
399,989	0,86
400,447	0,86
400,905	0,86
401,364	0,86
401,822	0,86
402,28	0,86
402,738	0,86
403,196	0,86
403,654	0,86
404,112	0,85
404,57	0,85
405,028	0,85
405,486	0,85
405,944	0,85
406,402	0,85
406,859	0,85
407,317	0,85
407,775	0,85
408,233	0,85
408,691	0,85
409,148	0,85
409,606	0,85
410,064	0,85
410,521	0,85
410,979	0,85
411,436	0,85
411,894	0,85
412,351	0,85
412,809	0,85
413,266	0,85
413,724	0,85
414,181	0,85
414,638	0,85
415,096	0,85
415,553	0,85
416,01	0,85
416,467	0,85
416,925	0,85
417,382	0,85
417,839	0,85
418,296	0,85
418,753	0,85
419,21	0,85
419,667	0,85
420,124	0,85
420,581	0,85
421,038	0,85
421,495	0,85
421,952	0,85
422,409	0,85
422,866	0,85
423,322	0,85
423,779	0,85
424,236	0,85
424,693	0,85
425,149	0,85
425,606	0,85
426,063	0,85
426,519	0,85
426,976	0,85
427,433	0,85
427,889	0,85
428,346	0,85
428,802	0,85
429,258	0,85
429,715	0,85
430,171	0,85
430,628	0,85
431,084	0,85
431,54	0,85
431,997	0,85
432,453	0,85
432,909	0,85
433,365	0,85
433,821	0,84
434,277	0,84
434,734	0,84
435,19	0,84
435,646	0,84
436,102	0,84
436,558	0,84
437,014	0,84
437,47	0,84
437,925	0,84
438,381	0,84
438,837	0,85
439,293	0,85
439,749	0,85
440,205	0,85
440,66	0,85
441,116	0,85
441,572	0,85
442,027	0,85
442,483	0,85
442,939	0,85
443,394	0,85
443,85	0,85
444,305	0,85
444,761	0,85
445,216	0,85
445,672	0,85
446,127	0,85
446,582	0,85
447,038	0,85
447,493	0,85
447,948	0,85
448,403	0,85
448,859	0,85
449,314	0,85
449,769	0,85
450,224	0,85
450,679	0,85
451,134	0,85
451,589	0,85
452,044	0,85
452,499	0,85
452,954	0,86
453,409	0,86
453,864	0,86
454,319	0,86
454,774	0,86
455,229	0,86
455,684	0,86
456,138	0,86
456,593	0,86
457,048	0,86
457,503	0,86
457,957	0,86
458,412	0,86
458,866	0,86
459,321	0,86
459,776	0,86
460,23	0,86
460,685	0,86
461,139	0,86
461,593	0,86
462,048	0,86
462,502	0,86
462,957	0,87
463,411	0,87
463,865	0,87
464,319	0,87
464,774	0,87
465,228	0,87
465,682	0,87
466,136	0,87
466,59	0,87
467,044	0,87
467,499	0,88
467,953	0,88
468,407	0,88
468,861	0,88
469,315	0,88
469,768	0,88
470,222	0,88
470,676	0,88
471,13	0,88
471,584	0,88
472,038	0,89
472,491	0,89
472,945	0,89
473,399	0,89
473,852	0,89
474,306	0,89
474,76	0,89
475,213	0,89
475,667	0,89
476,12	0,9
476,574	0,9
477,027	0,9
477,481	0,9
477,934	0,9
478,388	0,9
478,841	0,91
479,294	0,91
479,748	0,91
480,201	0,91
480,654	0,91
481,107	0,92
481,561	0,92
482,014	0,92
482,467	0,92
482,92	0,92
483,373	0,92
483,826	0,93
484,279	0,93
484,732	0,93
485,185	0,93
485,638	0,93
486,091	0,94
486,544	0,94
486,997	0,94
487,449	0,94
487,902	0,95
488,355	0,95
488,808	0,95
489,26	0,96
489,713	0,96
490,166	0,96
490,618	0,96
491,071	0,97
491,523	0,97
491,976	0,97
492,429	0,98
492,881	0,98
493,333	0,98
493,786	0,99
494,238	0,99
494,691	0,99
495,143	1
495,595	1
496,048	1
496,5	1,01
496,952	1,01
497,404	1,02
497,856	1,02
498,309	1,02
498,761	1,03
499,213	1,03
499,665	1,04
500,117	1,04
500,569	1,05
501,021	1,05
501,473	1,06
501,925	1,06
502,377	1,06
502,828	1,07
503,28	1,07
503,732	1,08
504,184	1,08
504,636	1,08
505,087	1,09
505,539	1,09
505,991	1,1
506,442	1,1
506,894	1,1
507,345	1,11
507,797	1,11
508,249	1,12
508,7	1,12
509,151	1,13
509,603	1,13
510,054	1,14
510,506	1,14
510,957	1,15
511,408	1,15
511,86	1,15
512,311	1,16
512,762	1,16
513,213	1,16
513,665	1,17
514,116	1,17
514,567	1,17
515,018	1,18
515,469	1,18
515,92	1,18
516,371	1,19
516,822	1,19
517,273	1,19
517,724	1,2
518,175	1,2
518,626	1,2
519,076	1,2
519,527	1,21
519,978	1,21
520,429	1,21
520,88	1,21
521,33	1,22
521,781	1,22
522,232	1,22
522,682	1,22
523,133	1,22
523,583	1,23
524,034	1,23
524,484	1,23
524,935	1,23
525,385	1,23
525,836	1,23
526,286	1,23
526,736	1,23
527,187	1,23
527,637	1,23
528,087	1,23
528,538	1,23
528,988	1,23
529,438	1,23
529,888	1,23
530,338	1,22
530,788	1,22
531,238	1,22
531,688	1,22
532,139	1,22
532,589	1,22
533,038	1,22
533,488	1,22
533,938	1,21
534,388	1,21
534,838	1,2
535,288	1,2
535,738	1,2
536,187	1,19
536,637	1,19
537,087	1,18
537,537	1,18
537,986	1,18
538,436	1,17
538,885	1,17
539,335	1,16
539,785	1,15
540,234	1,15
540,684	1,14
541,133	1,14
541,582	1,13
542,032	1,13
542,481	1,12
542,931	1,12
543,38	1,11
543,829	1,1
544,278	1,1
544,728	1,09
545,177	1,09
545,626	1,08
546,075	1,08
546,524	1,07
546,973	1,07
547,422	1,07
547,871	1,06
548,32	1,06
548,769	1,06
549,218	1,05
549,667	1,05
550,116	1,04
550,565	1,04
551,014	1,03
551,463	1,03
551,911	1,02
552,36	1,02
552,809	1,01
553,258	1,01
553,706	1,01
554,155	1
554,603	1
555,052	0,99
555,501	0,99
555,949	0,98
556,398	0,98
556,846	0,97
557,294	0,97
557,743	0,96
558,191	0,95
558,64	0,95
559,088	0,94
559,536	0,94
559,985	0,93
560,433	0,93
560,881	0,92
561,329	0,92
561,777	0,91
562,225	0,91
562,674	0,9
563,122	0,9
563,57	0,89
564,018	0,89
564,466	0,88
564,914	0,88
565,362	0,88
565,809	0,87
566,257	0,87
566,705	0,86
567,153	0,86
567,601	0,85
568,048	0,85
568,496	0,84
568,944	0,84
569,392	0,83
569,839	0,83
570,287	0,83
570,734	0,82
571,182	0,82
571,63	0,82
572,077	0,81
572,525	0,81
572,972	0,8
573,419	0,8
573,867	0,8
574,314	0,79
574,761	0,79
575,209	0,78
575,656	0,78
576,103	0,78
576,551	0,77
576,998	0,77
577,445	0,77
577,892	0,76
578,339	0,76
578,786	0,76
579,233	0,75
579,68	0,75
580,127	0,75
580,574	0,74
581,021	0,74
581,468	0,74
581,915	0,73
582,362	0,73
582,809	0,73
583,255	0,72
583,702	0,72
584,149	0,72
584,596	0,72
585,042	0,71
585,489	0,71
585,936	0,71
586,382	0,7
586,829	0,7
587,275	0,7
587,722	0,7
588,168	0,7
588,615	0,69
589,061	0,69
589,508	0,69
589,954	0,69
590,4	0,68
590,847	0,68
591,293	0,68
591,739	0,68
592,185	0,67
592,632	0,67
593,078	0,67
593,524	0,67
593,97	0,67
594,416	0,67
594,862	0,66
595,308	0,66
595,754	0,66
596,2	0,66
596,646	0,66
597,092	0,65
597,538	0,65
597,984	0,65
598,43	0,65
598,876	0,65
599,321	0,65
599,767	0,65
600,213	0,65
600,659	0,64
601,104	0,64
601,55	0,64
601,995	0,64
602,441	0,64
602,887	0,64
603,332	0,63
603,778	0,63
604,223	0,63
604,668	0,63
605,114	0,63
605,559	0,63
606,005	0,63
606,45	0,63
606,895	0,63
607,341	0,62
607,786	0,62
608,231	0,62
608,676	0,61
609,121	0,61
609,566	0,6
610,012	0,59
610,457	0,59
610,902	0,59
611,347	0,58
611,792	0,58
612,237	0,58
612,682	0,58
613,127	0,58
613,571	0,58
614,016	0,58
614,461	0,59
614,906	0,59
615,351	0,59
615,795	0,59
616,24	0,59
616,685	0,59
617,129	0,59
617,574	0,59
618,019	0,59
618,463	0,59
618,908	0,59
619,352	0,59
619,797	0,59
620,241	0,59
620,686	0,59
621,13	0,59
621,574	0,58
622,019	0,58
622,463	0,58
622,907	0,58
623,352	0,58
623,796	0,58
624,24	0,58
624,684	0,58
625,128	0,58
625,572	0,58
626,016	0,58
626,461	0,58
626,905	0,58
627,349	0,58
627,793	0,58
628,236	0,58
628,68	0,57
629,124	0,57
629,568	0,57
630,012	0,57
630,456	0,57
630,9	0,57
631,343	0,57
631,787	0,57
632,231	0,57
632,674	0,57
633,118	0,57
633,562	0,57
634,005	0,57
634,449	0,57
634,892	0,57
635,336	0,57
635,779	0,57
636,223	0,57
636,666	0,57
637,109	0,57
637,553	0,57
637,996	0,57
638,439	0,57
638,883	0,57
639,326	0,57
639,769	0,56
640,212	0,56
640,655	0,56
641,099	0,56
641,542	0,56
641,985	0,56
642,428	0,56
642,871	0,56
643,314	0,56
643,757	0,56
644,2	0,56
644,643	0,56
645,085	0,56
645,528	0,56
645,971	0,55
646,414	0,55
646,857	0,55
647,299	0,55
647,742	0,55
648,185	0,55
648,627	0,55
649,07	0,55
649,513	0,55
649,955	0,55
650,398	0,55
650,84	0,55
651,283	0,55
651,725	0,55
652,168	0,55
652,61	0,55
653,052	0,55
653,495	0,55
653,937	0,46
654,379	0,4
654,821	0,41
655,264	0,41
655,706	0,41
656,148	0,41
656,59	0,41
657,032	0,41
657,474	0,41
657,916	0,41
658,358	0,4
658,8	0,47
659,242	0,55
659,684	0,55
660,126	0,55
660,568	0,55
661,01	0,54
661,452	0,54
661,894	0,54
662,335	0,54
662,777	0,54
663,219	0,54
663,661	0,54
664,102	0,54
664,544	0,54
664,985	0,54
665,427	0,54
665,869	0,54
666,31	0,54
666,752	0,54
667,193	0,54
667,634	0,54
668,076	0,54
668,517	0,54
668,959	0,54
669,4	0,54
669,841	0,54
670,282	0,54
670,724	0,54
671,165	0,54
671,606	0,54
672,047	0,54
672,488	0,54
672,929	0,54
673,37	0,54
673,811	0,54
674,252	0,54
674,693	0,54
675,134	0,53
675,575	0,53
676,016	0,53
676,457	0,53
676,898	0,53
677,339	0,53
677,78	0,53
678,22	0,53
678,661	0,53
679,102	0,53
679,542	0,53
679,983	0,53
680,424	0,53
680,864	0,53
681,305	0,53
681,745	0,53
682,186	0,53
682,626	0,54
683,067	0,54
683,507	0,54
683,948	0,53
684,388	0,53
684,828	0,53
685,269	0,53
685,709	0,53
686,149	0,53
686,589	0,53
687,029	0,53
687,47	0,53
687,91	0,53
688,35	0,53
688,79	0,53
689,23	0,53
689,67	0,53
690,11	0,53
690,55	0,53
690,99	0,53
691,43	0,52
691,87	0,52
692,31	0,52
692,749	0,52
693,189	0,52
693,629	0,52
694,069	0,52
694,508	0,51
694,948	0,51
695,388	0,51
695,827	0,52
696,267	0,52
696,706	0,52
697,146	0,52
697,586	0,52
698,025	0,52
698,464	0,52
698,904	0,52
699,343	0,52
699,783	0,52
700,222	0,52
700,661	0,52
701,101	0,52
701,54	0,52
701,979	0,52
702,418	0,52
702,857	0,52
703,297	0,52
703,736	0,52
704,175	0,52
704,614	0,52
705,053	0,52
705,492	0,52
705,931	0,52
706,37	0,52
706,809	0,52
707,248	0,52
707,687	0,52
708,125	0,52
708,564	0,52
709,003	0,52
709,442	0,52
709,88	0,52
710,319	0,52
710,758	0,52
711,196	0,51
711,635	0,51
712,074	0,51
712,512	0,51
712,951	0,51
713,389	0,51
713,828	0,51
714,266	0,51
714,705	0,51
715,143	0,51
715,581	0,51
716,02	0,51
716,458	0,51
716,896	0,51
717,334	0,51
717,773	0,51
718,211	0,51
718,649	0,51
719,087	0,51
719,525	0,51
719,963	0,51
720,401	0,51
720,839	0,51
721,277	0,51
721,715	0,51
722,153	0,51
722,591	0,51
723,029	0,51
723,467	0,51
723,905	0,51
724,342	0,51
724,78	0,51
725,218	0,51
725,656	0,51
726,093	0,51
726,531	0,51
726,969	0,51
727,406	0,51
727,844	0,51
728,281	0,51
728,719	0,51
729,156	0,51
729,594	0,51
730,031	0,51
730,469	0,51
730,906	0,5
731,343	0,5
731,781	0,5
732,218	0,5
732,655	0,5
733,092	0,5
733,53	0,5
733,967	0,5
734,404	0,5
734,841	0,5
735,278	0,5
735,715	0,5
736,152	0,5
736,589	0,49
737,026	0,49
737,463	0,49
737,9	0,49
738,337	0,49
738,774	0,49
739,211	0,5
739,647	0,5
740,084	0,5
740,521	0,5
740,958	0,5
741,394	0,5
741,831	0,5
742,268	0,5
742,704	0,5
743,141	0,5
743,577	0,5
744,014	0,5
744,45	0,5
744,887	0,49
745,323	0,49
745,76	0,49
746,196	0,49
746,632	0,49
747,069	0,49
747,505	0,49
747,941	0,49
748,378	0,49
748,814	0,49
749,25	0,49
749,686	0,49
750,122	0,49
750,558	0,49
750,994	0,49
751,43	0,49
751,866	0,5
752,302	0,5
752,738	0,5
753,174	0,5
753,61	0,5
754,046	0,5
754,482	0,49
754,918	0,49
755,354	0,49
755,789	0,49
756,225	0,49
756,661	0,49
757,096	0,49
757,532	0,48
757,968	0,48
758,403	0,48
758,839	0,48
759,274	0,47
759,71	0,47
760,145	0,46
760,581	0,46
761,016	0,45
761,452	0,45
761,887	0,44
762,322	0,44
762,758	0,43
763,193	0,43
763,628	0,42
764,063	0,41
764,499	0,4
764,934	0,4
765,369	0,39
765,804	0,38
766,239	0,37
766,674	0,37
767,109	0,36
767,544	0,35
767,979	0,34
768,414	0,33
768,849	0,32
769,284	0,31
769,719	0,29
770,154	0,29
770,588	0,28
771,023	0,27
771,458	0,25
771,893	0,24
772,327	0,22
772,762	0,21
773,197	0,2
773,631	0,19
774,066	0,18
774,5	0,17
774,935	0,16
775,369	0,15
775,804	0,13
776,238	0,13
776,673	0,11
777,107	0,1
777,541	0,09
777,976	0,07
778,41	0,06
778,844	0,05
779,279	0,04
779,713	0,03
780,147	0,02
780,581	0,01
781,015	-0
781,449	-0,01
781,883	-0,01
782,317	-0,02
782,751	-0,03
783,185	-0,04
783,619	-0,04
784,053	-0,05
784,487	-0,06
784,921	-0,06
785,355	-0,07
785,789	-0,07
786,223	-0,08
786,656	-0,1
787,09	-0,11
787,524	-0,11
787,957	-0,13
788,391	-0,15
788,825	-0,16
789,258	-0,18
789,692	-0,19
790,125	-0,2
790,559	-0,22
790,992	-0,24
791,426	-0,26
791,859	-0,28
792,293	-0,31
792,726	-0,33
793,159	-0,35
793,593	-0,37
794,026	-0,39
794,459	-0,42
794,892	-0,45
795,326	-0,48
795,759	-0,52
796,192	-0,56
796,625	-0,61
797,058	-0,63
797,491	-0,68
797,924	-0,71
798,357	-0,76
798,79	-0,8
799,223	-0,84
799,656	-0,9
800,089	-0,95
800,522	-0,99
800,955	-1,03
801,387	-1,09
801,82	-1,14
802,253	-1,2
802,686	-1,28
803,118	-1,34
803,551	-1,39
803,984	-1,44
804,416	-1,47
804,849	-1,5
805,281	-1,6
805,714	-1,94
806,146	-2,43
806,579	-2,7
807,011	-2,86
807,444	-2,96
807,876	-3,04
808,308	-3,08
808,741	-3,1
809,173	-3,16
809,605	-3,18
810,037	-3,26
810,47	-3,18
810,902	-2,98
811,334	-2,83
811,766	-2,67
812,198	-2,42
812,63	-1,99
813,062	-1,78
813,494	-1,69
813,926	-1,6
814,358	-1,55
814,79	-1,47
815,222	-1,41
815,654	-1,36
816,086	-1,3
816,518	-1,24
816,949	-1,19
817,381	-1,15
817,813	-1,13
818,245	-1,09
818,676	-1,05
819,108	-1,02
819,54	-1,01
819,971	-0,98
820,403	-0,93
820,834	-0,92
821,266	-0,87
821,697	-0,85
822,129	-0,84
822,56	-0,81
822,991	-0,79
823,423	-0,76
823,854	-0,76
824,286	-0,73
824,717	-0,72
825,148	-0,71
825,579	-0,7
826,01	-0,69
826,442	-0,68
826,873	-0,66
827,304	-0,63
827,735	-0,62
828,166	-0,63
828,597	-0,63
829,028	-0,62
829,459	-0,63
829,89	-0,63
830,321	-0,59
830,752	-0,59
831,183	-0,58
831,613	-0,57
832,044	-0,57
832,475	-0,56
832,906	-0,57
833,336	-0,57
833,767	-0,58
834,198	-0,56
834,628	-0,54
835,059	-0,57
835,49	-0,58
835,92	-0,55
836,351	-0,55
836,781	-0,55
837,212	-0,57
837,642	-0,57
838,072	-0,55
838,503	-0,56
838,933	-0,54
839,364	-0,55
839,794	-0,53
840,224	-0,52
840,654	-0,56
841,085	-0,57
841,515	-0,54
841,945	-0,55
842,375	-0,5
842,805	-0,49
843,235	-0,47
843,665	-0,49
844,095	-0,47
844,525	-0,49
844,955	-0,5
845,385	-0,48
845,815	-0,46
846,245	-0,48
846,675	-0,49
847,105	-0,51
847,534	-0,51
847,964	-0,5
848,394	-0,48
848,824	-0,52
849,253	-0,51
849,683	-0,5
850,112	-0,51
850,542	-0,54
850,972	-0,54
851,401	-0,51
851,831	-0,49
852,26	-0,49
852,69	-0,54
853,119	-0,53
853,548	-0,52
853,978	-0,52
854,407	-0,51
854,836	-0,51
855,266	-0,51
855,695	-0,53
856,124	-0,55
856,553	-0,57
856,983	-0,59
857,412	-0,58
857,841	-0,58
858,27	-0,59
858,699	-0,59
859,128	-0,63
859,557	-0,63
859,986	-0,64
860,415	-0,61
860,844	-0,58
861,273	-0,58
861,702	-0,59
862,13	-0,57
862,559	-0,59
862,988	-0,57
863,417	-0,56
863,845	-0,55
864,274	-0,56
864,703	-0,56
865,131	-0,57
865,56	-0,58
865,989	-0,6
866,417	-0,57
866,846	-0,57
867,274	-0,56
867,703	-0,58
868,131	-0,59
868,559	-0,59
868,988	-0,62
869,416	-0,6
869,844	-0,61
870,273	-0,64
870,701	-0,61
871,129	-0,65
871,557	-0,68
871,986	-0,68
872,414	-0,7
872,842	-0,67
873,27	-0,65
873,698	-0,61
874,126	-0,66
874,554	-0,64
874,982	-0,64
875,41	-0,68
875,838	-0,63
876,266	-0,59
876,694	-0,59
877,122	-0,57
877,549	-0,63
877,977	-0,6
878,405	-0,64
878,833	-0,6
879,26	-0,59
879,688	-0,59
880,116	-0,56
880,543	-0,55
880,971	-0,55
881,399	-0,59
881,826	-0,6
882,254	-0,57
882,681	-0,61
883,109	-0,57
883,536	-0,58
883,963	-0,6
884,391	-0,58
884,818	-0,56
885,245	-0,6
885,673	-0,62
886,1	-0,58
886,527	-0,58
886,954	-0,54
887,381	-0,56
887,809	-0,58
888,236	-0,6
888,663	-0,6
889,09	-0,65
889,517	-0,67
889,944	-0,66
890,371	-0,65
890,798	-0,66
891,225	-0,66
891,652	-0,68
892,078	-0,65
892,505	-0,68
892,932	-0,63
893,359	-0,64
893,786	-0,64
894,212	-0,6
894,639	-0,63
895,066	-0,65
895,492	-0,59
895,919	-0,59
896,346	-0,59
896,772	-0,6
897,199	-0,57
897,625	-0,61
898,052	-0,57
898,478	-0,55
898,904	-0,57
899,331	-0,56
899,757	-0,57
900,183	-0,6
900,61	-0,58
901,036	-0,58
901,462	-0,58
901,888	-0,57
902,315	-0,55
902,741	-0,6
903,167	-0,59
903,593	-0,62
904,019	-0,6
904,445	-0,57
904,871	-0,6
905,297	-0,63
905,723	-0,61
906,149	-0,61
906,575	-0,61
907,001	-0,62
907,427	-0,58
907,852	-0,57
908,278	-0,58
908,704	-0,56
909,13	-0,55
909,555	-0,54
909,981	-0,52
910,407	-0,53
910,832	-0,52
911,258	-0,52
911,684	-0,53
912,109	-0,53
912,535	-0,55
912,96	-0,51
913,386	-0,54
913,811	-0,54
914,236	-0,57
914,662	-0,55
915,087	-0,59
915,512	-0,59
915,938	-0,61
916,363	-0,6
916,788	-0,61
917,213	-0,59
917,639	-0,64
918,064	-0,61
918,489	-0,61
918,914	-0,61
919,339	-0,62
919,764	-0,59
920,189	-0,59
920,614	-0,61
921,039	-0,62
921,464	-0,58
921,889	-0,61
922,314	-0,62
922,738	-0,65
923,163	-0,66
923,588	-0,66
924,013	-0,65
924,437	-0,65
924,862	-0,66
925,287	-0,62
925,711	-0,63
926,136	-0,64
926,561	-0,62
926,985	-0,61
927,41	-0,58
927,834	-0,56
928,259	-0,52
928,683	-0,51
929,108	-0,47
929,532	-0,48
929,956	-0,47
930,381	-0,47
930,805	-0,46
931,229	-0,46
931,653	-0,43
932,078	-0,43
932,502	-0,45
932,926	-0,47
933,35	-0,47
933,774	-0,46
934,198	-0,44
934,622	-0,43
935,046	-0,43
935,47	-0,45
935,894	-0,44
936,318	-0,45
936,742	-0,45
937,166	-0,45
937,59	-0,44
938,014	-0,47
938,437	-0,48
938,861	-0,5
939,285	-0,51
939,709	-0,51
940,132	-0,51
940,556	-0,51
940,98	-0,51
941,403	-0,49
941,827	-0,5
942,25	-0,51
942,674	-0,49
943,097	-0,49
943,521	-0,49
943,944	-0,5
944,368	-0,48
944,791	-0,47
945,214	-0,5
945,638	-0,51
946,061	-0,54
946,484	-0,55
946,907	-0,53
947,331	-0,53
947,754	-0,57
948,177	-0,54
948,6	-0,54
949,023	-0,55
949,446	-0,54
949,869	-0,51
950,292	-0,51
950,715	-0,46
951,138	-0,45
951,561	-0,44
951,984	-0,44
952,407	-0,42
952,83	-0,4
953,252	-0,36
953,675	-0,36
954,098	-0,37
954,521	-0,35
954,943	-0,36
955,366	-0,37
955,789	-0,36
956,211	-0,37
956,634	-0,37
957,056	-0,35
957,479	-0,36
957,902	-0,38
958,324	-0,38
958,746	-0,35
959,169	-0,37
959,591	-0,37
960,014	-0,38
960,436	-0,38
960,858	-0,37
961,281	-0,37
961,703	-0,38
962,125	-0,38
962,547	-0,36
962,969	-0,37
963,391	-0,39
963,814	-0,4
964,236	-0,39
964,658	-0,36
965,08	-0,37
965,502	-0,36
965,924	-0,33
966,346	-0,34
966,768	-0,32
967,189	-0,34
967,611	-0,33
968,033	-0,33
968,455	-0,31
968,877	-0,32
969,298	-0,32
969,72	-0,33
970,142	-0,34
970,563	-0,35
970,985	-0,33
971,407	-0,32
971,828	-0,3
972,25	-0,3
972,671	-0,28
973,093	-0,27
973,514	-0,25
973,936	-0,23
974,357	-0,22
974,778	-0,2
975,2	-0,19
975,621	-0,19
976,042	-0,17
976,464	-0,16
976,885	-0,14
977,306	-0,14
977,727	-0,13
978,148	-0,12
978,57	-0,11
978,991	-0,1
979,412	-0,09
979,833	-0,09
980,254	-0,07
980,675	-0,08
981,096	-0,07
981,517	-0,05
981,937	-0,05
982,358	-0,04
982,779	-0,02
983,2	-0,01
983,621	-0,01
984,042	0,01
984,462	0,02
984,883	0,03
985,304	0,05
985,724	0,06
986,145	0,07
986,565	0,09
986,986	0,1
987,407	0,12
987,827	0,13
988,248	0,15
988,668	0,16
989,088	0,18
989,509	0,2
989,929	0,2
990,35	0,22
990,77	0,23
991,19	0,24
991,61	0,26
992,031	0,27
992,451	0,28
992,871	0,29
993,291	0,31
993,711	0,31
994,131	0,31
994,551	0,33
994,971	0,34
995,391	0,34
995,811	0,35
996,231	0,36
996,651	0,36
997,071	0,37
997,491	0,38
997,911	0,38
998,331	0,4
998,75	0,4
999,17	0,41
999,59	0,41
1000,009	0,42
1000,429	0,43
1000,849	0,43
1001,268	0,44
1001,688	0,45
1002,107	0,45
1002,527	0,45
1002,946	0,46
1003,366	0,46
1003,785	0,46
1004,205	0,47
1004,624	0,47
1005,044	0,48
1005,463	0,48
1005,882	0,48
1006,301	0,48
1006,721	0,49
1007,14	0,49
1007,559	0,49
1007,978	0,49
1008,397	0,49
1008,816	0,49
1009,235	0,49
1009,655	0,49
1010,074	0,49
1010,492	0,49
1010,911	0,49
1011,33	0,49
1011,749	0,49
1012,168	0,49
1012,587	0,49
1013,006	0,49
1013,425	0,49
1013,843	0,49
1014,262	0,49
1014,681	0,49
1015,099	0,49
1015,518	0,49
1015,937	0,49
1016,355	0,48
1016,774	0,48
1017,192	0,48
1017,611	0,48
1018,029	0,48
1018,448	0,48
1018,866	0,48
1019,285	0,48
1019,703	0,48
1020,121	0,48
1020,54	0,48
1020,958	0,48
1021,376	0,48
1021,794	0,48
1022,213	0,48
1022,631	0,48
1023,049	0,48
1023,467	0,48
1023,885	0,47
1024,303	0,47
1024,721	0,47
1025,139	0,47
1025,557	0,47
1025,975	0,47
1026,393	0,47
1026,811	0,47
1027,229	0,47
1027,647	0,47
1028,065	0,47
1028,482	0,47
1028,9	0,47
1029,318	0,47
1029,735	0,46
1030,153	0,46
1030,571	0,46
1030,988	0,47
1031,406	0,47
1031,823	0,47
1032,241	0,47
1032,659	0,47
1033,076	0,47
1033,493	0,47
1033,911	0,47
1034,328	0,47
1034,746	0,47
1035,163	0,47
1035,58	0,47
1035,997	0,47
1036,415	0,47
1036,832	0,47
1037,249	0,47
1037,666	0,47
1038,083	0,47
1038,501	0,47
1038,918	0,47
1039,335	0,47
1039,752	0,47
1040,169	0,47
1040,586	0,47
1041,003	0,47
1041,419	0,47
1041,836	0,47
1042,253	0,47
1042,67	0,47
1043,087	0,47
1043,504	0,47
1043,92	0,47
1044,337	0,47
1044,754	0,47
1045,17	0,46
1045,587	0,46
1046,004	0,46
1046,42	0,46
1046,837	0,46
1047,253	0,46
1047,67	0,46
1048,086	0,46
1048,503	0,46
1048,919	0,46
1049,335	0,46
1049,752	0,46
1050,168	0,46
1050,584	0,46
1051,001	0,46
1051,417	0,46
1051,833	0,47
1052,249	0,47
1052,665	0,47
1053,081	0,47
1053,497	0,47
1053,914	0,47
1054,33	0,47
1054,746	0,47
1055,162	0,47
1055,578	0,47
1055,993	0,48
1056,409	0,48
1056,825	0,48
1057,241	0,48
1057,657	0,48
1058,073	0,48
1058,488	0,48
1058,904	0,48
1059,32	0,48
1059,736	0,48
1060,151	0,48
1060,567	0,48
1060,982	0,48
1061,398	0,48
1061,813	0,48
1062,229	0,48
1062,644	0,47
1063,06	0,47
1063,475	0,47
1063,891	0,47
1064,306	0,47
1064,721	0,47
1065,137	0,47
1065,552	0,47
1065,967	0,47
1066,382	0,47
1066,798	0,47
1067,213	0,47
1067,628	0,47
1068,043	0,47
1068,458	0,47
1068,873	0,47
1069,288	0,47
1069,703	0,47
1070,118	0,47
1070,533	0,47
1070,948	0,47
1071,363	0,47
1071,778	0,47
1072,193	0,47
1072,607	0,47
1073,022	0,47
1073,437	0,47
1073,852	0,47
1074,266	0,47
1074,681	0,47
1075,096	0,47
1075,51	0,47
1075,925	0,47
1076,339	0,47
1076,754	0,47
1077,168	0,47
1077,583	0,47
1077,997	0,47
1078,412	0,47
1078,826	0,47
1079,24	0,46
1079,655	0,46
1080,069	0,46
1080,483	0,46
1080,897	0,46
1081,312	0,46
1081,726	0,46
1082,14	0,46
1082,554	0,46
1082,968	0,46
1083,382	0,45
1083,796	0,45
1084,21	0,45
1084,624	0,45
1085,038	0,45
1085,452	0,45
1085,866	0,45
1086,28	0,44
1086,694	0,44
1087,108	0,44
1087,521	0,44
1087,935	0,44
1088,349	0,44
1088,763	0,43
1089,176	0,43
1089,59	0,43
1090,004	0,43
1090,417	0,42
1090,831	0,42
1091,244	0,41
1091,658	0,41
1092,071	0,41
1092,485	0,4
1092,898	0,4
1093,312	0,4
1093,725	0,4
1094,138	0,39
1094,552	0,39
1094,965	0,39
1095,378	0,38
1095,791	0,38
1096,205	0,38
1096,618	0,38
1097,031	0,37
1097,444	0,37
1097,857	0,36
1098,27	0,36
1098,683	0,35
1099,096	0,35
1099,509	0,35
1099,922	0,34
1100,335	0,34
1100,748	0,33
1101,161	0,32
1101,574	0,32
1101,986	0,32
1102,399	0,31
1102,812	0,31
1103,225	0,31
1103,637	0,31
1104,05	0,3
1104,463	0,3
1104,875	0,3
1105,288	0,29
1105,7	0,29
1106,113	0,29
1106,525	0,28
1106,938	0,28
1107,35	0,27
1107,763	0,27
1108,175	0,26
1108,588	0,26
1109	0,25
1109,412	0,25
1109,824	0,25
1110,237	0,25
1110,649	0,25
1111,061	0,24
