Data from 18C-808nm-8A-cont_Absorbance__316__01745.txt Node

Date: Mon Jul 17 17:29:45 CEST 2023
User: Laser008
Spectrometer: MAYP115816
Trigger mode: 0
Integration Time (sec): 2,500000E-1
Scans to average: 10
Electric dark correction enabled: true
Nonlinearity correction enabled: true
Boxcar width: 5
XAxis mode: Wavelengths
Number of Pixels in Spectrum: 2068
>>>>>Begin Spectral Data<<<<<
198,914	-0,68
199,384	-0,48
199,855	-0,34
200,325	-0,26
200,796	-0,23
201,266	-0,18
201,737	-0,16
202,207	-0,16
202,677	-0,15
203,147	-0,13
203,618	-0,1
204,088	-0,08
204,558	-0,06
205,028	-0,06
205,498	-0,06
205,968	-0,06
206,439	-0,07
206,909	-0,07
207,379	-0,06
207,849	-0,06
208,319	-0,07
208,789	-0,09
209,258	-0,08
209,728	-0,1
210,198	-0,09
210,668	-0,09
211,138	-0,09
211,608	-0,1
212,077	-0,1
212,547	-0,1
213,017	-0,1
213,486	-0,11
213,956	-0,1
214,426	-0,12
214,895	-0,12
215,365	-0,13
215,834	-0,13
216,304	-0,14
216,773	-0,13
217,243	-0,15
217,712	-0,17
218,181	-0,17
218,651	-0,16
219,12	-0,17
219,589	-0,16
220,058	-0,15
220,528	-0,16
220,997	-0,16
221,466	-0,17
221,935	-0,18
222,404	-0,17
222,873	-0,16
223,342	-0,16
223,812	-0,16
224,281	-0,16
224,749	-0,17
225,218	-0,19
225,687	-0,19
226,156	-0,18
226,625	-0,16
227,094	-0,17
227,563	-0,17
228,031	-0,18
228,5	-0,18
228,969	-0,18
229,438	-0,17
229,906	-0,16
230,375	-0,14
230,844	-0,13
231,312	-0,12
231,781	-0,13
232,249	-0,11
232,718	-0,11
233,186	-0,09
233,655	-0,1
234,123	-0,1
234,591	-0,1
235,06	-0,11
235,528	-0,12
235,996	-0,13
236,465	-0,13
236,933	-0,12
237,401	-0,13
237,869	-0,12
238,337	-0,13
238,805	-0,12
239,274	-0,11
239,742	-0,11
240,21	-0,11
240,678	-0,1
241,146	-0,08
241,614	-0,08
242,081	-0,08
242,549	-0,07
243,017	-0,08
243,485	-0,08
243,953	-0,08
244,421	-0,08
244,888	-0,07
245,356	-0,08
245,824	-0,08
246,291	-0,09
246,759	-0,09
247,227	-0,1
247,694	-0,09
248,162	-0,09
248,629	-0,08
249,097	-0,09
249,564	-0,1
250,032	-0,11
250,499	-0,1
250,967	-0,11
251,434	-0,12
251,901	-0,11
252,369	-0,12
252,836	-0,12
253,303	-0,14
253,77	-0,15
254,237	-0,14
254,705	-0,14
255,172	-0,14
255,639	-0,14
256,106	-0,15
256,573	-0,15
257,04	-0,16
257,507	-0,15
257,974	-0,17
258,441	-0,14
258,908	-0,14
259,375	-0,16
259,841	-0,16
260,308	-0,17
260,775	-0,17
261,242	-0,16
261,709	-0,16
262,175	-0,17
262,642	-0,18
263,109	-0,17
263,575	-0,19
264,042	-0,17
264,508	-0,17
264,975	-0,19
265,441	-0,19
265,908	-0,2
266,374	-0,19
266,841	-0,18
267,307	-0,18
267,773	-0,17
268,24	-0,17
268,706	-0,17
269,172	-0,18
269,639	-0,19
270,105	-0,16
270,571	-0,17
271,037	-0,17
271,503	-0,18
271,969	-0,18
272,435	-0,18
272,902	-0,2
273,368	-0,21
273,834	-0,2
274,3	-0,22
274,765	-0,22
275,231	-0,22
275,697	-0,21
276,163	-0,2
276,629	-0,2
277,095	-0,21
277,56	-0,2
278,026	-0,2
278,492	-0,19
278,958	-0,19
279,423	-0,19
279,889	-0,17
280,354	-0,18
280,82	-0,18
281,286	-0,19
281,751	-0,2
282,217	-0,19
282,682	-0,19
283,147	-0,19
283,613	-0,2
284,078	-0,2
284,544	-0,21
285,009	-0,23
285,474	-0,22
285,939	-0,24
286,405	-0,23
286,87	-0,22
287,335	-0,22
287,8	-0,21
288,265	-0,21
288,73	-0,22
289,195	-0,24
289,66	-0,23
290,125	-0,21
290,59	-0,21
291,055	-0,2
291,52	-0,2
291,985	-0,2
292,45	-0,22
292,915	-0,21
293,38	-0,21
293,844	-0,2
294,309	-0,18
294,774	-0,17
295,239	-0,19
295,703	-0,19
296,168	-0,19
296,632	-0,18
297,097	-0,16
297,562	-0,15
298,026	-0,15
298,491	-0,16
298,955	-0,16
299,419	-0,14
299,884	-0,15
300,348	-0,14
300,813	-0,12
301,277	-0,12
301,741	-0,12
302,205	-0,13
302,67	-0,12
303,134	-0,11
303,598	-0,1
304,062	-0,1
304,526	-0,1
304,99	-0,11
305,454	-0,11
305,919	-0,1
306,383	-0,11
306,847	-0,11
307,31	-0,11
307,774	-0,13
308,238	-0,12
308,702	-0,12
309,166	-0,13
309,63	-0,13
310,094	-0,1
310,557	-0,09
311,021	-0,1
311,485	-0,1
311,948	-0,1
312,412	-0,1
312,876	-0,09
313,339	-0,11
313,803	-0,11
314,266	-0,1
314,73	-0,11
315,193	-0,11
315,657	-0,11
316,12	-0,1
316,584	-0,08
317,047	-0,09
317,51	-0,07
317,973	-0,06
318,437	-0,05
318,9	-0,04
319,363	-0,03
319,826	-0,02
320,29	-0,03
320,753	-0,03
321,216	-0,04
321,679	-0,03
322,142	-0,02
322,605	-0,03
323,068	-0,03
323,531	-0,03
323,994	-0,02
324,457	-0,03
324,92	-0,01
325,382	-0,02
325,845	-0,01
326,308	-0,01
326,771	-0,01
327,233	-0,01
327,696	-0,01
328,159	0
328,622	0,02
329,084	0,01
329,547	0,02
330,009	0,02
330,472	0,02
330,934	0,04
331,397	0,04
331,859	0,05
332,322	0,06
332,784	0,06
333,246	0,07
333,709	0,06
334,171	0,06
334,633	0,06
335,096	0,06
335,558	0,07
336,02	0,07
336,482	0,07
336,944	0,09
337,406	0,09
337,868	0,09
338,331	0,09
338,793	0,1
339,255	0,11
339,717	0,11
340,178	0,12
340,64	0,14
341,102	0,14
341,564	0,15
342,026	0,16
342,488	0,17
342,949	0,19
343,411	0,21
343,873	0,24
344,335	0,27
344,796	0,31
345,258	0,36
345,719	0,4
346,181	0,45
346,643	0,5
347,104	0,53
347,566	0,57
348,027	0,6
348,488	0,62
348,95	0,65
349,411	0,67
349,873	0,69
350,334	0,71
350,795	0,73
351,256	0,74
351,718	0,75
352,179	0,76
352,64	0,76
353,101	0,76
353,562	0,77
354,023	0,77
354,484	0,77
354,945	0,78
355,406	0,78
355,867	0,78
356,328	0,78
356,789	0,79
357,25	0,79
357,711	0,79
358,172	0,79
358,633	0,8
359,093	0,8
359,554	0,8
360,015	0,8
360,476	0,8
360,936	0,8
361,397	0,8
361,858	0,81
362,318	0,81
362,779	0,81
363,239	0,81
363,7	0,81
364,16	0,81
364,621	0,81
365,081	0,81
365,541	0,81
366,002	0,81
366,462	0,81
366,922	0,81
367,383	0,81
367,843	0,81
368,303	0,81
368,763	0,81
369,223	0,81
369,684	0,81
370,144	0,81
370,604	0,81
371,064	0,81
371,524	0,81
371,984	0,81
372,444	0,81
372,904	0,81
373,363	0,81
373,823	0,81
374,283	0,81
374,743	0,8
375,203	0,8
375,663	0,8
376,122	0,8
376,582	0,8
377,042	0,8
377,501	0,8
377,961	0,8
378,42	0,8
378,88	0,8
379,34	0,8
379,799	0,8
380,259	0,8
380,718	0,8
381,177	0,8
381,637	0,8
382,096	0,8
382,555	0,8
383,015	0,8
383,474	0,8
383,933	0,8
384,393	0,8
384,852	0,8
385,311	0,8
385,77	0,8
386,229	0,8
386,688	0,8
387,147	0,8
387,606	0,8
388,065	0,8
388,524	0,8
388,983	0,8
389,442	0,8
389,901	0,79
390,36	0,79
390,819	0,79
391,277	0,79
391,736	0,79
392,195	0,79
392,654	0,79
393,112	0,79
393,571	0,79
394,03	0,79
394,488	0,79
394,947	0,79
395,405	0,79
395,864	0,79
396,322	0,79
396,781	0,79
397,239	0,79
397,698	0,79
398,156	0,79
398,614	0,79
399,073	0,79
399,531	0,79
399,989	0,79
400,447	0,79
400,905	0,79
401,364	0,79
401,822	0,79
402,28	0,79
402,738	0,79
403,196	0,79
403,654	0,79
404,112	0,79
404,57	0,79
405,028	0,79
405,486	0,79
405,944	0,79
406,402	0,78
406,859	0,78
407,317	0,79
407,775	0,79
408,233	0,79
408,691	0,79
409,148	0,78
409,606	0,78
410,064	0,78
410,521	0,78
410,979	0,78
411,436	0,78
411,894	0,78
412,351	0,78
412,809	0,78
413,266	0,78
413,724	0,78
414,181	0,78
414,638	0,78
415,096	0,78
415,553	0,78
416,01	0,78
416,467	0,78
416,925	0,78
417,382	0,78
417,839	0,78
418,296	0,78
418,753	0,78
419,21	0,78
419,667	0,78
420,124	0,78
420,581	0,78
421,038	0,78
421,495	0,78
421,952	0,78
422,409	0,78
422,866	0,78
423,322	0,78
423,779	0,78
424,236	0,78
424,693	0,78
425,149	0,78
425,606	0,78
426,063	0,78
426,519	0,78
426,976	0,78
427,433	0,78
427,889	0,78
428,346	0,78
428,802	0,78
429,258	0,78
429,715	0,78
430,171	0,78
430,628	0,78
431,084	0,78
431,54	0,78
431,997	0,78
432,453	0,78
432,909	0,78
433,365	0,78
433,821	0,77
434,277	0,77
434,734	0,77
435,19	0,77
435,646	0,77
436,102	0,77
436,558	0,77
437,014	0,77
437,47	0,77
437,925	0,78
438,381	0,78
438,837	0,78
439,293	0,78
439,749	0,78
440,205	0,78
440,66	0,78
441,116	0,78
441,572	0,78
442,027	0,78
442,483	0,78
442,939	0,78
443,394	0,78
443,85	0,78
444,305	0,78
444,761	0,78
445,216	0,78
445,672	0,78
446,127	0,78
446,582	0,78
447,038	0,78
447,493	0,78
447,948	0,78
448,403	0,78
448,859	0,78
449,314	0,78
449,769	0,78
450,224	0,78
450,679	0,78
451,134	0,78
451,589	0,78
452,044	0,78
452,499	0,79
452,954	0,79
453,409	0,79
453,864	0,79
454,319	0,79
454,774	0,79
455,229	0,79
455,684	0,79
456,138	0,79
456,593	0,79
457,048	0,79
457,503	0,79
457,957	0,79
458,412	0,79
458,866	0,79
459,321	0,79
459,776	0,79
460,23	0,79
460,685	0,79
461,139	0,79
461,593	0,79
462,048	0,79
462,502	0,79
462,957	0,79
463,411	0,8
463,865	0,8
464,319	0,8
464,774	0,8
465,228	0,8
465,682	0,8
466,136	0,8
466,59	0,8
467,044	0,8
467,499	0,8
467,953	0,8
468,407	0,8
468,861	0,8
469,315	0,8
469,768	0,81
470,222	0,81
470,676	0,81
471,13	0,81
471,584	0,81
472,038	0,81
472,491	0,81
472,945	0,81
473,399	0,81
473,852	0,81
474,306	0,82
474,76	0,82
475,213	0,82
475,667	0,82
476,12	0,82
476,574	0,82
477,027	0,82
477,481	0,82
477,934	0,83
478,388	0,83
478,841	0,83
479,294	0,83
479,748	0,83
480,201	0,84
480,654	0,84
481,107	0,84
481,561	0,84
482,014	0,84
482,467	0,84
482,92	0,85
483,373	0,85
483,826	0,85
484,279	0,85
484,732	0,85
485,185	0,85
485,638	0,86
486,091	0,86
486,544	0,86
486,997	0,86
487,449	0,86
487,902	0,86
488,355	0,87
488,808	0,87
489,26	0,87
489,713	0,87
490,166	0,88
490,618	0,88
491,071	0,88
491,523	0,89
491,976	0,89
492,429	0,89
492,881	0,89
493,333	0,9
493,786	0,9
494,238	0,9
494,691	0,91
495,143	0,91
495,595	0,91
496,048	0,92
496,5	0,92
496,952	0,93
497,404	0,93
497,856	0,93
498,309	0,94
498,761	0,94
499,213	0,94
499,665	0,95
500,117	0,95
500,569	0,96
501,021	0,96
501,473	0,96
501,925	0,97
502,377	0,97
502,828	0,97
503,28	0,98
503,732	0,98
504,184	0,99
504,636	0,99
505,087	0,99
505,539	1
505,991	1
506,442	1,01
506,894	1,01
507,345	1,01
507,797	1,02
508,249	1,02
508,7	1,03
509,151	1,03
509,603	1,03
510,054	1,04
510,506	1,04
510,957	1,04
511,408	1,05
511,86	1,05
512,311	1,05
512,762	1,06
513,213	1,06
513,665	1,06
514,116	1,07
514,567	1,07
515,018	1,08
515,469	1,08
515,92	1,08
516,371	1,08
516,822	1,09
517,273	1,09
517,724	1,09
518,175	1,09
518,626	1,1
519,076	1,1
519,527	1,1
519,978	1,1
520,429	1,11
520,88	1,11
521,33	1,11
521,781	1,11
522,232	1,11
522,682	1,12
523,133	1,12
523,583	1,12
524,034	1,12
524,484	1,12
524,935	1,12
525,385	1,12
525,836	1,12
526,286	1,12
526,736	1,12
527,187	1,12
527,637	1,12
528,087	1,12
528,538	1,12
528,988	1,12
529,438	1,12
529,888	1,12
530,338	1,12
530,788	1,12
531,238	1,12
531,688	1,11
532,139	1,11
532,589	1,11
533,038	1,11
533,488	1,11
533,938	1,11
534,388	1,1
534,838	1,1
535,288	1,1
535,738	1,09
536,187	1,09
536,637	1,09
537,087	1,08
537,537	1,08
537,986	1,08
538,436	1,07
538,885	1,07
539,335	1,06
539,785	1,06
540,234	1,05
540,684	1,05
541,133	1,04
541,582	1,04
542,032	1,03
542,481	1,03
542,931	1,03
543,38	1,02
543,829	1,02
544,278	1,01
544,728	1,01
545,177	1
545,626	1
546,075	0,99
546,524	0,99
546,973	0,99
547,422	0,98
547,871	0,98
548,32	0,98
548,769	0,97
549,218	0,97
549,667	0,97
550,116	0,96
550,565	0,96
551,014	0,95
551,463	0,95
551,911	0,95
552,36	0,94
552,809	0,94
553,258	0,93
553,706	0,93
554,155	0,92
554,603	0,92
555,052	0,92
555,501	0,91
555,949	0,91
556,398	0,9
556,846	0,9
557,294	0,89
557,743	0,89
558,191	0,88
558,64	0,88
559,088	0,87
559,536	0,87
559,985	0,86
560,433	0,86
560,881	0,85
561,329	0,85
561,777	0,85
562,225	0,84
562,674	0,84
563,122	0,83
563,57	0,83
564,018	0,83
564,466	0,82
564,914	0,82
565,362	0,81
565,809	0,81
566,257	0,81
566,705	0,8
567,153	0,8
567,601	0,8
568,048	0,79
568,496	0,79
568,944	0,78
569,392	0,78
569,839	0,78
570,287	0,77
570,734	0,77
571,182	0,77
571,63	0,76
572,077	0,76
572,525	0,76
572,972	0,75
573,419	0,75
573,867	0,75
574,314	0,74
574,761	0,74
575,209	0,73
575,656	0,73
576,103	0,73
576,551	0,73
576,998	0,72
577,445	0,72
577,892	0,72
578,339	0,71
578,786	0,71
579,233	0,71
579,68	0,7
580,127	0,7
580,574	0,7
581,021	0,7
581,468	0,69
581,915	0,69
582,362	0,69
582,809	0,69
583,255	0,68
583,702	0,68
584,149	0,68
584,596	0,68
585,042	0,67
585,489	0,67
585,936	0,67
586,382	0,67
586,829	0,67
587,275	0,66
587,722	0,66
588,168	0,66
588,615	0,66
589,061	0,65
589,508	0,65
589,954	0,65
590,4	0,65
590,847	0,65
591,293	0,64
591,739	0,64
592,185	0,64
592,632	0,64
593,078	0,64
593,524	0,64
593,97	0,64
594,416	0,63
594,862	0,63
595,308	0,63
595,754	0,63
596,2	0,63
596,646	0,63
597,092	0,63
597,538	0,62
597,984	0,62
598,43	0,62
598,876	0,62
599,321	0,62
599,767	0,62
600,213	0,62
600,659	0,62
601,104	0,61
601,55	0,61
601,995	0,61
602,441	0,61
602,887	0,61
603,332	0,61
603,778	0,61
604,223	0,6
604,668	0,6
605,114	0,6
605,559	0,6
606,005	0,6
606,45	0,6
606,895	0,6
607,341	0,6
607,786	0,6
608,231	0,59
608,676	0,59
609,121	0,58
609,566	0,58
610,012	0,57
610,457	0,57
610,902	0,57
611,347	0,56
611,792	0,56
612,237	0,56
612,682	0,56
613,127	0,56
613,571	0,56
614,016	0,56
614,461	0,57
614,906	0,57
615,351	0,57
615,795	0,57
616,24	0,57
616,685	0,57
617,129	0,57
617,574	0,57
618,019	0,57
618,463	0,57
618,908	0,57
619,352	0,57
619,797	0,57
620,241	0,57
620,686	0,57
621,13	0,56
621,574	0,56
622,019	0,56
622,463	0,56
622,907	0,56
623,352	0,56
623,796	0,56
624,24	0,56
624,684	0,56
625,128	0,56
625,572	0,56
626,016	0,56
626,461	0,56
626,905	0,56
627,349	0,56
627,793	0,56
628,236	0,56
628,68	0,56
629,124	0,55
629,568	0,55
630,012	0,55
630,456	0,55
630,9	0,55
631,343	0,55
631,787	0,55
632,231	0,55
632,674	0,55
633,118	0,55
633,562	0,55
634,005	0,55
634,449	0,55
634,892	0,55
635,336	0,55
635,779	0,55
636,223	0,55
636,666	0,55
637,109	0,55
637,553	0,55
637,996	0,55
638,439	0,55
638,883	0,55
639,326	0,55
639,769	0,55
640,212	0,55
640,655	0,55
641,099	0,54
641,542	0,54
641,985	0,54
642,428	0,54
642,871	0,54
643,314	0,54
643,757	0,54
644,2	0,54
644,643	0,54
645,085	0,54
645,528	0,54
645,971	0,54
646,414	0,54
646,857	0,54
647,299	0,54
647,742	0,54
648,185	0,54
648,627	0,54
649,07	0,53
649,513	0,53
649,955	0,53
650,398	0,53
650,84	0,53
651,283	0,54
651,725	0,54
652,168	0,54
652,61	0,54
653,052	0,54
653,495	0,54
653,937	0,45
654,379	0,39
654,821	0,4
655,264	0,4
655,706	0,4
656,148	0,4
656,59	0,4
657,032	0,4
657,474	0,4
657,916	0,4
658,358	0,39
658,8	0,45
659,242	0,53
659,684	0,53
660,126	0,53
660,568	0,53
661,01	0,53
661,452	0,53
661,894	0,53
662,335	0,53
662,777	0,53
663,219	0,53
663,661	0,53
664,102	0,53
664,544	0,53
664,985	0,53
665,427	0,53
665,869	0,53
666,31	0,53
666,752	0,53
667,193	0,53
667,634	0,53
668,076	0,53
668,517	0,53
668,959	0,53
669,4	0,53
669,841	0,53
670,282	0,53
670,724	0,53
671,165	0,53
671,606	0,53
672,047	0,53
672,488	0,53
672,929	0,53
673,37	0,53
673,811	0,53
674,252	0,52
674,693	0,52
675,134	0,52
675,575	0,52
676,016	0,52
676,457	0,52
676,898	0,52
677,339	0,52
677,78	0,51
678,22	0,51
678,661	0,51
679,102	0,51
679,542	0,52
679,983	0,52
680,424	0,52
680,864	0,52
681,305	0,52
681,745	0,52
682,186	0,52
682,626	0,52
683,067	0,52
683,507	0,52
683,948	0,52
684,388	0,52
684,828	0,52
685,269	0,52
685,709	0,52
686,149	0,52
686,589	0,52
687,029	0,51
687,47	0,51
687,91	0,51
688,35	0,51
688,79	0,51
689,23	0,51
689,67	0,51
690,11	0,51
690,55	0,51
690,99	0,51
691,43	0,51
691,87	0,51
692,31	0,51
692,749	0,51
693,189	0,5
693,629	0,5
694,069	0,5
694,508	0,5
694,948	0,5
695,388	0,5
695,827	0,5
696,267	0,5
696,706	0,5
697,146	0,5
697,586	0,5
698,025	0,51
698,464	0,51
698,904	0,51
699,343	0,51
699,783	0,51
700,222	0,51
700,661	0,51
701,101	0,51
701,54	0,51
701,979	0,51
702,418	0,51
702,857	0,51
703,297	0,51
703,736	0,51
704,175	0,51
704,614	0,51
705,053	0,51
705,492	0,51
705,931	0,5
706,37	0,5
706,809	0,5
707,248	0,5
707,687	0,5
708,125	0,5
708,564	0,5
709,003	0,5
709,442	0,5
709,88	0,5
710,319	0,5
710,758	0,5
711,196	0,5
711,635	0,5
712,074	0,5
712,512	0,49
712,951	0,49
713,389	0,49
713,828	0,49
714,266	0,49
714,705	0,49
715,143	0,49
715,581	0,49
716,02	0,49
716,458	0,49
716,896	0,49
717,334	0,49
717,773	0,49
718,211	0,49
718,649	0,5
719,087	0,5
719,525	0,5
719,963	0,5
720,401	0,5
720,839	0,5
721,277	0,5
721,715	0,5
722,153	0,5
722,591	0,5
723,029	0,5
723,467	0,5
723,905	0,5
724,342	0,5
724,78	0,5
725,218	0,5
725,656	0,5
726,093	0,5
726,531	0,5
726,969	0,5
727,406	0,5
727,844	0,5
728,281	0,5
728,719	0,5
729,156	0,49
729,594	0,49
730,031	0,49
730,469	0,49
730,906	0,49
731,343	0,49
731,781	0,49
732,218	0,49
732,655	0,49
733,092	0,49
733,53	0,49
733,967	0,48
734,404	0,48
734,841	0,48
735,278	0,48
735,715	0,48
736,152	0,48
736,589	0,48
737,026	0,48
737,463	0,48
737,9	0,48
738,337	0,48
738,774	0,48
739,211	0,48
739,647	0,48
740,084	0,48
740,521	0,48
740,958	0,48
741,394	0,48
741,831	0,48
742,268	0,48
742,704	0,48
743,141	0,48
743,577	0,48
744,014	0,48
744,45	0,48
744,887	0,47
745,323	0,47
745,76	0,47
746,196	0,47
746,632	0,47
747,069	0,47
747,505	0,47
747,941	0,47
748,378	0,47
748,814	0,47
749,25	0,47
749,686	0,47
750,122	0,47
750,558	0,47
750,994	0,47
751,43	0,47
751,866	0,48
752,302	0,48
752,738	0,48
753,174	0,48
753,61	0,48
754,046	0,48
754,482	0,48
754,918	0,48
755,354	0,48
755,789	0,48
756,225	0,47
756,661	0,47
757,096	0,47
757,532	0,47
757,968	0,47
758,403	0,46
758,839	0,46
759,274	0,46
759,71	0,45
760,145	0,45
760,581	0,44
761,016	0,44
761,452	0,43
761,887	0,43
762,322	0,42
762,758	0,41
763,193	0,41
763,628	0,4
764,063	0,4
764,499	0,39
764,934	0,38
765,369	0,37
765,804	0,37
766,239	0,36
766,674	0,35
767,109	0,34
767,544	0,33
767,979	0,32
768,414	0,31
768,849	0,3
769,284	0,29
769,719	0,28
770,154	0,27
770,588	0,26
771,023	0,25
771,458	0,24
771,893	0,23
772,327	0,21
772,762	0,2
773,197	0,19
773,631	0,19
774,066	0,18
774,5	0,17
774,935	0,16
775,369	0,15
775,804	0,14
776,238	0,13
776,673	0,12
777,107	0,11
777,541	0,1
777,976	0,08
778,41	0,07
778,844	0,06
779,279	0,06
779,713	0,05
780,147	0,04
780,581	0,03
781,015	0,02
781,449	0,01
781,883	0
782,317	-0,01
782,751	-0,01
783,185	-0,02
783,619	-0,03
784,053	-0,04
784,487	-0,05
784,921	-0,06
785,355	-0,06
785,789	-0,07
786,223	-0,08
786,656	-0,09
787,09	-0,11
787,524	-0,11
787,957	-0,12
788,391	-0,15
788,825	-0,17
789,258	-0,18
789,692	-0,2
790,125	-0,22
790,559	-0,23
790,992	-0,25
791,426	-0,27
791,859	-0,29
792,293	-0,32
792,726	-0,33
793,159	-0,35
793,593	-0,37
794,026	-0,4
794,459	-0,43
794,892	-0,46
795,326	-0,49
795,759	-0,53
796,192	-0,57
796,625	-0,62
797,058	-0,64
797,491	-0,69
797,924	-0,73
798,357	-0,78
798,79	-0,82
799,223	-0,86
799,656	-0,92
800,089	-0,97
800,522	-1,01
800,955	-1,05
801,387	-1,11
801,82	-1,16
802,253	-1,22
802,686	-1,3
803,118	-1,36
803,551	-1,41
803,984	-1,46
804,416	-1,49
804,849	-1,53
805,281	-1,69
805,714	-2,07
806,146	-2,49
806,579	-2,73
807,011	-2,89
807,444	-2,98
807,876	-3,06
808,308	-3,1
808,741	-3,13
809,173	-3,18
809,605	-3,2
810,037	-3,27
810,47	-3,18
810,902	-2,98
811,334	-2,84
811,766	-2,68
812,198	-2,44
812,63	-2,01
813,062	-1,8
813,494	-1,7
813,926	-1,61
814,358	-1,56
814,79	-1,48
815,222	-1,42
815,654	-1,37
816,086	-1,31
816,518	-1,25
816,949	-1,2
817,381	-1,15
817,813	-1,14
818,245	-1,1
818,676	-1,06
819,108	-1,03
819,54	-1,01
819,971	-0,99
820,403	-0,94
820,834	-0,93
821,266	-0,88
821,697	-0,86
822,129	-0,84
822,56	-0,81
822,991	-0,79
823,423	-0,76
823,854	-0,76
824,286	-0,73
824,717	-0,72
825,148	-0,7
825,579	-0,69
826,01	-0,68
826,442	-0,67
826,873	-0,65
827,304	-0,62
827,735	-0,61
828,166	-0,61
828,597	-0,61
829,028	-0,6
829,459	-0,61
829,89	-0,61
830,321	-0,56
830,752	-0,56
831,183	-0,55
831,613	-0,54
832,044	-0,54
832,475	-0,53
832,906	-0,55
833,336	-0,55
833,767	-0,56
834,198	-0,55
834,628	-0,54
835,059	-0,57
835,49	-0,58
835,92	-0,55
836,351	-0,55
836,781	-0,56
837,212	-0,57
837,642	-0,57
838,072	-0,55
838,503	-0,56
838,933	-0,53
839,364	-0,54
839,794	-0,52
840,224	-0,51
840,654	-0,55
841,085	-0,56
841,515	-0,54
841,945	-0,54
842,375	-0,48
842,805	-0,47
843,235	-0,46
843,665	-0,47
844,095	-0,46
844,525	-0,47
844,955	-0,47
845,385	-0,45
845,815	-0,43
846,245	-0,45
846,675	-0,46
847,105	-0,48
847,534	-0,49
847,964	-0,47
848,394	-0,47
848,824	-0,5
849,253	-0,5
849,683	-0,5
850,112	-0,51
850,542	-0,54
850,972	-0,54
851,401	-0,52
851,831	-0,5
852,26	-0,5
852,69	-0,54
853,119	-0,53
853,548	-0,53
853,978	-0,53
854,407	-0,51
854,836	-0,51
855,266	-0,51
855,695	-0,52
856,124	-0,54
856,553	-0,55
856,983	-0,57
857,412	-0,56
857,841	-0,58
858,27	-0,58
858,699	-0,58
859,128	-0,61
859,557	-0,62
859,986	-0,63
860,415	-0,61
860,844	-0,58
861,273	-0,58
861,702	-0,58
862,13	-0,57
862,559	-0,58
862,988	-0,56
863,417	-0,56
863,845	-0,55
864,274	-0,56
864,703	-0,55
865,131	-0,56
865,56	-0,57
865,989	-0,59
866,417	-0,56
866,846	-0,57
867,274	-0,56
867,703	-0,58
868,131	-0,59
868,559	-0,59
868,988	-0,61
869,416	-0,6
869,844	-0,6
870,273	-0,62
870,701	-0,61
871,129	-0,64
871,557	-0,66
871,986	-0,67
872,414	-0,68
872,842	-0,65
873,27	-0,63
873,698	-0,59
874,126	-0,63
874,554	-0,62
874,982	-0,62
875,41	-0,65
875,838	-0,6
876,266	-0,58
876,694	-0,58
877,122	-0,57
877,549	-0,63
877,977	-0,61
878,405	-0,64
878,833	-0,61
879,26	-0,59
879,688	-0,59
880,116	-0,55
880,543	-0,54
880,971	-0,53
881,399	-0,56
881,826	-0,57
882,254	-0,54
882,681	-0,58
883,109	-0,54
883,536	-0,56
883,963	-0,57
884,391	-0,56
884,818	-0,55
885,245	-0,59
885,673	-0,62
886,1	-0,59
886,527	-0,59
886,954	-0,56
887,381	-0,57
887,809	-0,58
888,236	-0,59
888,663	-0,6
889,09	-0,64
889,517	-0,65
889,944	-0,64
890,371	-0,63
890,798	-0,63
891,225	-0,62
891,652	-0,65
892,078	-0,62
892,505	-0,66
892,932	-0,62
893,359	-0,63
893,786	-0,62
894,212	-0,59
894,639	-0,6
895,066	-0,63
895,492	-0,58
895,919	-0,58
896,346	-0,58
896,772	-0,58
897,199	-0,53
897,625	-0,56
898,052	-0,52
898,478	-0,51
898,904	-0,52
899,331	-0,52
899,757	-0,52
900,183	-0,55
900,61	-0,53
901,036	-0,52
901,462	-0,53
901,888	-0,53
902,315	-0,52
902,741	-0,58
903,167	-0,56
903,593	-0,59
904,019	-0,58
904,445	-0,55
904,871	-0,58
905,297	-0,6
905,723	-0,59
906,149	-0,59
906,575	-0,6
907,001	-0,59
907,427	-0,56
907,852	-0,57
908,278	-0,56
908,704	-0,55
909,13	-0,55
909,555	-0,54
909,981	-0,53
910,407	-0,54
910,832	-0,53
911,258	-0,53
911,684	-0,53
912,109	-0,53
912,535	-0,54
912,96	-0,5
913,386	-0,54
913,811	-0,53
914,236	-0,55
914,662	-0,53
915,087	-0,56
915,512	-0,57
915,938	-0,59
916,363	-0,58
916,788	-0,59
917,213	-0,57
917,639	-0,62
918,064	-0,59
918,489	-0,61
918,914	-0,62
919,339	-0,63
919,764	-0,6
920,189	-0,6
920,614	-0,62
921,039	-0,63
921,464	-0,58
921,889	-0,61
922,314	-0,62
922,738	-0,65
923,163	-0,65
923,588	-0,64
924,013	-0,63
924,437	-0,63
924,862	-0,64
925,287	-0,59
925,711	-0,6
926,136	-0,61
926,561	-0,6
926,985	-0,59
927,41	-0,56
927,834	-0,55
928,259	-0,52
928,683	-0,5
929,108	-0,47
929,532	-0,48
929,956	-0,49
930,381	-0,47
930,805	-0,48
931,229	-0,47
931,653	-0,45
932,078	-0,45
932,502	-0,45
932,926	-0,46
933,35	-0,47
933,774	-0,46
934,198	-0,44
934,622	-0,43
935,046	-0,44
935,47	-0,44
935,894	-0,43
936,318	-0,43
936,742	-0,43
937,166	-0,44
937,59	-0,43
938,014	-0,44
938,437	-0,45
938,861	-0,48
939,285	-0,49
939,709	-0,48
940,132	-0,48
940,556	-0,48
940,98	-0,49
941,403	-0,47
941,827	-0,47
942,25	-0,48
942,674	-0,47
943,097	-0,46
943,521	-0,46
943,944	-0,47
944,368	-0,47
944,791	-0,45
945,214	-0,48
945,638	-0,48
946,061	-0,51
946,484	-0,52
946,907	-0,52
947,331	-0,51
947,754	-0,55
948,177	-0,52
948,6	-0,52
949,023	-0,51
949,446	-0,51
949,869	-0,48
950,292	-0,49
950,715	-0,46
951,138	-0,44
951,561	-0,41
951,984	-0,41
952,407	-0,4
952,83	-0,39
953,252	-0,35
953,675	-0,35
954,098	-0,37
954,521	-0,35
954,943	-0,34
955,366	-0,35
955,789	-0,33
956,211	-0,35
956,634	-0,37
957,056	-0,34
957,479	-0,35
957,902	-0,38
958,324	-0,38
958,746	-0,36
959,169	-0,36
959,591	-0,37
960,014	-0,38
960,436	-0,39
960,858	-0,39
961,281	-0,38
961,703	-0,4
962,125	-0,4
962,547	-0,38
962,969	-0,38
963,391	-0,39
963,814	-0,41
964,236	-0,39
964,658	-0,36
965,08	-0,36
965,502	-0,36
965,924	-0,33
966,346	-0,32
966,768	-0,31
967,189	-0,34
967,611	-0,33
968,033	-0,33
968,455	-0,3
968,877	-0,31
969,298	-0,33
969,72	-0,33
970,142	-0,31
970,563	-0,32
970,985	-0,3
971,407	-0,3
971,828	-0,27
972,25	-0,27
972,671	-0,24
973,093	-0,24
973,514	-0,22
973,936	-0,19
974,357	-0,18
974,778	-0,17
975,2	-0,17
975,621	-0,17
976,042	-0,14
976,464	-0,13
976,885	-0,12
977,306	-0,12
977,727	-0,12
978,148	-0,12
978,57	-0,11
978,991	-0,1
979,412	-0,09
979,833	-0,07
980,254	-0,06
980,675	-0,06
981,096	-0,05
981,517	-0,04
981,937	-0,04
982,358	-0,02
982,779	-0
983,2	0
983,621	0,01
984,042	0,03
984,462	0,03
984,883	0,05
985,304	0,07
985,724	0,07
986,145	0,09
986,565	0,11
986,986	0,12
987,407	0,12
987,827	0,14
988,248	0,16
988,668	0,17
989,088	0,18
989,509	0,19
989,929	0,2
990,35	0,21
990,77	0,22
991,19	0,23
991,61	0,25
992,031	0,27
992,451	0,27
992,871	0,28
993,291	0,29
993,711	0,3
994,131	0,3
994,551	0,31
994,971	0,32
995,391	0,33
995,811	0,34
996,231	0,34
996,651	0,34
997,071	0,35
997,491	0,36
997,911	0,37
998,331	0,38
998,75	0,39
999,17	0,39
999,59	0,4
1000,009	0,4
1000,429	0,41
1000,849	0,42
1001,268	0,42
1001,688	0,43
1002,107	0,43
1002,527	0,44
1002,946	0,44
1003,366	0,44
1003,785	0,45
1004,205	0,45
1004,624	0,45
1005,044	0,46
1005,463	0,46
1005,882	0,46
1006,301	0,46
1006,721	0,46
1007,14	0,46
1007,559	0,47
1007,978	0,47
1008,397	0,47
1008,816	0,47
1009,235	0,47
1009,655	0,47
1010,074	0,47
1010,492	0,47
1010,911	0,47
1011,33	0,47
1011,749	0,47
1012,168	0,47
1012,587	0,47
1013,006	0,47
1013,425	0,46
1013,843	0,46
1014,262	0,46
1014,681	0,46
1015,099	0,46
1015,518	0,46
1015,937	0,46
1016,355	0,46
1016,774	0,46
1017,192	0,46
1017,611	0,46
1018,029	0,46
1018,448	0,46
1018,866	0,46
1019,285	0,46
1019,703	0,46
1020,121	0,45
1020,54	0,45
1020,958	0,45
1021,376	0,45
1021,794	0,45
1022,213	0,45
1022,631	0,45
1023,049	0,45
1023,467	0,45
1023,885	0,45
1024,303	0,45
1024,721	0,45
1025,139	0,45
1025,557	0,44
1025,975	0,44
1026,393	0,44
1026,811	0,44
1027,229	0,44
1027,647	0,44
1028,065	0,44
1028,482	0,44
1028,9	0,44
1029,318	0,44
1029,735	0,44
1030,153	0,44
1030,571	0,44
1030,988	0,44
1031,406	0,44
1031,823	0,44
1032,241	0,44
1032,659	0,44
1033,076	0,44
1033,493	0,44
1033,911	0,44
1034,328	0,44
1034,746	0,44
1035,163	0,44
1035,58	0,44
1035,997	0,45
1036,415	0,45
1036,832	0,45
1037,249	0,45
1037,666	0,45
1038,083	0,45
1038,501	0,45
1038,918	0,45
1039,335	0,45
1039,752	0,45
1040,169	0,45
1040,586	0,45
1041,003	0,45
1041,419	0,45
1041,836	0,45
1042,253	0,45
1042,67	0,45
1043,087	0,45
1043,504	0,45
1043,92	0,44
1044,337	0,45
1044,754	0,44
1045,17	0,44
1045,587	0,44
1046,004	0,44
1046,42	0,44
1046,837	0,44
1047,253	0,44
1047,67	0,44
1048,086	0,44
1048,503	0,44
1048,919	0,44
1049,335	0,44
1049,752	0,44
1050,168	0,44
1050,584	0,44
1051,001	0,44
1051,417	0,44
1051,833	0,44
1052,249	0,45
1052,665	0,45
1053,081	0,45
1053,497	0,45
1053,914	0,45
1054,33	0,45
1054,746	0,45
1055,162	0,45
1055,578	0,45
1055,993	0,45
1056,409	0,45
1056,825	0,45
1057,241	0,45
1057,657	0,46
1058,073	0,46
1058,488	0,46
1058,904	0,46
1059,32	0,45
1059,736	0,45
1060,151	0,45
1060,567	0,45
1060,982	0,45
1061,398	0,45
1061,813	0,45
1062,229	0,45
1062,644	0,45
1063,06	0,45
1063,475	0,45
1063,891	0,45
1064,306	0,45
1064,721	0,45
1065,137	0,45
1065,552	0,44
1065,967	0,44
1066,382	0,44
1066,798	0,44
1067,213	0,44
1067,628	0,44
1068,043	0,44
1068,458	0,44
1068,873	0,44
1069,288	0,44
1069,703	0,44
1070,118	0,44
1070,533	0,44
1070,948	0,44
1071,363	0,44
1071,778	0,44
1072,193	0,44
1072,607	0,44
1073,022	0,44
1073,437	0,44
1073,852	0,44
1074,266	0,44
1074,681	0,44
1075,096	0,44
1075,51	0,44
1075,925	0,44
1076,339	0,44
1076,754	0,44
1077,168	0,44
1077,583	0,44
1077,997	0,44
1078,412	0,44
1078,826	0,44
1079,24	0,44
1079,655	0,44
1080,069	0,44
1080,483	0,44
1080,897	0,44
1081,312	0,44
1081,726	0,44
1082,14	0,44
1082,554	0,44
1082,968	0,44
1083,382	0,44
1083,796	0,43
1084,21	0,43
1084,624	0,43
1085,038	0,43
1085,452	0,43
1085,866	0,43
1086,28	0,43
1086,694	0,43
1087,108	0,43
1087,521	0,42
1087,935	0,42
1088,349	0,42
1088,763	0,41
1089,176	0,41
1089,59	0,41
1090,004	0,41
1090,417	0,4
1090,831	0,4
1091,244	0,39
1091,658	0,39
1092,071	0,39
1092,485	0,38
1092,898	0,38
1093,312	0,38
1093,725	0,38
1094,138	0,38
1094,552	0,37
1094,965	0,37
1095,378	0,37
1095,791	0,37
1096,205	0,36
1096,618	0,36
1097,031	0,36
1097,444	0,35
1097,857	0,35
1098,27	0,35
1098,683	0,34
1099,096	0,34
1099,509	0,34
1099,922	0,33
1100,335	0,33
1100,748	0,32
1101,161	0,31
1101,574	0,31
1101,986	0,31
1102,399	0,3
1102,812	0,3
1103,225	0,29
1103,637	0,29
1104,05	0,29
1104,463	0,29
1104,875	0,28
1105,288	0,28
1105,7	0,27
1106,113	0,27
1106,525	0,27
1106,938	0,26
1107,35	0,26
1107,763	0,26
1108,175	0,25
1108,588	0,25
1109	0,24
1109,412	0,24
1109,824	0,23
1110,237	0,23
1110,649	0,23
1111,061	0,23
