Data from 18C-808nm-8A-cont_Absorbance__432__01861.txt Node

Date: Mon Jul 17 17:34:35 CEST 2023
User: Laser008
Spectrometer: MAYP115816
Trigger mode: 0
Integration Time (sec): 2,500000E-1
Scans to average: 10
Electric dark correction enabled: true
Nonlinearity correction enabled: true
Boxcar width: 5
XAxis mode: Wavelengths
Number of Pixels in Spectrum: 2068
>>>>>Begin Spectral Data<<<<<
198,914	-0,7
199,384	-0,49
199,855	-0,36
200,325	-0,27
200,796	-0,25
201,266	-0,2
201,737	-0,18
202,207	-0,17
202,677	-0,16
203,147	-0,14
203,618	-0,12
204,088	-0,11
204,558	-0,09
205,028	-0,08
205,498	-0,09
205,968	-0,08
206,439	-0,09
206,909	-0,08
207,379	-0,09
207,849	-0,09
208,319	-0,11
208,789	-0,11
209,258	-0,11
209,728	-0,13
210,198	-0,13
210,668	-0,13
211,138	-0,12
211,608	-0,12
212,077	-0,13
212,547	-0,12
213,017	-0,12
213,486	-0,12
213,956	-0,13
214,426	-0,14
214,895	-0,13
215,365	-0,14
215,834	-0,15
216,304	-0,16
216,773	-0,16
217,243	-0,17
217,712	-0,19
218,181	-0,19
218,651	-0,19
219,12	-0,19
219,589	-0,18
220,058	-0,17
220,528	-0,18
220,997	-0,19
221,466	-0,2
221,935	-0,21
222,404	-0,21
222,873	-0,2
223,342	-0,2
223,812	-0,19
224,281	-0,19
224,749	-0,19
225,218	-0,2
225,687	-0,2
226,156	-0,19
226,625	-0,17
227,094	-0,17
227,563	-0,17
228,031	-0,18
228,5	-0,18
228,969	-0,19
229,438	-0,19
229,906	-0,18
230,375	-0,18
230,844	-0,18
231,312	-0,18
231,781	-0,19
232,249	-0,17
232,718	-0,17
233,186	-0,16
233,655	-0,17
234,123	-0,17
234,591	-0,17
235,06	-0,18
235,528	-0,18
235,996	-0,18
236,465	-0,17
236,933	-0,16
237,401	-0,17
237,869	-0,16
238,337	-0,16
238,805	-0,14
239,274	-0,13
239,742	-0,13
240,21	-0,13
240,678	-0,12
241,146	-0,11
241,614	-0,12
242,081	-0,12
242,549	-0,11
243,017	-0,12
243,485	-0,12
243,953	-0,12
244,421	-0,12
244,888	-0,13
245,356	-0,13
245,824	-0,12
246,291	-0,12
246,759	-0,13
247,227	-0,12
247,694	-0,12
248,162	-0,11
248,629	-0,1
249,097	-0,11
249,564	-0,12
250,032	-0,13
250,499	-0,13
250,967	-0,14
251,434	-0,14
251,901	-0,14
252,369	-0,15
252,836	-0,16
253,303	-0,17
253,77	-0,18
254,237	-0,17
254,705	-0,17
255,172	-0,16
255,639	-0,16
256,106	-0,17
256,573	-0,17
257,04	-0,18
257,507	-0,18
257,974	-0,19
258,441	-0,16
258,908	-0,17
259,375	-0,19
259,841	-0,2
260,308	-0,19
260,775	-0,19
261,242	-0,17
261,709	-0,18
262,175	-0,19
262,642	-0,18
263,109	-0,18
263,575	-0,2
264,042	-0,19
264,508	-0,18
264,975	-0,19
265,441	-0,21
265,908	-0,21
266,374	-0,21
266,841	-0,21
267,307	-0,21
267,773	-0,2
268,24	-0,21
268,706	-0,2
269,172	-0,21
269,639	-0,23
270,105	-0,22
270,571	-0,23
271,037	-0,22
271,503	-0,24
271,969	-0,24
272,435	-0,24
272,902	-0,25
273,368	-0,27
273,834	-0,27
274,3	-0,27
274,765	-0,26
275,231	-0,26
275,697	-0,25
276,163	-0,25
276,629	-0,25
277,095	-0,25
277,56	-0,24
278,026	-0,24
278,492	-0,22
278,958	-0,22
279,423	-0,21
279,889	-0,21
280,354	-0,22
280,82	-0,22
281,286	-0,23
281,751	-0,24
282,217	-0,23
282,682	-0,23
283,147	-0,23
283,613	-0,24
284,078	-0,24
284,544	-0,25
285,009	-0,25
285,474	-0,24
285,939	-0,25
286,405	-0,24
286,87	-0,23
287,335	-0,24
287,8	-0,23
288,265	-0,22
288,73	-0,24
289,195	-0,25
289,66	-0,25
290,125	-0,23
290,59	-0,23
291,055	-0,22
291,52	-0,21
291,985	-0,21
292,45	-0,22
292,915	-0,22
293,38	-0,23
293,844	-0,21
294,309	-0,2
294,774	-0,19
295,239	-0,21
295,703	-0,22
296,168	-0,21
296,632	-0,21
297,097	-0,2
297,562	-0,19
298,026	-0,2
298,491	-0,19
298,955	-0,19
299,419	-0,18
299,884	-0,18
300,348	-0,17
300,813	-0,17
301,277	-0,18
301,741	-0,18
302,205	-0,18
302,67	-0,17
303,134	-0,16
303,598	-0,16
304,062	-0,15
304,526	-0,14
304,99	-0,15
305,454	-0,15
305,919	-0,14
306,383	-0,14
306,847	-0,14
307,31	-0,15
307,774	-0,16
308,238	-0,15
308,702	-0,15
309,166	-0,17
309,63	-0,17
310,094	-0,15
310,557	-0,14
311,021	-0,14
311,485	-0,14
311,948	-0,14
312,412	-0,13
312,876	-0,12
313,339	-0,14
313,803	-0,13
314,266	-0,13
314,73	-0,13
315,193	-0,13
315,657	-0,12
316,12	-0,11
316,584	-0,1
317,047	-0,1
317,51	-0,09
317,973	-0,08
318,437	-0,07
318,9	-0,06
319,363	-0,06
319,826	-0,05
320,29	-0,05
320,753	-0,05
321,216	-0,05
321,679	-0,05
322,142	-0,05
322,605	-0,06
323,068	-0,06
323,531	-0,05
323,994	-0,05
324,457	-0,05
324,92	-0,03
325,382	-0,03
325,845	-0,03
326,308	-0,03
326,771	-0,02
327,233	-0,01
327,696	0
328,159	0
328,622	0,01
329,084	0,01
329,547	0,02
330,009	0,02
330,472	0,04
330,934	0,03
331,397	0,04
331,859	0,04
332,322	0,04
332,784	0,04
333,246	0,06
333,709	0,05
334,171	0,06
334,633	0,06
335,096	0,06
335,558	0,05
336,02	0,06
336,482	0,06
336,944	0,06
337,406	0,07
337,868	0,07
338,331	0,07
338,793	0,08
339,255	0,09
339,717	0,09
340,178	0,1
340,64	0,1
341,102	0,11
341,564	0,13
342,026	0,15
342,488	0,15
342,949	0,17
343,411	0,2
343,873	0,23
344,335	0,26
344,796	0,3
345,258	0,35
345,719	0,4
346,181	0,44
346,643	0,48
347,104	0,52
347,566	0,56
348,027	0,59
348,488	0,61
348,95	0,64
349,411	0,67
349,873	0,69
350,334	0,71
350,795	0,74
351,256	0,75
351,718	0,76
352,179	0,76
352,64	0,77
353,101	0,77
353,562	0,78
354,023	0,78
354,484	0,78
354,945	0,79
355,406	0,79
355,867	0,79
356,328	0,8
356,789	0,8
357,25	0,8
357,711	0,8
358,172	0,8
358,633	0,81
359,093	0,81
359,554	0,81
360,015	0,81
360,476	0,81
360,936	0,81
361,397	0,81
361,858	0,82
362,318	0,82
362,779	0,82
363,239	0,82
363,7	0,82
364,16	0,82
364,621	0,82
365,081	0,82
365,541	0,82
366,002	0,82
366,462	0,82
366,922	0,82
367,383	0,82
367,843	0,82
368,303	0,82
368,763	0,82
369,223	0,82
369,684	0,82
370,144	0,82
370,604	0,82
371,064	0,82
371,524	0,82
371,984	0,82
372,444	0,82
372,904	0,82
373,363	0,82
373,823	0,82
374,283	0,82
374,743	0,82
375,203	0,82
375,663	0,82
376,122	0,82
376,582	0,82
377,042	0,82
377,501	0,82
377,961	0,82
378,42	0,82
378,88	0,82
379,34	0,82
379,799	0,81
380,259	0,81
380,718	0,81
381,177	0,81
381,637	0,81
382,096	0,81
382,555	0,81
383,015	0,81
383,474	0,81
383,933	0,81
384,393	0,81
384,852	0,81
385,311	0,81
385,77	0,81
386,229	0,81
386,688	0,81
387,147	0,81
387,606	0,81
388,065	0,81
388,524	0,81
388,983	0,81
389,442	0,81
389,901	0,81
390,36	0,8
390,819	0,8
391,277	0,8
391,736	0,8
392,195	0,8
392,654	0,8
393,112	0,8
393,571	0,8
394,03	0,8
394,488	0,8
394,947	0,8
395,405	0,8
395,864	0,8
396,322	0,8
396,781	0,8
397,239	0,8
397,698	0,8
398,156	0,8
398,614	0,8
399,073	0,8
399,531	0,8
399,989	0,8
400,447	0,8
400,905	0,8
401,364	0,8
401,822	0,8
402,28	0,8
402,738	0,8
403,196	0,8
403,654	0,79
404,112	0,79
404,57	0,79
405,028	0,79
405,486	0,79
405,944	0,79
406,402	0,79
406,859	0,79
407,317	0,79
407,775	0,79
408,233	0,79
408,691	0,79
409,148	0,79
409,606	0,79
410,064	0,79
410,521	0,79
410,979	0,79
411,436	0,79
411,894	0,79
412,351	0,79
412,809	0,79
413,266	0,79
413,724	0,79
414,181	0,79
414,638	0,79
415,096	0,79
415,553	0,79
416,01	0,79
416,467	0,79
416,925	0,79
417,382	0,79
417,839	0,79
418,296	0,79
418,753	0,79
419,21	0,79
419,667	0,79
420,124	0,79
420,581	0,79
421,038	0,79
421,495	0,79
421,952	0,79
422,409	0,79
422,866	0,79
423,322	0,79
423,779	0,79
424,236	0,79
424,693	0,79
425,149	0,79
425,606	0,79
426,063	0,79
426,519	0,79
426,976	0,79
427,433	0,79
427,889	0,79
428,346	0,79
428,802	0,79
429,258	0,79
429,715	0,79
430,171	0,79
430,628	0,79
431,084	0,79
431,54	0,79
431,997	0,79
432,453	0,79
432,909	0,78
433,365	0,78
433,821	0,78
434,277	0,78
434,734	0,78
435,19	0,78
435,646	0,78
436,102	0,78
436,558	0,78
437,014	0,78
437,47	0,78
437,925	0,78
438,381	0,78
438,837	0,78
439,293	0,78
439,749	0,78
440,205	0,78
440,66	0,78
441,116	0,78
441,572	0,78
442,027	0,79
442,483	0,79
442,939	0,79
443,394	0,79
443,85	0,79
444,305	0,79
444,761	0,79
445,216	0,79
445,672	0,79
446,127	0,79
446,582	0,79
447,038	0,79
447,493	0,79
447,948	0,79
448,403	0,79
448,859	0,79
449,314	0,79
449,769	0,79
450,224	0,79
450,679	0,79
451,134	0,79
451,589	0,79
452,044	0,79
452,499	0,79
452,954	0,79
453,409	0,79
453,864	0,79
454,319	0,79
454,774	0,79
455,229	0,79
455,684	0,79
456,138	0,79
456,593	0,79
457,048	0,79
457,503	0,79
457,957	0,79
458,412	0,79
458,866	0,79
459,321	0,8
459,776	0,8
460,23	0,8
460,685	0,8
461,139	0,8
461,593	0,8
462,048	0,8
462,502	0,8
462,957	0,8
463,411	0,8
463,865	0,8
464,319	0,8
464,774	0,81
465,228	0,81
465,682	0,81
466,136	0,81
466,59	0,81
467,044	0,81
467,499	0,81
467,953	0,81
468,407	0,81
468,861	0,81
469,315	0,81
469,768	0,82
470,222	0,82
470,676	0,82
471,13	0,82
471,584	0,82
472,038	0,82
472,491	0,82
472,945	0,82
473,399	0,82
473,852	0,82
474,306	0,82
474,76	0,83
475,213	0,83
475,667	0,83
476,12	0,83
476,574	0,83
477,027	0,83
477,481	0,83
477,934	0,84
478,388	0,84
478,841	0,84
479,294	0,84
479,748	0,84
480,201	0,85
480,654	0,85
481,107	0,85
481,561	0,85
482,014	0,85
482,467	0,85
482,92	0,86
483,373	0,86
483,826	0,86
484,279	0,86
484,732	0,86
485,185	0,87
485,638	0,87
486,091	0,87
486,544	0,87
486,997	0,88
487,449	0,88
487,902	0,88
488,355	0,88
488,808	0,89
489,26	0,89
489,713	0,89
490,166	0,89
490,618	0,9
491,071	0,9
491,523	0,9
491,976	0,91
492,429	0,91
492,881	0,91
493,333	0,92
493,786	0,92
494,238	0,92
494,691	0,93
495,143	0,93
495,595	0,93
496,048	0,94
496,5	0,94
496,952	0,94
497,404	0,95
497,856	0,95
498,309	0,96
498,761	0,96
499,213	0,96
499,665	0,97
500,117	0,97
500,569	0,98
501,021	0,98
501,473	0,99
501,925	0,99
502,377	0,99
502,828	1
503,28	1
503,732	1,01
504,184	1,01
504,636	1,02
505,087	1,02
505,539	1,02
505,991	1,03
506,442	1,03
506,894	1,04
507,345	1,04
507,797	1,04
508,249	1,05
508,7	1,05
509,151	1,06
509,603	1,06
510,054	1,06
510,506	1,07
510,957	1,07
511,408	1,08
511,86	1,08
512,311	1,08
512,762	1,09
513,213	1,09
513,665	1,09
514,116	1,1
514,567	1,1
515,018	1,1
515,469	1,11
515,92	1,11
516,371	1,12
516,822	1,12
517,273	1,12
517,724	1,12
518,175	1,13
518,626	1,13
519,076	1,13
519,527	1,13
519,978	1,14
520,429	1,14
520,88	1,14
521,33	1,14
521,781	1,15
522,232	1,15
522,682	1,15
523,133	1,15
523,583	1,15
524,034	1,15
524,484	1,15
524,935	1,16
525,385	1,16
525,836	1,16
526,286	1,16
526,736	1,16
527,187	1,16
527,637	1,16
528,087	1,15
528,538	1,15
528,988	1,15
529,438	1,15
529,888	1,15
530,338	1,15
530,788	1,15
531,238	1,15
531,688	1,15
532,139	1,15
532,589	1,14
533,038	1,14
533,488	1,14
533,938	1,14
534,388	1,14
534,838	1,13
535,288	1,13
535,738	1,13
536,187	1,12
536,637	1,12
537,087	1,11
537,537	1,11
537,986	1,11
538,436	1,1
538,885	1,1
539,335	1,09
539,785	1,09
540,234	1,08
540,684	1,08
541,133	1,07
541,582	1,07
542,032	1,06
542,481	1,06
542,931	1,05
543,38	1,04
543,829	1,04
544,278	1,03
544,728	1,03
545,177	1,02
545,626	1,02
546,075	1,02
546,524	1,01
546,973	1,01
547,422	1
547,871	1
548,32	0,99
548,769	0,99
549,218	0,99
549,667	0,98
550,116	0,98
550,565	0,97
551,014	0,97
551,463	0,96
551,911	0,96
552,36	0,95
552,809	0,95
553,258	0,94
553,706	0,94
554,155	0,93
554,603	0,93
555,052	0,92
555,501	0,92
555,949	0,91
556,398	0,91
556,846	0,9
557,294	0,9
557,743	0,89
558,191	0,89
558,64	0,88
559,088	0,88
559,536	0,87
559,985	0,87
560,433	0,86
560,881	0,86
561,329	0,85
561,777	0,85
562,225	0,84
562,674	0,84
563,122	0,84
563,57	0,83
564,018	0,83
564,466	0,82
564,914	0,82
565,362	0,81
565,809	0,81
566,257	0,8
566,705	0,8
567,153	0,79
567,601	0,79
568,048	0,78
568,496	0,78
568,944	0,78
569,392	0,77
569,839	0,77
570,287	0,77
570,734	0,76
571,182	0,76
571,63	0,75
572,077	0,75
572,525	0,75
572,972	0,74
573,419	0,74
573,867	0,74
574,314	0,73
574,761	0,73
575,209	0,72
575,656	0,72
576,103	0,72
576,551	0,71
576,998	0,71
577,445	0,71
577,892	0,7
578,339	0,7
578,786	0,7
579,233	0,69
579,68	0,69
580,127	0,69
580,574	0,68
581,021	0,68
581,468	0,68
581,915	0,67
582,362	0,67
582,809	0,67
583,255	0,67
583,702	0,66
584,149	0,66
584,596	0,66
585,042	0,66
585,489	0,65
585,936	0,65
586,382	0,65
586,829	0,65
587,275	0,64
587,722	0,64
588,168	0,64
588,615	0,64
589,061	0,63
589,508	0,63
589,954	0,63
590,4	0,63
590,847	0,62
591,293	0,62
591,739	0,62
592,185	0,62
592,632	0,62
593,078	0,61
593,524	0,61
593,97	0,61
594,416	0,61
594,862	0,61
595,308	0,61
595,754	0,61
596,2	0,6
596,646	0,6
597,092	0,6
597,538	0,6
597,984	0,6
598,43	0,59
598,876	0,59
599,321	0,59
599,767	0,59
600,213	0,59
600,659	0,59
601,104	0,59
601,55	0,58
601,995	0,58
602,441	0,58
602,887	0,58
603,332	0,58
603,778	0,58
604,223	0,58
604,668	0,58
605,114	0,57
605,559	0,57
606,005	0,57
606,45	0,57
606,895	0,57
607,341	0,57
607,786	0,57
608,231	0,56
608,676	0,56
609,121	0,55
609,566	0,55
610,012	0,54
610,457	0,54
610,902	0,54
611,347	0,53
611,792	0,53
612,237	0,53
612,682	0,53
613,127	0,53
613,571	0,53
614,016	0,53
614,461	0,53
614,906	0,54
615,351	0,54
615,795	0,54
616,24	0,54
616,685	0,54
617,129	0,54
617,574	0,54
618,019	0,54
618,463	0,54
618,908	0,54
619,352	0,54
619,797	0,54
620,241	0,53
620,686	0,53
621,13	0,53
621,574	0,53
622,019	0,53
622,463	0,53
622,907	0,53
623,352	0,53
623,796	0,53
624,24	0,52
624,684	0,52
625,128	0,52
625,572	0,52
626,016	0,52
626,461	0,52
626,905	0,52
627,349	0,52
627,793	0,52
628,236	0,52
628,68	0,52
629,124	0,52
629,568	0,52
630,012	0,52
630,456	0,52
630,9	0,52
631,343	0,52
631,787	0,52
632,231	0,52
632,674	0,52
633,118	0,52
633,562	0,52
634,005	0,52
634,449	0,52
634,892	0,52
635,336	0,52
635,779	0,52
636,223	0,51
636,666	0,51
637,109	0,51
637,553	0,51
637,996	0,51
638,439	0,51
638,883	0,51
639,326	0,51
639,769	0,51
640,212	0,51
640,655	0,51
641,099	0,51
641,542	0,51
641,985	0,51
642,428	0,5
642,871	0,5
643,314	0,5
643,757	0,5
644,2	0,5
644,643	0,5
645,085	0,5
645,528	0,5
645,971	0,5
646,414	0,5
646,857	0,5
647,299	0,5
647,742	0,5
648,185	0,5
648,627	0,5
649,07	0,5
649,513	0,5
649,955	0,5
650,398	0,5
650,84	0,5
651,283	0,5
651,725	0,5
652,168	0,5
652,61	0,5
653,052	0,5
653,495	0,5
653,937	0,41
654,379	0,35
654,821	0,36
655,264	0,36
655,706	0,36
656,148	0,36
656,59	0,36
657,032	0,36
657,474	0,36
657,916	0,36
658,358	0,35
658,8	0,41
659,242	0,49
659,684	0,49
660,126	0,49
660,568	0,49
661,01	0,49
661,452	0,49
661,894	0,49
662,335	0,49
662,777	0,49
663,219	0,49
663,661	0,49
664,102	0,49
664,544	0,49
664,985	0,49
665,427	0,49
665,869	0,49
666,31	0,49
666,752	0,49
667,193	0,49
667,634	0,49
668,076	0,49
668,517	0,49
668,959	0,49
669,4	0,49
669,841	0,49
670,282	0,49
670,724	0,49
671,165	0,49
671,606	0,49
672,047	0,49
672,488	0,49
672,929	0,49
673,37	0,49
673,811	0,48
674,252	0,48
674,693	0,48
675,134	0,48
675,575	0,48
676,016	0,48
676,457	0,48
676,898	0,48
677,339	0,48
677,78	0,48
678,22	0,48
678,661	0,48
679,102	0,48
679,542	0,48
679,983	0,48
680,424	0,48
680,864	0,48
681,305	0,48
681,745	0,48
682,186	0,48
682,626	0,48
683,067	0,48
683,507	0,48
683,948	0,48
684,388	0,48
684,828	0,48
685,269	0,48
685,709	0,48
686,149	0,48
686,589	0,48
687,029	0,47
687,47	0,47
687,91	0,47
688,35	0,47
688,79	0,47
689,23	0,47
689,67	0,47
690,11	0,47
690,55	0,47
690,99	0,47
691,43	0,47
691,87	0,47
692,31	0,47
692,749	0,47
693,189	0,46
693,629	0,46
694,069	0,46
694,508	0,46
694,948	0,46
695,388	0,46
695,827	0,46
696,267	0,46
696,706	0,46
697,146	0,47
697,586	0,47
698,025	0,47
698,464	0,47
698,904	0,47
699,343	0,47
699,783	0,47
700,222	0,47
700,661	0,47
701,101	0,47
701,54	0,47
701,979	0,47
702,418	0,47
702,857	0,47
703,297	0,47
703,736	0,47
704,175	0,47
704,614	0,47
705,053	0,47
705,492	0,47
705,931	0,47
706,37	0,47
706,809	0,46
707,248	0,46
707,687	0,46
708,125	0,46
708,564	0,46
709,003	0,46
709,442	0,46
709,88	0,46
710,319	0,46
710,758	0,46
711,196	0,46
711,635	0,46
712,074	0,46
712,512	0,46
712,951	0,46
713,389	0,46
713,828	0,46
714,266	0,45
714,705	0,45
715,143	0,45
715,581	0,45
716,02	0,45
716,458	0,45
716,896	0,45
717,334	0,45
717,773	0,45
718,211	0,46
718,649	0,46
719,087	0,46
719,525	0,46
719,963	0,46
720,401	0,46
720,839	0,46
721,277	0,46
721,715	0,46
722,153	0,46
722,591	0,46
723,029	0,46
723,467	0,46
723,905	0,46
724,342	0,46
724,78	0,46
725,218	0,46
725,656	0,46
726,093	0,46
726,531	0,46
726,969	0,46
727,406	0,46
727,844	0,46
728,281	0,46
728,719	0,46
729,156	0,46
729,594	0,45
730,031	0,45
730,469	0,45
730,906	0,45
731,343	0,45
731,781	0,45
732,218	0,45
732,655	0,45
733,092	0,45
733,53	0,45
733,967	0,45
734,404	0,44
734,841	0,44
735,278	0,44
735,715	0,44
736,152	0,44
736,589	0,44
737,026	0,44
737,463	0,44
737,9	0,44
738,337	0,44
738,774	0,44
739,211	0,44
739,647	0,44
740,084	0,44
740,521	0,44
740,958	0,44
741,394	0,44
741,831	0,44
742,268	0,44
742,704	0,44
743,141	0,44
743,577	0,44
744,014	0,44
744,45	0,44
744,887	0,44
745,323	0,44
745,76	0,44
746,196	0,44
746,632	0,44
747,069	0,44
747,505	0,44
747,941	0,44
748,378	0,44
748,814	0,44
749,25	0,44
749,686	0,44
750,122	0,44
750,558	0,44
750,994	0,44
751,43	0,44
751,866	0,44
752,302	0,44
752,738	0,44
753,174	0,44
753,61	0,44
754,046	0,44
754,482	0,44
754,918	0,44
755,354	0,44
755,789	0,44
756,225	0,44
756,661	0,44
757,096	0,44
757,532	0,44
757,968	0,43
758,403	0,43
758,839	0,43
759,274	0,43
759,71	0,42
760,145	0,41
760,581	0,41
761,016	0,4
761,452	0,4
761,887	0,39
762,322	0,39
762,758	0,39
763,193	0,38
763,628	0,37
764,063	0,37
764,499	0,36
764,934	0,35
765,369	0,35
765,804	0,34
766,239	0,33
766,674	0,32
767,109	0,32
767,544	0,31
767,979	0,3
768,414	0,29
768,849	0,28
769,284	0,27
769,719	0,26
770,154	0,26
770,588	0,25
771,023	0,24
771,458	0,23
771,893	0,21
772,327	0,2
772,762	0,18
773,197	0,17
773,631	0,16
774,066	0,15
774,5	0,15
774,935	0,13
775,369	0,12
775,804	0,11
776,238	0,1
776,673	0,09
777,107	0,09
777,541	0,08
777,976	0,07
778,41	0,06
778,844	0,05
779,279	0,05
779,713	0,04
780,147	0,03
780,581	0,02
781,015	0,01
781,449	-0
781,883	-0,01
782,317	-0,03
782,751	-0,04
783,185	-0,04
783,619	-0,05
784,053	-0,06
784,487	-0,07
784,921	-0,08
785,355	-0,08
785,789	-0,1
786,223	-0,1
786,656	-0,11
787,09	-0,13
787,524	-0,13
787,957	-0,15
788,391	-0,17
788,825	-0,19
789,258	-0,2
789,692	-0,21
790,125	-0,23
790,559	-0,24
790,992	-0,26
791,426	-0,29
791,859	-0,3
792,293	-0,33
792,726	-0,34
793,159	-0,36
793,593	-0,38
794,026	-0,4
794,459	-0,43
794,892	-0,46
795,326	-0,48
795,759	-0,52
796,192	-0,56
796,625	-0,61
797,058	-0,63
797,491	-0,67
797,924	-0,71
798,357	-0,76
798,79	-0,8
799,223	-0,84
799,656	-0,9
800,089	-0,95
800,522	-0,99
800,955	-1,03
801,387	-1,09
801,82	-1,14
802,253	-1,2
802,686	-1,28
803,118	-1,34
803,551	-1,39
803,984	-1,43
804,416	-1,47
804,849	-1,5
805,281	-1,63
805,714	-2
806,146	-2,46
806,579	-2,71
807,011	-2,87
807,444	-2,97
807,876	-3,05
808,308	-3,08
808,741	-3,11
809,173	-3,16
809,605	-3,18
810,037	-3,26
810,47	-3,17
810,902	-2,97
811,334	-2,82
811,766	-2,66
812,198	-2,4
812,63	-1,98
813,062	-1,77
813,494	-1,68
813,926	-1,59
814,358	-1,54
814,79	-1,46
815,222	-1,4
815,654	-1,35
816,086	-1,29
816,518	-1,24
816,949	-1,19
817,381	-1,14
817,813	-1,12
818,245	-1,08
818,676	-1,05
819,108	-1,01
819,54	-1
819,971	-0,98
820,403	-0,93
820,834	-0,91
821,266	-0,87
821,697	-0,85
822,129	-0,84
822,56	-0,82
822,991	-0,8
823,423	-0,77
823,854	-0,76
824,286	-0,74
824,717	-0,73
825,148	-0,71
825,579	-0,71
826,01	-0,69
826,442	-0,69
826,873	-0,67
827,304	-0,63
827,735	-0,62
828,166	-0,63
828,597	-0,63
829,028	-0,62
829,459	-0,63
829,89	-0,63
830,321	-0,58
830,752	-0,58
831,183	-0,57
831,613	-0,57
832,044	-0,56
832,475	-0,56
832,906	-0,57
833,336	-0,58
833,767	-0,59
834,198	-0,58
834,628	-0,56
835,059	-0,58
835,49	-0,59
835,92	-0,57
836,351	-0,56
836,781	-0,57
837,212	-0,58
837,642	-0,58
838,072	-0,55
838,503	-0,56
838,933	-0,53
839,364	-0,55
839,794	-0,54
840,224	-0,53
840,654	-0,57
841,085	-0,58
841,515	-0,54
841,945	-0,54
842,375	-0,5
842,805	-0,49
843,235	-0,48
843,665	-0,5
844,095	-0,48
844,525	-0,49
844,955	-0,5
845,385	-0,47
845,815	-0,46
846,245	-0,49
846,675	-0,5
847,105	-0,52
847,534	-0,52
847,964	-0,5
848,394	-0,48
848,824	-0,52
849,253	-0,51
849,683	-0,51
850,112	-0,52
850,542	-0,55
850,972	-0,56
851,401	-0,54
851,831	-0,52
852,26	-0,53
852,69	-0,56
853,119	-0,55
853,548	-0,55
853,978	-0,56
854,407	-0,55
854,836	-0,56
855,266	-0,54
855,695	-0,55
856,124	-0,56
856,553	-0,58
856,983	-0,59
857,412	-0,6
857,841	-0,61
858,27	-0,61
858,699	-0,62
859,128	-0,64
859,557	-0,64
859,986	-0,65
860,415	-0,63
860,844	-0,61
861,273	-0,61
861,702	-0,62
862,13	-0,6
862,559	-0,62
862,988	-0,59
863,417	-0,58
863,845	-0,57
864,274	-0,58
864,703	-0,59
865,131	-0,59
865,56	-0,6
865,989	-0,63
866,417	-0,59
866,846	-0,59
867,274	-0,59
867,703	-0,61
868,131	-0,61
868,559	-0,62
868,988	-0,63
869,416	-0,61
869,844	-0,62
870,273	-0,65
870,701	-0,63
871,129	-0,67
871,557	-0,69
871,986	-0,69
872,414	-0,71
872,842	-0,67
873,27	-0,65
873,698	-0,62
874,126	-0,67
874,554	-0,66
874,982	-0,65
875,41	-0,68
875,838	-0,63
876,266	-0,6
876,694	-0,61
877,122	-0,6
877,549	-0,66
877,977	-0,63
878,405	-0,66
878,833	-0,62
879,26	-0,59
879,688	-0,6
880,116	-0,58
880,543	-0,57
880,971	-0,56
881,399	-0,58
881,826	-0,6
882,254	-0,57
882,681	-0,61
883,109	-0,57
883,536	-0,58
883,963	-0,61
884,391	-0,59
884,818	-0,57
885,245	-0,61
885,673	-0,63
886,1	-0,6
886,527	-0,59
886,954	-0,56
887,381	-0,57
887,809	-0,58
888,236	-0,6
888,663	-0,6
889,09	-0,65
889,517	-0,66
889,944	-0,66
890,371	-0,64
890,798	-0,65
891,225	-0,65
891,652	-0,68
892,078	-0,66
892,505	-0,69
892,932	-0,64
893,359	-0,64
893,786	-0,64
894,212	-0,61
894,639	-0,63
895,066	-0,65
895,492	-0,59
895,919	-0,6
896,346	-0,59
896,772	-0,61
897,199	-0,58
897,625	-0,61
898,052	-0,58
898,478	-0,56
898,904	-0,57
899,331	-0,56
899,757	-0,58
900,183	-0,61
900,61	-0,59
901,036	-0,59
901,462	-0,58
901,888	-0,57
902,315	-0,55
902,741	-0,61
903,167	-0,6
903,593	-0,62
904,019	-0,6
904,445	-0,57
904,871	-0,6
905,297	-0,62
905,723	-0,61
906,149	-0,61
906,575	-0,61
907,001	-0,62
907,427	-0,58
907,852	-0,58
908,278	-0,59
908,704	-0,57
909,13	-0,57
909,555	-0,56
909,981	-0,56
910,407	-0,55
910,832	-0,55
911,258	-0,55
911,684	-0,55
912,109	-0,55
912,535	-0,56
912,96	-0,52
913,386	-0,56
913,811	-0,56
914,236	-0,57
914,662	-0,56
915,087	-0,6
915,512	-0,6
915,938	-0,62
916,363	-0,62
916,788	-0,63
917,213	-0,6
917,639	-0,65
918,064	-0,61
918,489	-0,61
918,914	-0,62
919,339	-0,63
919,764	-0,6
920,189	-0,6
920,614	-0,62
921,039	-0,62
921,464	-0,58
921,889	-0,61
922,314	-0,63
922,738	-0,67
923,163	-0,68
923,588	-0,67
924,013	-0,66
924,437	-0,66
924,862	-0,68
925,287	-0,63
925,711	-0,64
926,136	-0,66
926,561	-0,64
926,985	-0,62
927,41	-0,59
927,834	-0,57
928,259	-0,54
928,683	-0,53
929,108	-0,49
929,532	-0,5
929,956	-0,49
930,381	-0,48
930,805	-0,48
931,229	-0,47
931,653	-0,47
932,078	-0,46
932,502	-0,47
932,926	-0,49
933,35	-0,48
933,774	-0,47
934,198	-0,45
934,622	-0,44
935,046	-0,45
935,47	-0,46
935,894	-0,45
936,318	-0,45
936,742	-0,45
937,166	-0,45
937,59	-0,44
938,014	-0,47
938,437	-0,49
938,861	-0,51
939,285	-0,53
939,709	-0,52
940,132	-0,52
940,556	-0,54
940,98	-0,54
941,403	-0,52
941,827	-0,52
942,25	-0,53
942,674	-0,51
943,097	-0,5
943,521	-0,5
943,944	-0,51
944,368	-0,5
944,791	-0,49
945,214	-0,51
945,638	-0,51
946,061	-0,55
946,484	-0,55
946,907	-0,54
947,331	-0,54
947,754	-0,59
948,177	-0,55
948,6	-0,55
949,023	-0,56
949,446	-0,55
949,869	-0,54
950,292	-0,53
950,715	-0,5
951,138	-0,49
951,561	-0,46
951,984	-0,47
952,407	-0,46
952,83	-0,45
953,252	-0,4
953,675	-0,4
954,098	-0,4
954,521	-0,38
954,943	-0,38
955,366	-0,38
955,789	-0,36
956,211	-0,39
956,634	-0,39
957,056	-0,37
957,479	-0,38
957,902	-0,41
958,324	-0,42
958,746	-0,41
959,169	-0,42
959,591	-0,42
960,014	-0,44
960,436	-0,43
960,858	-0,42
961,281	-0,42
961,703	-0,43
962,125	-0,43
962,547	-0,41
962,969	-0,41
963,391	-0,42
963,814	-0,42
964,236	-0,41
964,658	-0,39
965,08	-0,4
965,502	-0,39
965,924	-0,36
966,346	-0,36
966,768	-0,35
967,189	-0,37
967,611	-0,36
968,033	-0,36
968,455	-0,35
968,877	-0,35
969,298	-0,36
969,72	-0,37
970,142	-0,36
970,563	-0,36
970,985	-0,34
971,407	-0,33
971,828	-0,3
972,25	-0,29
972,671	-0,28
973,093	-0,27
973,514	-0,26
973,936	-0,23
974,357	-0,22
974,778	-0,22
975,2	-0,22
975,621	-0,21
976,042	-0,2
976,464	-0,2
976,885	-0,19
977,306	-0,18
977,727	-0,17
978,148	-0,16
978,57	-0,15
978,991	-0,13
979,412	-0,12
979,833	-0,11
980,254	-0,11
980,675	-0,11
981,096	-0,1
981,517	-0,08
981,937	-0,08
982,358	-0,06
982,779	-0,05
983,2	-0,04
983,621	-0,04
984,042	-0,02
984,462	-0,01
984,883	0,01
985,304	0,03
985,724	0,04
986,145	0,05
986,565	0,07
986,986	0,08
987,407	0,1
987,827	0,11
988,248	0,13
988,668	0,14
989,088	0,15
989,509	0,16
989,929	0,17
990,35	0,19
990,77	0,2
991,19	0,21
991,61	0,22
992,031	0,23
992,451	0,24
992,871	0,24
993,291	0,25
993,711	0,26
994,131	0,27
994,551	0,28
994,971	0,28
995,391	0,29
995,811	0,3
996,231	0,3
996,651	0,31
997,071	0,32
997,491	0,33
997,911	0,34
998,331	0,35
998,75	0,35
999,17	0,36
999,59	0,37
1000,009	0,37
1000,429	0,38
1000,849	0,39
1001,268	0,39
1001,688	0,4
1002,107	0,4
1002,527	0,4
1002,946	0,41
1003,366	0,41
1003,785	0,42
1004,205	0,42
1004,624	0,42
1005,044	0,43
1005,463	0,43
1005,882	0,43
1006,301	0,43
1006,721	0,43
1007,14	0,43
1007,559	0,44
1007,978	0,44
1008,397	0,44
1008,816	0,44
1009,235	0,44
1009,655	0,44
1010,074	0,44
1010,492	0,44
1010,911	0,44
1011,33	0,44
1011,749	0,43
1012,168	0,43
1012,587	0,43
1013,006	0,43
1013,425	0,43
1013,843	0,43
1014,262	0,43
1014,681	0,43
1015,099	0,43
1015,518	0,43
1015,937	0,43
1016,355	0,43
1016,774	0,43
1017,192	0,43
1017,611	0,43
1018,029	0,43
1018,448	0,43
1018,866	0,43
1019,285	0,43
1019,703	0,42
1020,121	0,42
1020,54	0,42
1020,958	0,42
1021,376	0,42
1021,794	0,42
1022,213	0,42
1022,631	0,42
1023,049	0,42
1023,467	0,42
1023,885	0,42
1024,303	0,42
1024,721	0,42
1025,139	0,42
1025,557	0,42
1025,975	0,42
1026,393	0,42
1026,811	0,41
1027,229	0,41
1027,647	0,41
1028,065	0,41
1028,482	0,41
1028,9	0,41
1029,318	0,41
1029,735	0,41
1030,153	0,41
1030,571	0,41
1030,988	0,41
1031,406	0,41
1031,823	0,41
1032,241	0,41
1032,659	0,41
1033,076	0,41
1033,493	0,41
1033,911	0,41
1034,328	0,41
1034,746	0,41
1035,163	0,42
1035,58	0,41
1035,997	0,42
1036,415	0,42
1036,832	0,42
1037,249	0,42
1037,666	0,42
1038,083	0,42
1038,501	0,42
1038,918	0,42
1039,335	0,42
1039,752	0,42
1040,169	0,42
1040,586	0,42
1041,003	0,42
1041,419	0,42
1041,836	0,42
1042,253	0,42
1042,67	0,42
1043,087	0,42
1043,504	0,42
1043,92	0,41
1044,337	0,41
1044,754	0,41
1045,17	0,41
1045,587	0,41
1046,004	0,41
1046,42	0,41
1046,837	0,41
1047,253	0,41
1047,67	0,41
1048,086	0,41
1048,503	0,41
1048,919	0,41
1049,335	0,41
1049,752	0,41
1050,168	0,41
1050,584	0,41
1051,001	0,41
1051,417	0,41
1051,833	0,41
1052,249	0,41
1052,665	0,41
1053,081	0,42
1053,497	0,42
1053,914	0,42
1054,33	0,42
1054,746	0,42
1055,162	0,42
1055,578	0,42
1055,993	0,42
1056,409	0,42
1056,825	0,42
1057,241	0,42
1057,657	0,42
1058,073	0,42
1058,488	0,42
1058,904	0,42
1059,32	0,42
1059,736	0,42
1060,151	0,42
1060,567	0,42
1060,982	0,42
1061,398	0,42
1061,813	0,42
1062,229	0,42
1062,644	0,42
1063,06	0,42
1063,475	0,42
1063,891	0,42
1064,306	0,42
1064,721	0,42
1065,137	0,42
1065,552	0,42
1065,967	0,42
1066,382	0,42
1066,798	0,42
1067,213	0,42
1067,628	0,42
1068,043	0,42
1068,458	0,42
1068,873	0,42
1069,288	0,42
1069,703	0,42
1070,118	0,42
1070,533	0,42
1070,948	0,42
1071,363	0,42
1071,778	0,42
1072,193	0,42
1072,607	0,42
1073,022	0,42
1073,437	0,42
1073,852	0,42
1074,266	0,42
1074,681	0,42
1075,096	0,42
1075,51	0,42
1075,925	0,42
1076,339	0,42
1076,754	0,42
1077,168	0,42
1077,583	0,41
1077,997	0,41
1078,412	0,41
1078,826	0,41
1079,24	0,41
1079,655	0,41
1080,069	0,41
1080,483	0,41
1080,897	0,41
1081,312	0,41
1081,726	0,41
1082,14	0,41
1082,554	0,41
1082,968	0,41
1083,382	0,4
1083,796	0,4
1084,21	0,4
1084,624	0,4
1085,038	0,4
1085,452	0,4
1085,866	0,4
1086,28	0,39
1086,694	0,39
1087,108	0,39
1087,521	0,39
1087,935	0,39
1088,349	0,39
1088,763	0,39
1089,176	0,38
1089,59	0,38
1090,004	0,38
1090,417	0,37
1090,831	0,37
1091,244	0,37
1091,658	0,36
1092,071	0,36
1092,485	0,36
1092,898	0,35
1093,312	0,35
1093,725	0,35
1094,138	0,35
1094,552	0,34
1094,965	0,34
1095,378	0,34
1095,791	0,34
1096,205	0,34
1096,618	0,33
1097,031	0,33
1097,444	0,33
1097,857	0,32
1098,27	0,32
1098,683	0,32
1099,096	0,31
1099,509	0,31
1099,922	0,3
1100,335	0,3
1100,748	0,29
1101,161	0,29
1101,574	0,28
1101,986	0,28
1102,399	0,27
1102,812	0,27
1103,225	0,26
1103,637	0,26
1104,05	0,25
1104,463	0,26
1104,875	0,25
1105,288	0,25
1105,7	0,24
1106,113	0,24
1106,525	0,24
1106,938	0,23
1107,35	0,23
1107,763	0,22
1108,175	0,22
1108,588	0,22
1109	0,21
1109,412	0,21
1109,824	0,21
1110,237	0,21
1110,649	0,21
1111,061	0,21
