Data from 18C-808nm-8A-cont_Absorbance__617__02046.txt Node

Date: Mon Jul 17 17:42:18 CEST 2023
User: Laser008
Spectrometer: MAYP115816
Trigger mode: 0
Integration Time (sec): 2,500000E-1
Scans to average: 10
Electric dark correction enabled: true
Nonlinearity correction enabled: true
Boxcar width: 5
XAxis mode: Wavelengths
Number of Pixels in Spectrum: 2068
>>>>>Begin Spectral Data<<<<<
198,914	-0,67
199,384	-0,43
199,855	-0,29
200,325	-0,22
200,796	-0,2
201,266	-0,17
201,737	-0,15
202,207	-0,14
202,677	-0,14
203,147	-0,13
203,618	-0,1
204,088	-0,1
204,558	-0,09
205,028	-0,09
205,498	-0,1
205,968	-0,09
206,439	-0,11
206,909	-0,1
207,379	-0,11
207,849	-0,1
208,319	-0,11
208,789	-0,11
209,258	-0,1
209,728	-0,11
210,198	-0,11
210,668	-0,11
211,138	-0,1
211,608	-0,1
212,077	-0,1
212,547	-0,1
213,017	-0,11
213,486	-0,1
213,956	-0,11
214,426	-0,12
214,895	-0,12
215,365	-0,13
215,834	-0,13
216,304	-0,14
216,773	-0,15
217,243	-0,16
217,712	-0,17
218,181	-0,16
218,651	-0,16
219,12	-0,16
219,589	-0,16
220,058	-0,15
220,528	-0,17
220,997	-0,17
221,466	-0,18
221,935	-0,18
222,404	-0,17
222,873	-0,16
223,342	-0,16
223,812	-0,17
224,281	-0,17
224,749	-0,17
225,218	-0,18
225,687	-0,19
226,156	-0,18
226,625	-0,16
227,094	-0,16
227,563	-0,17
228,031	-0,18
228,5	-0,18
228,969	-0,19
229,438	-0,18
229,906	-0,16
230,375	-0,16
230,844	-0,15
231,312	-0,15
231,781	-0,16
232,249	-0,15
232,718	-0,15
233,186	-0,13
233,655	-0,13
234,123	-0,12
234,591	-0,13
235,06	-0,14
235,528	-0,14
235,996	-0,13
236,465	-0,13
236,933	-0,12
237,401	-0,13
237,869	-0,12
238,337	-0,13
238,805	-0,12
239,274	-0,12
239,742	-0,11
240,21	-0,12
240,678	-0,11
241,146	-0,1
241,614	-0,1
242,081	-0,09
242,549	-0,09
243,017	-0,1
243,485	-0,09
243,953	-0,1
244,421	-0,09
244,888	-0,09
245,356	-0,09
245,824	-0,08
246,291	-0,09
246,759	-0,1
247,227	-0,11
247,694	-0,09
248,162	-0,08
248,629	-0,08
249,097	-0,08
249,564	-0,09
250,032	-0,1
250,499	-0,1
250,967	-0,1
251,434	-0,11
251,901	-0,1
252,369	-0,1
252,836	-0,12
253,303	-0,14
253,77	-0,15
254,237	-0,15
254,705	-0,15
255,172	-0,14
255,639	-0,15
256,106	-0,17
256,573	-0,16
257,04	-0,17
257,507	-0,17
257,974	-0,17
258,441	-0,15
258,908	-0,15
259,375	-0,17
259,841	-0,18
260,308	-0,18
260,775	-0,17
261,242	-0,16
261,709	-0,17
262,175	-0,17
262,642	-0,16
263,109	-0,17
263,575	-0,17
264,042	-0,16
264,508	-0,15
264,975	-0,17
265,441	-0,18
265,908	-0,19
266,374	-0,18
266,841	-0,18
267,307	-0,18
267,773	-0,17
268,24	-0,18
268,706	-0,19
269,172	-0,2
269,639	-0,21
270,105	-0,18
270,571	-0,18
271,037	-0,18
271,503	-0,2
271,969	-0,19
272,435	-0,2
272,902	-0,22
273,368	-0,23
273,834	-0,22
274,3	-0,23
274,765	-0,23
275,231	-0,24
275,697	-0,23
276,163	-0,23
276,629	-0,22
277,095	-0,23
277,56	-0,22
278,026	-0,22
278,492	-0,21
278,958	-0,21
279,423	-0,21
279,889	-0,19
280,354	-0,19
280,82	-0,2
281,286	-0,21
281,751	-0,22
282,217	-0,2
282,682	-0,2
283,147	-0,2
283,613	-0,2
284,078	-0,21
284,544	-0,21
285,009	-0,22
285,474	-0,22
285,939	-0,22
286,405	-0,21
286,87	-0,2
287,335	-0,21
287,8	-0,2
288,265	-0,18
288,73	-0,19
289,195	-0,2
289,66	-0,2
290,125	-0,18
290,59	-0,19
291,055	-0,18
291,52	-0,18
291,985	-0,19
292,45	-0,2
292,915	-0,2
293,38	-0,22
293,844	-0,21
294,309	-0,2
294,774	-0,19
295,239	-0,2
295,703	-0,21
296,168	-0,2
296,632	-0,2
297,097	-0,19
297,562	-0,18
298,026	-0,18
298,491	-0,18
298,955	-0,18
299,419	-0,17
299,884	-0,17
300,348	-0,15
300,813	-0,14
301,277	-0,15
301,741	-0,14
302,205	-0,14
302,67	-0,13
303,134	-0,13
303,598	-0,12
304,062	-0,11
304,526	-0,1
304,99	-0,12
305,454	-0,12
305,919	-0,12
306,383	-0,12
306,847	-0,12
307,31	-0,14
307,774	-0,15
308,238	-0,14
308,702	-0,14
309,166	-0,16
309,63	-0,16
310,094	-0,13
310,557	-0,13
311,021	-0,12
311,485	-0,11
311,948	-0,11
312,412	-0,09
312,876	-0,08
313,339	-0,09
313,803	-0,09
314,266	-0,08
314,73	-0,09
315,193	-0,09
315,657	-0,08
316,12	-0,09
316,584	-0,07
317,047	-0,07
317,51	-0,05
317,973	-0,06
318,437	-0,05
318,9	-0,04
319,363	-0,03
319,826	-0,02
320,29	-0,03
320,753	-0,04
321,216	-0,04
321,679	-0,04
322,142	-0,04
322,605	-0,05
323,068	-0,05
323,531	-0,05
323,994	-0,04
324,457	-0,04
324,92	-0,03
325,382	-0,03
325,845	-0,02
326,308	-0,01
326,771	-0
327,233	-0
327,696	0,01
328,159	0,02
328,622	0,02
329,084	0,01
329,547	0,02
330,009	0,03
330,472	0,04
330,934	0,04
331,397	0,04
331,859	0,05
332,322	0,05
332,784	0,05
333,246	0,07
333,709	0,07
334,171	0,07
334,633	0,07
335,096	0,07
335,558	0,07
336,02	0,07
336,482	0,07
336,944	0,07
337,406	0,08
337,868	0,09
338,331	0,08
338,793	0,09
339,255	0,1
339,717	0,1
340,178	0,12
340,64	0,13
341,102	0,14
341,564	0,15
342,026	0,16
342,488	0,18
342,949	0,19
343,411	0,22
343,873	0,25
344,335	0,29
344,796	0,33
345,258	0,37
345,719	0,42
346,181	0,47
346,643	0,52
347,104	0,56
347,566	0,59
348,027	0,62
348,488	0,65
348,95	0,67
349,411	0,7
349,873	0,72
350,334	0,75
350,795	0,77
351,256	0,78
351,718	0,79
352,179	0,8
352,64	0,81
353,101	0,81
353,562	0,82
354,023	0,82
354,484	0,82
354,945	0,83
355,406	0,83
355,867	0,83
356,328	0,84
356,789	0,85
357,25	0,85
357,711	0,85
358,172	0,85
358,633	0,86
359,093	0,86
359,554	0,86
360,015	0,86
360,476	0,86
360,936	0,86
361,397	0,86
361,858	0,86
362,318	0,86
362,779	0,86
363,239	0,86
363,7	0,86
364,16	0,86
364,621	0,86
365,081	0,86
365,541	0,86
366,002	0,86
366,462	0,86
366,922	0,86
367,383	0,86
367,843	0,86
368,303	0,86
368,763	0,86
369,223	0,86
369,684	0,86
370,144	0,86
370,604	0,86
371,064	0,86
371,524	0,86
371,984	0,86
372,444	0,86
372,904	0,86
373,363	0,86
373,823	0,86
374,283	0,86
374,743	0,86
375,203	0,86
375,663	0,86
376,122	0,86
376,582	0,86
377,042	0,86
377,501	0,86
377,961	0,86
378,42	0,86
378,88	0,86
379,34	0,86
379,799	0,86
380,259	0,86
380,718	0,86
381,177	0,86
381,637	0,85
382,096	0,85
382,555	0,85
383,015	0,85
383,474	0,85
383,933	0,85
384,393	0,85
384,852	0,85
385,311	0,85
385,77	0,85
386,229	0,85
386,688	0,85
387,147	0,85
387,606	0,85
388,065	0,85
388,524	0,85
388,983	0,85
389,442	0,85
389,901	0,85
390,36	0,85
390,819	0,85
391,277	0,85
391,736	0,85
392,195	0,85
392,654	0,85
393,112	0,85
393,571	0,84
394,03	0,84
394,488	0,84
394,947	0,84
395,405	0,84
395,864	0,84
396,322	0,84
396,781	0,84
397,239	0,84
397,698	0,84
398,156	0,84
398,614	0,84
399,073	0,84
399,531	0,84
399,989	0,84
400,447	0,84
400,905	0,84
401,364	0,84
401,822	0,84
402,28	0,84
402,738	0,84
403,196	0,84
403,654	0,84
404,112	0,84
404,57	0,84
405,028	0,84
405,486	0,84
405,944	0,84
406,402	0,84
406,859	0,84
407,317	0,84
407,775	0,84
408,233	0,84
408,691	0,84
409,148	0,84
409,606	0,83
410,064	0,83
410,521	0,83
410,979	0,83
411,436	0,83
411,894	0,83
412,351	0,83
412,809	0,83
413,266	0,83
413,724	0,83
414,181	0,83
414,638	0,83
415,096	0,83
415,553	0,83
416,01	0,83
416,467	0,83
416,925	0,83
417,382	0,83
417,839	0,83
418,296	0,83
418,753	0,83
419,21	0,83
419,667	0,83
420,124	0,83
420,581	0,83
421,038	0,83
421,495	0,83
421,952	0,83
422,409	0,83
422,866	0,83
423,322	0,83
423,779	0,83
424,236	0,83
424,693	0,83
425,149	0,83
425,606	0,83
426,063	0,83
426,519	0,83
426,976	0,83
427,433	0,83
427,889	0,83
428,346	0,83
428,802	0,83
429,258	0,83
429,715	0,83
430,171	0,83
430,628	0,83
431,084	0,83
431,54	0,83
431,997	0,83
432,453	0,83
432,909	0,83
433,365	0,83
433,821	0,82
434,277	0,82
434,734	0,82
435,19	0,82
435,646	0,82
436,102	0,82
436,558	0,82
437,014	0,82
437,47	0,82
437,925	0,82
438,381	0,82
438,837	0,83
439,293	0,83
439,749	0,83
440,205	0,83
440,66	0,83
441,116	0,83
441,572	0,83
442,027	0,83
442,483	0,83
442,939	0,83
443,394	0,83
443,85	0,83
444,305	0,83
444,761	0,83
445,216	0,83
445,672	0,83
446,127	0,83
446,582	0,83
447,038	0,83
447,493	0,83
447,948	0,83
448,403	0,83
448,859	0,83
449,314	0,83
449,769	0,83
450,224	0,83
450,679	0,83
451,134	0,83
451,589	0,83
452,044	0,83
452,499	0,83
452,954	0,84
453,409	0,84
453,864	0,84
454,319	0,84
454,774	0,84
455,229	0,84
455,684	0,84
456,138	0,84
456,593	0,84
457,048	0,84
457,503	0,84
457,957	0,84
458,412	0,84
458,866	0,84
459,321	0,84
459,776	0,84
460,23	0,84
460,685	0,84
461,139	0,84
461,593	0,84
462,048	0,84
462,502	0,85
462,957	0,85
463,411	0,85
463,865	0,85
464,319	0,85
464,774	0,85
465,228	0,85
465,682	0,85
466,136	0,85
466,59	0,85
467,044	0,85
467,499	0,86
467,953	0,86
468,407	0,86
468,861	0,86
469,315	0,86
469,768	0,86
470,222	0,86
470,676	0,86
471,13	0,86
471,584	0,86
472,038	0,86
472,491	0,87
472,945	0,87
473,399	0,87
473,852	0,87
474,306	0,87
474,76	0,87
475,213	0,87
475,667	0,87
476,12	0,88
476,574	0,88
477,027	0,88
477,481	0,88
477,934	0,88
478,388	0,89
478,841	0,89
479,294	0,89
479,748	0,89
480,201	0,89
480,654	0,89
481,107	0,9
481,561	0,9
482,014	0,9
482,467	0,9
482,92	0,9
483,373	0,9
483,826	0,91
484,279	0,91
484,732	0,91
485,185	0,91
485,638	0,92
486,091	0,92
486,544	0,92
486,997	0,92
487,449	0,93
487,902	0,93
488,355	0,93
488,808	0,94
489,26	0,94
489,713	0,94
490,166	0,94
490,618	0,95
491,071	0,95
491,523	0,95
491,976	0,96
492,429	0,96
492,881	0,96
493,333	0,96
493,786	0,97
494,238	0,97
494,691	0,98
495,143	0,98
495,595	0,99
496,048	0,99
496,5	0,99
496,952	1
497,404	1
497,856	1,01
498,309	1,01
498,761	1,01
499,213	1,02
499,665	1,02
500,117	1,03
500,569	1,03
501,021	1,04
501,473	1,04
501,925	1,04
502,377	1,05
502,828	1,05
503,28	1,06
503,732	1,06
504,184	1,06
504,636	1,07
505,087	1,07
505,539	1,08
505,991	1,08
506,442	1,09
506,894	1,09
507,345	1,1
507,797	1,1
508,249	1,11
508,7	1,11
509,151	1,12
509,603	1,12
510,054	1,12
510,506	1,13
510,957	1,13
511,408	1,14
511,86	1,14
512,311	1,14
512,762	1,15
513,213	1,15
513,665	1,15
514,116	1,16
514,567	1,16
515,018	1,16
515,469	1,17
515,92	1,17
516,371	1,18
516,822	1,18
517,273	1,18
517,724	1,18
518,175	1,19
518,626	1,19
519,076	1,19
519,527	1,2
519,978	1,2
520,429	1,2
520,88	1,2
521,33	1,2
521,781	1,21
522,232	1,21
522,682	1,21
523,133	1,21
523,583	1,21
524,034	1,22
524,484	1,22
524,935	1,22
525,385	1,22
525,836	1,22
526,286	1,22
526,736	1,22
527,187	1,22
527,637	1,22
528,087	1,22
528,538	1,22
528,988	1,21
529,438	1,21
529,888	1,21
530,338	1,21
530,788	1,21
531,238	1,21
531,688	1,21
532,139	1,2
532,589	1,2
533,038	1,2
533,488	1,2
533,938	1,2
534,388	1,19
534,838	1,19
535,288	1,19
535,738	1,19
536,187	1,18
536,637	1,18
537,087	1,17
537,537	1,17
537,986	1,16
538,436	1,16
538,885	1,15
539,335	1,15
539,785	1,14
540,234	1,13
540,684	1,13
541,133	1,12
541,582	1,12
542,032	1,11
542,481	1,11
542,931	1,1
543,38	1,1
543,829	1,09
544,278	1,08
544,728	1,08
545,177	1,07
545,626	1,07
546,075	1,06
546,524	1,06
546,973	1,05
547,422	1,05
547,871	1,04
548,32	1,04
548,769	1,04
549,218	1,03
549,667	1,03
550,116	1,03
550,565	1,02
551,014	1,02
551,463	1,01
551,911	1,01
552,36	1
552,809	1
553,258	0,99
553,706	0,99
554,155	0,98
554,603	0,98
555,052	0,97
555,501	0,97
555,949	0,96
556,398	0,95
556,846	0,95
557,294	0,94
557,743	0,94
558,191	0,93
558,64	0,92
559,088	0,92
559,536	0,91
559,985	0,91
560,433	0,9
560,881	0,9
561,329	0,89
561,777	0,89
562,225	0,88
562,674	0,88
563,122	0,87
563,57	0,87
564,018	0,86
564,466	0,86
564,914	0,85
565,362	0,85
565,809	0,85
566,257	0,84
566,705	0,84
567,153	0,83
567,601	0,83
568,048	0,82
568,496	0,82
568,944	0,81
569,392	0,81
569,839	0,8
570,287	0,8
570,734	0,8
571,182	0,79
571,63	0,79
572,077	0,78
572,525	0,78
572,972	0,77
573,419	0,77
573,867	0,77
574,314	0,76
574,761	0,76
575,209	0,75
575,656	0,75
576,103	0,75
576,551	0,74
576,998	0,74
577,445	0,74
577,892	0,73
578,339	0,73
578,786	0,73
579,233	0,72
579,68	0,72
580,127	0,71
580,574	0,71
581,021	0,71
581,468	0,71
581,915	0,7
582,362	0,7
582,809	0,7
583,255	0,69
583,702	0,69
584,149	0,69
584,596	0,69
585,042	0,68
585,489	0,68
585,936	0,67
586,382	0,67
586,829	0,67
587,275	0,67
587,722	0,67
588,168	0,66
588,615	0,66
589,061	0,66
589,508	0,66
589,954	0,65
590,4	0,65
590,847	0,65
591,293	0,65
591,739	0,64
592,185	0,64
592,632	0,64
593,078	0,64
593,524	0,64
593,97	0,64
594,416	0,64
594,862	0,63
595,308	0,63
595,754	0,63
596,2	0,63
596,646	0,62
597,092	0,62
597,538	0,62
597,984	0,62
598,43	0,62
598,876	0,61
599,321	0,61
599,767	0,61
600,213	0,61
600,659	0,61
601,104	0,61
601,55	0,61
601,995	0,6
602,441	0,6
602,887	0,6
603,332	0,6
603,778	0,6
604,223	0,6
604,668	0,59
605,114	0,59
605,559	0,59
606,005	0,59
606,45	0,59
606,895	0,59
607,341	0,59
607,786	0,59
608,231	0,58
608,676	0,58
609,121	0,57
609,566	0,57
610,012	0,56
610,457	0,56
610,902	0,55
611,347	0,55
611,792	0,55
612,237	0,54
612,682	0,54
613,127	0,54
613,571	0,54
614,016	0,55
614,461	0,55
614,906	0,55
615,351	0,55
615,795	0,55
616,24	0,55
616,685	0,55
617,129	0,55
617,574	0,55
618,019	0,55
618,463	0,55
618,908	0,55
619,352	0,55
619,797	0,55
620,241	0,55
620,686	0,55
621,13	0,55
621,574	0,55
622,019	0,55
622,463	0,55
622,907	0,55
623,352	0,54
623,796	0,54
624,24	0,54
624,684	0,54
625,128	0,54
625,572	0,54
626,016	0,54
626,461	0,54
626,905	0,54
627,349	0,54
627,793	0,54
628,236	0,54
628,68	0,54
629,124	0,54
629,568	0,54
630,012	0,54
630,456	0,53
630,9	0,53
631,343	0,53
631,787	0,53
632,231	0,53
632,674	0,53
633,118	0,53
633,562	0,53
634,005	0,53
634,449	0,53
634,892	0,53
635,336	0,53
635,779	0,53
636,223	0,53
636,666	0,53
637,109	0,53
637,553	0,53
637,996	0,53
638,439	0,53
638,883	0,53
639,326	0,53
639,769	0,53
640,212	0,53
640,655	0,52
641,099	0,52
641,542	0,52
641,985	0,52
642,428	0,52
642,871	0,52
643,314	0,52
643,757	0,52
644,2	0,52
644,643	0,52
645,085	0,52
645,528	0,52
645,971	0,52
646,414	0,52
646,857	0,52
647,299	0,51
647,742	0,51
648,185	0,51
648,627	0,51
649,07	0,51
649,513	0,51
649,955	0,51
650,398	0,51
650,84	0,51
651,283	0,51
651,725	0,51
652,168	0,51
652,61	0,51
653,052	0,51
653,495	0,51
653,937	0,42
654,379	0,36
654,821	0,37
655,264	0,37
655,706	0,37
656,148	0,37
656,59	0,37
657,032	0,37
657,474	0,37
657,916	0,37
658,358	0,36
658,8	0,43
659,242	0,51
659,684	0,51
660,126	0,51
660,568	0,51
661,01	0,51
661,452	0,51
661,894	0,51
662,335	0,51
662,777	0,51
663,219	0,51
663,661	0,51
664,102	0,51
664,544	0,51
664,985	0,5
665,427	0,5
665,869	0,5
666,31	0,5
666,752	0,5
667,193	0,5
667,634	0,5
668,076	0,5
668,517	0,5
668,959	0,5
669,4	0,5
669,841	0,5
670,282	0,5
670,724	0,5
671,165	0,5
671,606	0,5
672,047	0,5
672,488	0,5
672,929	0,5
673,37	0,5
673,811	0,5
674,252	0,5
674,693	0,5
675,134	0,5
675,575	0,5
676,016	0,49
676,457	0,49
676,898	0,5
677,339	0,5
677,78	0,5
678,22	0,5
678,661	0,5
679,102	0,5
679,542	0,5
679,983	0,5
680,424	0,5
680,864	0,5
681,305	0,5
681,745	0,5
682,186	0,5
682,626	0,5
683,067	0,5
683,507	0,5
683,948	0,5
684,388	0,5
684,828	0,5
685,269	0,5
685,709	0,5
686,149	0,49
686,589	0,49
687,029	0,49
687,47	0,49
687,91	0,49
688,35	0,49
688,79	0,49
689,23	0,49
689,67	0,49
690,11	0,49
690,55	0,49
690,99	0,49
691,43	0,49
691,87	0,48
692,31	0,48
692,749	0,48
693,189	0,48
693,629	0,48
694,069	0,48
694,508	0,48
694,948	0,48
695,388	0,48
695,827	0,48
696,267	0,48
696,706	0,48
697,146	0,48
697,586	0,48
698,025	0,49
698,464	0,49
698,904	0,49
699,343	0,49
699,783	0,49
700,222	0,49
700,661	0,49
701,101	0,49
701,54	0,49
701,979	0,49
702,418	0,49
702,857	0,49
703,297	0,49
703,736	0,49
704,175	0,49
704,614	0,49
705,053	0,49
705,492	0,49
705,931	0,48
706,37	0,48
706,809	0,48
707,248	0,48
707,687	0,48
708,125	0,48
708,564	0,48
709,003	0,48
709,442	0,48
709,88	0,48
710,319	0,48
710,758	0,48
711,196	0,48
711,635	0,48
712,074	0,48
712,512	0,48
712,951	0,48
713,389	0,48
713,828	0,48
714,266	0,48
714,705	0,47
715,143	0,47
715,581	0,47
716,02	0,48
716,458	0,48
716,896	0,48
717,334	0,48
717,773	0,48
718,211	0,48
718,649	0,48
719,087	0,48
719,525	0,48
719,963	0,48
720,401	0,48
720,839	0,48
721,277	0,48
721,715	0,48
722,153	0,47
722,591	0,47
723,029	0,47
723,467	0,47
723,905	0,47
724,342	0,47
724,78	0,47
725,218	0,47
725,656	0,47
726,093	0,47
726,531	0,47
726,969	0,47
727,406	0,47
727,844	0,47
728,281	0,47
728,719	0,47
729,156	0,47
729,594	0,47
730,031	0,47
730,469	0,47
730,906	0,47
731,343	0,47
731,781	0,47
732,218	0,47
732,655	0,47
733,092	0,46
733,53	0,46
733,967	0,46
734,404	0,46
734,841	0,46
735,278	0,46
735,715	0,46
736,152	0,46
736,589	0,46
737,026	0,46
737,463	0,46
737,9	0,46
738,337	0,46
738,774	0,46
739,211	0,46
739,647	0,46
740,084	0,46
740,521	0,46
740,958	0,46
741,394	0,46
741,831	0,47
742,268	0,47
742,704	0,47
743,141	0,46
743,577	0,46
744,014	0,46
744,45	0,46
744,887	0,46
745,323	0,46
745,76	0,46
746,196	0,46
746,632	0,46
747,069	0,46
747,505	0,46
747,941	0,46
748,378	0,46
748,814	0,46
749,25	0,46
749,686	0,46
750,122	0,46
750,558	0,46
750,994	0,46
751,43	0,46
751,866	0,46
752,302	0,46
752,738	0,46
753,174	0,46
753,61	0,46
754,046	0,46
754,482	0,46
754,918	0,46
755,354	0,46
755,789	0,46
756,225	0,46
756,661	0,45
757,096	0,45
757,532	0,45
757,968	0,45
758,403	0,45
758,839	0,45
759,274	0,44
759,71	0,44
760,145	0,43
760,581	0,43
761,016	0,42
761,452	0,42
761,887	0,41
762,322	0,41
762,758	0,4
763,193	0,4
763,628	0,39
764,063	0,38
764,499	0,38
764,934	0,37
765,369	0,36
765,804	0,35
766,239	0,35
766,674	0,34
767,109	0,34
767,544	0,33
767,979	0,32
768,414	0,31
768,849	0,3
769,284	0,29
769,719	0,28
770,154	0,27
770,588	0,27
771,023	0,26
771,458	0,24
771,893	0,23
772,327	0,22
772,762	0,2
773,197	0,19
773,631	0,18
774,066	0,18
774,5	0,17
774,935	0,15
775,369	0,14
775,804	0,13
776,238	0,12
776,673	0,11
777,107	0,1
777,541	0,09
777,976	0,08
778,41	0,08
778,844	0,07
779,279	0,06
779,713	0,05
780,147	0,04
780,581	0,03
781,015	0,01
781,449	0,01
781,883	-0
782,317	-0,02
782,751	-0,02
783,185	-0,03
783,619	-0,04
784,053	-0,05
784,487	-0,06
784,921	-0,07
785,355	-0,07
785,789	-0,08
786,223	-0,09
786,656	-0,1
787,09	-0,11
787,524	-0,12
787,957	-0,13
788,391	-0,15
788,825	-0,16
789,258	-0,18
789,692	-0,19
790,125	-0,21
790,559	-0,22
790,992	-0,24
791,426	-0,27
791,859	-0,28
792,293	-0,31
792,726	-0,32
793,159	-0,34
793,593	-0,36
794,026	-0,38
794,459	-0,41
794,892	-0,44
795,326	-0,46
795,759	-0,5
796,192	-0,54
796,625	-0,58
797,058	-0,61
797,491	-0,65
797,924	-0,69
798,357	-0,74
798,79	-0,78
799,223	-0,82
799,656	-0,88
800,089	-0,92
800,522	-0,97
800,955	-1,01
801,387	-1,06
801,82	-1,12
802,253	-1,18
802,686	-1,26
803,118	-1,31
803,551	-1,37
803,984	-1,41
804,416	-1,44
804,849	-1,47
805,281	-1,56
805,714	-1,88
806,146	-2,38
806,579	-2,67
807,011	-2,84
807,444	-2,94
807,876	-3,03
808,308	-3,07
808,741	-3,1
809,173	-3,15
809,605	-3,17
810,037	-3,25
810,47	-3,18
810,902	-2,99
811,334	-2,84
811,766	-2,68
812,198	-2,45
812,63	-2,01
813,062	-1,78
813,494	-1,68
813,926	-1,59
814,358	-1,54
814,79	-1,46
815,222	-1,4
815,654	-1,35
816,086	-1,28
816,518	-1,23
816,949	-1,18
817,381	-1,13
817,813	-1,12
818,245	-1,07
818,676	-1,03
819,108	-1
819,54	-0,99
819,971	-0,97
820,403	-0,92
820,834	-0,9
821,266	-0,86
821,697	-0,84
822,129	-0,83
822,56	-0,8
822,991	-0,78
823,423	-0,76
823,854	-0,75
824,286	-0,72
824,717	-0,71
825,148	-0,69
825,579	-0,68
826,01	-0,67
826,442	-0,66
826,873	-0,64
827,304	-0,61
827,735	-0,6
828,166	-0,6
828,597	-0,6
829,028	-0,59
829,459	-0,6
829,89	-0,6
830,321	-0,56
830,752	-0,57
831,183	-0,56
831,613	-0,55
832,044	-0,55
832,475	-0,55
832,906	-0,56
833,336	-0,56
833,767	-0,56
834,198	-0,55
834,628	-0,53
835,059	-0,56
835,49	-0,57
835,92	-0,55
836,351	-0,55
836,781	-0,55
837,212	-0,56
837,642	-0,57
838,072	-0,55
838,503	-0,56
838,933	-0,54
839,364	-0,55
839,794	-0,52
840,224	-0,5
840,654	-0,54
841,085	-0,54
841,515	-0,52
841,945	-0,52
842,375	-0,48
842,805	-0,46
843,235	-0,45
843,665	-0,47
844,095	-0,45
844,525	-0,47
844,955	-0,48
845,385	-0,45
845,815	-0,44
846,245	-0,45
846,675	-0,46
847,105	-0,48
847,534	-0,48
847,964	-0,47
848,394	-0,46
848,824	-0,49
849,253	-0,48
849,683	-0,49
850,112	-0,5
850,542	-0,54
850,972	-0,55
851,401	-0,53
851,831	-0,51
852,26	-0,52
852,69	-0,55
853,119	-0,53
853,548	-0,54
853,978	-0,55
854,407	-0,53
854,836	-0,53
855,266	-0,52
855,695	-0,53
856,124	-0,54
856,553	-0,55
856,983	-0,57
857,412	-0,56
857,841	-0,58
858,27	-0,57
858,699	-0,58
859,128	-0,61
859,557	-0,61
859,986	-0,63
860,415	-0,6
860,844	-0,57
861,273	-0,57
861,702	-0,58
862,13	-0,56
862,559	-0,59
862,988	-0,57
863,417	-0,56
863,845	-0,55
864,274	-0,56
864,703	-0,56
865,131	-0,57
865,56	-0,59
865,989	-0,61
866,417	-0,58
866,846	-0,59
867,274	-0,58
867,703	-0,6
868,131	-0,61
868,559	-0,61
868,988	-0,63
869,416	-0,62
869,844	-0,63
870,273	-0,66
870,701	-0,64
871,129	-0,67
871,557	-0,69
871,986	-0,69
872,414	-0,7
872,842	-0,67
873,27	-0,65
873,698	-0,61
874,126	-0,66
874,554	-0,63
874,982	-0,62
875,41	-0,65
875,838	-0,6
876,266	-0,58
876,694	-0,58
877,122	-0,57
877,549	-0,61
877,977	-0,58
878,405	-0,62
878,833	-0,59
879,26	-0,58
879,688	-0,59
880,116	-0,57
880,543	-0,56
880,971	-0,55
881,399	-0,58
881,826	-0,58
882,254	-0,56
882,681	-0,6
883,109	-0,55
883,536	-0,57
883,963	-0,58
884,391	-0,55
884,818	-0,54
885,245	-0,57
885,673	-0,59
886,1	-0,56
886,527	-0,56
886,954	-0,53
887,381	-0,55
887,809	-0,56
888,236	-0,57
888,663	-0,57
889,09	-0,61
889,517	-0,63
889,944	-0,62
890,371	-0,62
890,798	-0,62
891,225	-0,62
891,652	-0,65
892,078	-0,62
892,505	-0,65
892,932	-0,61
893,359	-0,62
893,786	-0,62
894,212	-0,6
894,639	-0,61
895,066	-0,63
895,492	-0,58
895,919	-0,58
896,346	-0,58
896,772	-0,58
897,199	-0,54
897,625	-0,57
898,052	-0,53
898,478	-0,52
898,904	-0,53
899,331	-0,52
899,757	-0,55
900,183	-0,56
900,61	-0,55
901,036	-0,56
901,462	-0,56
901,888	-0,55
902,315	-0,54
902,741	-0,6
903,167	-0,59
903,593	-0,61
904,019	-0,6
904,445	-0,57
904,871	-0,6
905,297	-0,61
905,723	-0,61
906,149	-0,6
906,575	-0,61
907,001	-0,6
907,427	-0,57
907,852	-0,56
908,278	-0,56
908,704	-0,54
909,13	-0,53
909,555	-0,53
909,981	-0,52
910,407	-0,53
910,832	-0,52
911,258	-0,52
911,684	-0,53
912,109	-0,53
912,535	-0,55
912,96	-0,52
913,386	-0,56
913,811	-0,55
914,236	-0,57
914,662	-0,55
915,087	-0,57
915,512	-0,58
915,938	-0,59
916,363	-0,58
916,788	-0,6
917,213	-0,58
917,639	-0,62
918,064	-0,6
918,489	-0,61
918,914	-0,61
919,339	-0,62
919,764	-0,6
920,189	-0,6
920,614	-0,62
921,039	-0,63
921,464	-0,58
921,889	-0,61
922,314	-0,61
922,738	-0,64
923,163	-0,65
923,588	-0,64
924,013	-0,64
924,437	-0,64
924,862	-0,65
925,287	-0,61
925,711	-0,62
926,136	-0,64
926,561	-0,62
926,985	-0,61
927,41	-0,57
927,834	-0,55
928,259	-0,53
928,683	-0,51
929,108	-0,48
929,532	-0,49
929,956	-0,48
930,381	-0,47
930,805	-0,47
931,229	-0,46
931,653	-0,45
932,078	-0,45
932,502	-0,46
932,926	-0,46
933,35	-0,47
933,774	-0,46
934,198	-0,45
934,622	-0,43
935,046	-0,44
935,47	-0,44
935,894	-0,43
936,318	-0,43
936,742	-0,44
937,166	-0,44
937,59	-0,44
938,014	-0,45
938,437	-0,46
938,861	-0,48
939,285	-0,49
939,709	-0,49
940,132	-0,49
940,556	-0,49
940,98	-0,5
941,403	-0,47
941,827	-0,48
942,25	-0,49
942,674	-0,47
943,097	-0,46
943,521	-0,46
943,944	-0,47
944,368	-0,46
944,791	-0,45
945,214	-0,47
945,638	-0,47
946,061	-0,51
946,484	-0,51
946,907	-0,51
947,331	-0,51
947,754	-0,55
948,177	-0,52
948,6	-0,52
949,023	-0,52
949,446	-0,52
949,869	-0,5
950,292	-0,49
950,715	-0,46
951,138	-0,44
951,561	-0,41
951,984	-0,42
952,407	-0,41
952,83	-0,4
953,252	-0,35
953,675	-0,35
954,098	-0,37
954,521	-0,36
954,943	-0,35
955,366	-0,37
955,789	-0,35
956,211	-0,37
956,634	-0,37
957,056	-0,36
957,479	-0,36
957,902	-0,39
958,324	-0,4
958,746	-0,38
959,169	-0,38
959,591	-0,38
960,014	-0,39
960,436	-0,39
960,858	-0,39
961,281	-0,39
961,703	-0,4
962,125	-0,39
962,547	-0,37
962,969	-0,37
963,391	-0,38
963,814	-0,39
964,236	-0,37
964,658	-0,34
965,08	-0,35
965,502	-0,34
965,924	-0,31
966,346	-0,31
966,768	-0,31
967,189	-0,33
967,611	-0,33
968,033	-0,33
968,455	-0,31
968,877	-0,32
969,298	-0,34
969,72	-0,35
970,142	-0,34
970,563	-0,35
970,985	-0,33
971,407	-0,32
971,828	-0,3
972,25	-0,29
972,671	-0,27
973,093	-0,27
973,514	-0,26
973,936	-0,24
974,357	-0,24
974,778	-0,22
975,2	-0,22
975,621	-0,21
976,042	-0,19
976,464	-0,18
976,885	-0,17
977,306	-0,17
977,727	-0,17
978,148	-0,16
978,57	-0,15
978,991	-0,13
979,412	-0,12
979,833	-0,11
980,254	-0,1
980,675	-0,1
981,096	-0,09
981,517	-0,07
981,937	-0,06
982,358	-0,04
982,779	-0,01
983,2	-0,01
983,621	-0,01
984,042	0
984,462	0,02
984,883	0,03
985,304	0,05
985,724	0,05
986,145	0,06
986,565	0,08
986,986	0,09
987,407	0,11
987,827	0,13
988,248	0,14
988,668	0,16
989,088	0,17
989,509	0,19
989,929	0,19
990,35	0,21
990,77	0,22
991,19	0,22
991,61	0,24
992,031	0,25
992,451	0,26
992,871	0,27
993,291	0,28
993,711	0,29
994,131	0,3
994,551	0,31
994,971	0,33
995,391	0,33
995,811	0,34
996,231	0,35
996,651	0,35
997,071	0,36
997,491	0,36
997,911	0,37
998,331	0,38
998,75	0,38
999,17	0,39
999,59	0,39
1000,009	0,4
1000,429	0,4
1000,849	0,41
1001,268	0,42
1001,688	0,42
1002,107	0,42
1002,527	0,43
1002,946	0,43
1003,366	0,43
1003,785	0,44
1004,205	0,44
1004,624	0,44
1005,044	0,45
1005,463	0,45
1005,882	0,45
1006,301	0,45
1006,721	0,46
1007,14	0,46
1007,559	0,46
1007,978	0,46
1008,397	0,46
1008,816	0,46
1009,235	0,46
1009,655	0,46
1010,074	0,46
1010,492	0,46
1010,911	0,46
1011,33	0,46
1011,749	0,46
1012,168	0,46
1012,587	0,46
1013,006	0,46
1013,425	0,46
1013,843	0,45
1014,262	0,45
1014,681	0,45
1015,099	0,45
1015,518	0,45
1015,937	0,45
1016,355	0,45
1016,774	0,45
1017,192	0,45
1017,611	0,45
1018,029	0,45
1018,448	0,45
1018,866	0,45
1019,285	0,45
1019,703	0,45
1020,121	0,45
1020,54	0,45
1020,958	0,45
1021,376	0,45
1021,794	0,45
1022,213	0,45
1022,631	0,45
1023,049	0,45
1023,467	0,45
1023,885	0,45
1024,303	0,45
1024,721	0,45
1025,139	0,44
1025,557	0,44
1025,975	0,44
1026,393	0,44
1026,811	0,44
1027,229	0,44
1027,647	0,44
1028,065	0,44
1028,482	0,44
1028,9	0,44
1029,318	0,44
1029,735	0,44
1030,153	0,44
1030,571	0,44
1030,988	0,44
1031,406	0,44
1031,823	0,44
1032,241	0,44
1032,659	0,44
1033,076	0,44
1033,493	0,44
1033,911	0,44
1034,328	0,44
1034,746	0,44
1035,163	0,44
1035,58	0,44
1035,997	0,44
1036,415	0,44
1036,832	0,44
1037,249	0,44
1037,666	0,44
1038,083	0,44
1038,501	0,44
1038,918	0,44
1039,335	0,44
1039,752	0,44
1040,169	0,44
1040,586	0,44
1041,003	0,44
1041,419	0,44
1041,836	0,44
1042,253	0,44
1042,67	0,44
1043,087	0,43
1043,504	0,43
1043,92	0,43
1044,337	0,43
1044,754	0,43
1045,17	0,43
1045,587	0,43
1046,004	0,43
1046,42	0,43
1046,837	0,43
1047,253	0,43
1047,67	0,43
1048,086	0,43
1048,503	0,43
1048,919	0,43
1049,335	0,43
1049,752	0,43
1050,168	0,43
1050,584	0,43
1051,001	0,43
1051,417	0,43
1051,833	0,43
1052,249	0,43
1052,665	0,44
1053,081	0,44
1053,497	0,44
1053,914	0,44
1054,33	0,44
1054,746	0,44
1055,162	0,44
1055,578	0,44
1055,993	0,45
1056,409	0,45
1056,825	0,45
1057,241	0,45
1057,657	0,45
1058,073	0,45
1058,488	0,45
1058,904	0,45
1059,32	0,45
1059,736	0,45
1060,151	0,45
1060,567	0,45
1060,982	0,45
1061,398	0,45
1061,813	0,45
1062,229	0,45
1062,644	0,45
1063,06	0,45
1063,475	0,45
1063,891	0,45
1064,306	0,44
1064,721	0,44
1065,137	0,44
1065,552	0,44
1065,967	0,44
1066,382	0,44
1066,798	0,44
1067,213	0,44
1067,628	0,44
1068,043	0,44
1068,458	0,44
1068,873	0,44
1069,288	0,44
1069,703	0,44
1070,118	0,44
1070,533	0,44
1070,948	0,44
1071,363	0,44
1071,778	0,44
1072,193	0,44
1072,607	0,44
1073,022	0,44
1073,437	0,44
1073,852	0,45
1074,266	0,45
1074,681	0,45
1075,096	0,45
1075,51	0,45
1075,925	0,45
1076,339	0,45
1076,754	0,44
1077,168	0,44
1077,583	0,44
1077,997	0,44
1078,412	0,44
1078,826	0,44
1079,24	0,44
1079,655	0,44
1080,069	0,44
1080,483	0,43
1080,897	0,43
1081,312	0,43
1081,726	0,43
1082,14	0,43
1082,554	0,43
1082,968	0,43
1083,382	0,43
1083,796	0,43
1084,21	0,43
1084,624	0,42
1085,038	0,42
1085,452	0,42
1085,866	0,42
1086,28	0,42
1086,694	0,42
1087,108	0,42
1087,521	0,41
1087,935	0,41
1088,349	0,41
1088,763	0,41
1089,176	0,4
1089,59	0,4
1090,004	0,4
1090,417	0,39
1090,831	0,39
1091,244	0,39
1091,658	0,39
1092,071	0,38
1092,485	0,38
1092,898	0,38
1093,312	0,38
1093,725	0,37
1094,138	0,37
1094,552	0,37
1094,965	0,37
1095,378	0,36
1095,791	0,36
1096,205	0,36
1096,618	0,36
1097,031	0,35
1097,444	0,35
1097,857	0,34
1098,27	0,34
1098,683	0,34
1099,096	0,34
1099,509	0,34
1099,922	0,33
1100,335	0,32
1100,748	0,32
1101,161	0,31
1101,574	0,31
1101,986	0,31
1102,399	0,3
1102,812	0,3
1103,225	0,29
1103,637	0,29
1104,05	0,28
1104,463	0,28
1104,875	0,28
1105,288	0,28
1105,7	0,27
1106,113	0,27
1106,525	0,26
1106,938	0,26
1107,35	0,25
1107,763	0,25
1108,175	0,25
1108,588	0,24
1109	0,24
1109,412	0,23
1109,824	0,23
1110,237	0,23
1110,649	0,22
1111,061	0,21
