Data from 18C-808nm-8A-cont_Absorbance__320__01749.txt Node

Date: Mon Jul 17 17:29:55 CEST 2023
User: Laser008
Spectrometer: MAYP115816
Trigger mode: 0
Integration Time (sec): 2,500000E-1
Scans to average: 10
Electric dark correction enabled: true
Nonlinearity correction enabled: true
Boxcar width: 5
XAxis mode: Wavelengths
Number of Pixels in Spectrum: 2068
>>>>>Begin Spectral Data<<<<<
198,914	-0,72
199,384	-0,49
199,855	-0,36
200,325	-0,27
200,796	-0,22
201,266	-0,18
201,737	-0,17
202,207	-0,16
202,677	-0,15
203,147	-0,14
203,618	-0,1
204,088	-0,09
204,558	-0,07
205,028	-0,07
205,498	-0,08
205,968	-0,08
206,439	-0,1
206,909	-0,09
207,379	-0,09
207,849	-0,1
208,319	-0,1
208,789	-0,11
209,258	-0,11
209,728	-0,13
210,198	-0,12
210,668	-0,12
211,138	-0,11
211,608	-0,11
212,077	-0,11
212,547	-0,11
213,017	-0,11
213,486	-0,11
213,956	-0,12
214,426	-0,12
214,895	-0,12
215,365	-0,13
215,834	-0,13
216,304	-0,14
216,773	-0,14
217,243	-0,15
217,712	-0,17
218,181	-0,16
218,651	-0,16
219,12	-0,16
219,589	-0,16
220,058	-0,15
220,528	-0,17
220,997	-0,18
221,466	-0,19
221,935	-0,19
222,404	-0,19
222,873	-0,18
223,342	-0,19
223,812	-0,19
224,281	-0,19
224,749	-0,19
225,218	-0,2
225,687	-0,19
226,156	-0,18
226,625	-0,16
227,094	-0,16
227,563	-0,16
228,031	-0,18
228,5	-0,18
228,969	-0,19
229,438	-0,18
229,906	-0,17
230,375	-0,16
230,844	-0,16
231,312	-0,16
231,781	-0,17
232,249	-0,16
232,718	-0,17
233,186	-0,15
233,655	-0,15
234,123	-0,13
234,591	-0,13
235,06	-0,14
235,528	-0,15
235,996	-0,14
236,465	-0,14
236,933	-0,14
237,401	-0,13
237,869	-0,12
238,337	-0,12
238,805	-0,11
239,274	-0,11
239,742	-0,11
240,21	-0,11
240,678	-0,1
241,146	-0,1
241,614	-0,1
242,081	-0,09
242,549	-0,09
243,017	-0,1
243,485	-0,1
243,953	-0,1
244,421	-0,09
244,888	-0,08
245,356	-0,08
245,824	-0,08
246,291	-0,08
246,759	-0,09
247,227	-0,1
247,694	-0,09
248,162	-0,09
248,629	-0,07
249,097	-0,09
249,564	-0,1
250,032	-0,12
250,499	-0,12
250,967	-0,13
251,434	-0,13
251,901	-0,12
252,369	-0,13
252,836	-0,13
253,303	-0,15
253,77	-0,17
254,237	-0,16
254,705	-0,16
255,172	-0,15
255,639	-0,15
256,106	-0,16
256,573	-0,16
257,04	-0,17
257,507	-0,17
257,974	-0,18
258,441	-0,15
258,908	-0,14
259,375	-0,16
259,841	-0,15
260,308	-0,16
260,775	-0,16
261,242	-0,15
261,709	-0,16
262,175	-0,17
262,642	-0,17
263,109	-0,16
263,575	-0,18
264,042	-0,17
264,508	-0,17
264,975	-0,19
265,441	-0,19
265,908	-0,2
266,374	-0,19
266,841	-0,2
267,307	-0,19
267,773	-0,18
268,24	-0,19
268,706	-0,19
269,172	-0,19
269,639	-0,2
270,105	-0,19
270,571	-0,19
271,037	-0,19
271,503	-0,2
271,969	-0,2
272,435	-0,2
272,902	-0,22
273,368	-0,23
273,834	-0,22
274,3	-0,23
274,765	-0,23
275,231	-0,22
275,697	-0,22
276,163	-0,22
276,629	-0,21
277,095	-0,21
277,56	-0,21
278,026	-0,22
278,492	-0,2
278,958	-0,2
279,423	-0,21
279,889	-0,2
280,354	-0,22
280,82	-0,21
281,286	-0,23
281,751	-0,23
282,217	-0,22
282,682	-0,22
283,147	-0,22
283,613	-0,23
284,078	-0,23
284,544	-0,24
285,009	-0,25
285,474	-0,24
285,939	-0,25
286,405	-0,23
286,87	-0,23
287,335	-0,23
287,8	-0,23
288,265	-0,21
288,73	-0,23
289,195	-0,25
289,66	-0,24
290,125	-0,22
290,59	-0,22
291,055	-0,21
291,52	-0,21
291,985	-0,21
292,45	-0,22
292,915	-0,21
293,38	-0,22
293,844	-0,2
294,309	-0,19
294,774	-0,17
295,239	-0,19
295,703	-0,2
296,168	-0,19
296,632	-0,19
297,097	-0,17
297,562	-0,16
298,026	-0,16
298,491	-0,16
298,955	-0,17
299,419	-0,16
299,884	-0,16
300,348	-0,16
300,813	-0,15
301,277	-0,15
301,741	-0,16
302,205	-0,16
302,67	-0,16
303,134	-0,15
303,598	-0,16
304,062	-0,14
304,526	-0,14
304,99	-0,15
305,454	-0,14
305,919	-0,14
306,383	-0,14
306,847	-0,13
307,31	-0,13
307,774	-0,14
308,238	-0,14
308,702	-0,14
309,166	-0,16
309,63	-0,16
310,094	-0,14
310,557	-0,13
311,021	-0,13
311,485	-0,13
311,948	-0,13
312,412	-0,13
312,876	-0,12
313,339	-0,13
313,803	-0,13
314,266	-0,12
314,73	-0,12
315,193	-0,12
315,657	-0,11
316,12	-0,11
316,584	-0,1
317,047	-0,09
317,51	-0,08
317,973	-0,07
318,437	-0,05
318,9	-0,04
319,363	-0,04
319,826	-0,03
320,29	-0,04
320,753	-0,04
321,216	-0,05
321,679	-0,05
322,142	-0,04
322,605	-0,06
323,068	-0,07
323,531	-0,07
323,994	-0,06
324,457	-0,06
324,92	-0,05
325,382	-0,04
325,845	-0,03
326,308	-0,02
326,771	-0,02
327,233	-0,01
327,696	0
328,159	0,01
328,622	0,02
329,084	0,01
329,547	0,02
330,009	0,03
330,472	0,04
330,934	0,04
331,397	0,04
331,859	0,04
332,322	0,05
332,784	0,05
333,246	0,05
333,709	0,05
334,171	0,06
334,633	0,06
335,096	0,05
335,558	0,06
336,02	0,05
336,482	0,07
336,944	0,08
337,406	0,08
337,868	0,08
338,331	0,09
338,793	0,1
339,255	0,1
339,717	0,11
340,178	0,12
340,64	0,12
341,102	0,13
341,564	0,14
342,026	0,15
342,488	0,15
342,949	0,16
343,411	0,19
343,873	0,21
344,335	0,24
344,796	0,27
345,258	0,32
345,719	0,37
346,181	0,42
346,643	0,46
347,104	0,5
347,566	0,54
348,027	0,56
348,488	0,59
348,95	0,61
349,411	0,63
349,873	0,66
350,334	0,68
350,795	0,7
351,256	0,71
351,718	0,71
352,179	0,72
352,64	0,72
353,101	0,73
353,562	0,73
354,023	0,73
354,484	0,74
354,945	0,74
355,406	0,74
355,867	0,74
356,328	0,75
356,789	0,75
357,25	0,75
357,711	0,75
358,172	0,75
358,633	0,76
359,093	0,76
359,554	0,76
360,015	0,76
360,476	0,76
360,936	0,76
361,397	0,76
361,858	0,77
362,318	0,77
362,779	0,77
363,239	0,77
363,7	0,77
364,16	0,77
364,621	0,77
365,081	0,77
365,541	0,77
366,002	0,77
366,462	0,77
366,922	0,77
367,383	0,77
367,843	0,77
368,303	0,77
368,763	0,77
369,223	0,77
369,684	0,77
370,144	0,77
370,604	0,77
371,064	0,77
371,524	0,77
371,984	0,77
372,444	0,77
372,904	0,77
373,363	0,77
373,823	0,77
374,283	0,77
374,743	0,77
375,203	0,77
375,663	0,76
376,122	0,76
376,582	0,76
377,042	0,76
377,501	0,76
377,961	0,76
378,42	0,76
378,88	0,76
379,34	0,76
379,799	0,76
380,259	0,76
380,718	0,76
381,177	0,76
381,637	0,76
382,096	0,76
382,555	0,76
383,015	0,76
383,474	0,76
383,933	0,76
384,393	0,76
384,852	0,76
385,311	0,76
385,77	0,76
386,229	0,76
386,688	0,76
387,147	0,76
387,606	0,76
388,065	0,76
388,524	0,76
388,983	0,76
389,442	0,75
389,901	0,75
390,36	0,75
390,819	0,75
391,277	0,75
391,736	0,75
392,195	0,75
392,654	0,75
393,112	0,75
393,571	0,75
394,03	0,75
394,488	0,75
394,947	0,75
395,405	0,75
395,864	0,75
396,322	0,75
396,781	0,75
397,239	0,75
397,698	0,75
398,156	0,75
398,614	0,75
399,073	0,75
399,531	0,75
399,989	0,75
400,447	0,75
400,905	0,75
401,364	0,75
401,822	0,75
402,28	0,74
402,738	0,74
403,196	0,74
403,654	0,74
404,112	0,74
404,57	0,74
405,028	0,74
405,486	0,74
405,944	0,74
406,402	0,74
406,859	0,74
407,317	0,74
407,775	0,74
408,233	0,74
408,691	0,74
409,148	0,74
409,606	0,74
410,064	0,74
410,521	0,74
410,979	0,74
411,436	0,74
411,894	0,74
412,351	0,74
412,809	0,74
413,266	0,74
413,724	0,74
414,181	0,74
414,638	0,74
415,096	0,74
415,553	0,74
416,01	0,74
416,467	0,74
416,925	0,74
417,382	0,74
417,839	0,74
418,296	0,74
418,753	0,74
419,21	0,74
419,667	0,74
420,124	0,74
420,581	0,74
421,038	0,74
421,495	0,74
421,952	0,74
422,409	0,74
422,866	0,74
423,322	0,74
423,779	0,74
424,236	0,74
424,693	0,74
425,149	0,74
425,606	0,74
426,063	0,74
426,519	0,74
426,976	0,74
427,433	0,74
427,889	0,74
428,346	0,74
428,802	0,74
429,258	0,74
429,715	0,74
430,171	0,74
430,628	0,73
431,084	0,73
431,54	0,73
431,997	0,73
432,453	0,73
432,909	0,73
433,365	0,73
433,821	0,73
434,277	0,73
434,734	0,73
435,19	0,73
435,646	0,73
436,102	0,73
436,558	0,73
437,014	0,73
437,47	0,73
437,925	0,73
438,381	0,73
438,837	0,73
439,293	0,73
439,749	0,73
440,205	0,73
440,66	0,73
441,116	0,73
441,572	0,74
442,027	0,74
442,483	0,74
442,939	0,74
443,394	0,74
443,85	0,74
444,305	0,74
444,761	0,74
445,216	0,74
445,672	0,74
446,127	0,74
446,582	0,74
447,038	0,74
447,493	0,74
447,948	0,74
448,403	0,74
448,859	0,74
449,314	0,74
449,769	0,74
450,224	0,74
450,679	0,74
451,134	0,74
451,589	0,74
452,044	0,74
452,499	0,74
452,954	0,74
453,409	0,74
453,864	0,74
454,319	0,74
454,774	0,74
455,229	0,74
455,684	0,74
456,138	0,74
456,593	0,74
457,048	0,74
457,503	0,74
457,957	0,74
458,412	0,74
458,866	0,74
459,321	0,74
459,776	0,74
460,23	0,74
460,685	0,74
461,139	0,75
461,593	0,75
462,048	0,75
462,502	0,75
462,957	0,75
463,411	0,75
463,865	0,75
464,319	0,75
464,774	0,75
465,228	0,75
465,682	0,75
466,136	0,76
466,59	0,76
467,044	0,76
467,499	0,76
467,953	0,76
468,407	0,76
468,861	0,76
469,315	0,76
469,768	0,76
470,222	0,76
470,676	0,76
471,13	0,76
471,584	0,76
472,038	0,77
472,491	0,77
472,945	0,77
473,399	0,77
473,852	0,77
474,306	0,77
474,76	0,77
475,213	0,77
475,667	0,77
476,12	0,78
476,574	0,78
477,027	0,78
477,481	0,78
477,934	0,78
478,388	0,78
478,841	0,79
479,294	0,79
479,748	0,79
480,201	0,79
480,654	0,79
481,107	0,79
481,561	0,8
482,014	0,8
482,467	0,8
482,92	0,8
483,373	0,8
483,826	0,8
484,279	0,81
484,732	0,81
485,185	0,81
485,638	0,81
486,091	0,81
486,544	0,81
486,997	0,82
487,449	0,82
487,902	0,82
488,355	0,82
488,808	0,83
489,26	0,83
489,713	0,83
490,166	0,83
490,618	0,84
491,071	0,84
491,523	0,84
491,976	0,85
492,429	0,85
492,881	0,85
493,333	0,85
493,786	0,86
494,238	0,86
494,691	0,86
495,143	0,87
495,595	0,87
496,048	0,87
496,5	0,88
496,952	0,88
497,404	0,89
497,856	0,89
498,309	0,89
498,761	0,9
499,213	0,9
499,665	0,9
500,117	0,91
500,569	0,91
501,021	0,91
501,473	0,92
501,925	0,92
502,377	0,93
502,828	0,93
503,28	0,93
503,732	0,94
504,184	0,94
504,636	0,95
505,087	0,95
505,539	0,95
505,991	0,96
506,442	0,96
506,894	0,97
507,345	0,97
507,797	0,97
508,249	0,98
508,7	0,98
509,151	0,98
509,603	0,99
510,054	0,99
510,506	1
510,957	1
511,408	1
511,86	1,01
512,311	1,01
512,762	1,01
513,213	1,02
513,665	1,02
514,116	1,02
514,567	1,03
515,018	1,03
515,469	1,03
515,92	1,04
516,371	1,04
516,822	1,04
517,273	1,04
517,724	1,05
518,175	1,05
518,626	1,05
519,076	1,06
519,527	1,06
519,978	1,06
520,429	1,06
520,88	1,07
521,33	1,07
521,781	1,07
522,232	1,07
522,682	1,07
523,133	1,07
523,583	1,08
524,034	1,08
524,484	1,08
524,935	1,08
525,385	1,08
525,836	1,08
526,286	1,08
526,736	1,08
527,187	1,08
527,637	1,08
528,087	1,08
528,538	1,08
528,988	1,08
529,438	1,08
529,888	1,07
530,338	1,07
530,788	1,07
531,238	1,07
531,688	1,07
532,139	1,07
532,589	1,07
533,038	1,07
533,488	1,06
533,938	1,06
534,388	1,06
534,838	1,06
535,288	1,05
535,738	1,05
536,187	1,05
536,637	1,04
537,087	1,04
537,537	1,04
537,986	1,03
538,436	1,03
538,885	1,02
539,335	1,02
539,785	1,01
540,234	1,01
540,684	1
541,133	1
541,582	1
542,032	0,99
542,481	0,99
542,931	0,98
543,38	0,98
543,829	0,97
544,278	0,97
544,728	0,96
545,177	0,96
545,626	0,96
546,075	0,95
546,524	0,95
546,973	0,94
547,422	0,94
547,871	0,94
548,32	0,93
548,769	0,93
549,218	0,93
549,667	0,92
550,116	0,92
550,565	0,91
551,014	0,91
551,463	0,9
551,911	0,9
552,36	0,9
552,809	0,89
553,258	0,89
553,706	0,88
554,155	0,88
554,603	0,87
555,052	0,87
555,501	0,87
555,949	0,86
556,398	0,86
556,846	0,85
557,294	0,85
557,743	0,84
558,191	0,84
558,64	0,83
559,088	0,83
559,536	0,82
559,985	0,82
560,433	0,81
560,881	0,81
561,329	0,8
561,777	0,8
562,225	0,8
562,674	0,79
563,122	0,79
563,57	0,78
564,018	0,78
564,466	0,78
564,914	0,77
565,362	0,77
565,809	0,76
566,257	0,76
566,705	0,76
567,153	0,75
567,601	0,75
568,048	0,74
568,496	0,74
568,944	0,74
569,392	0,73
569,839	0,73
570,287	0,73
570,734	0,72
571,182	0,72
571,63	0,72
572,077	0,71
572,525	0,71
572,972	0,7
573,419	0,7
573,867	0,7
574,314	0,69
574,761	0,69
575,209	0,69
575,656	0,68
576,103	0,68
576,551	0,68
576,998	0,67
577,445	0,67
577,892	0,67
578,339	0,67
578,786	0,66
579,233	0,66
579,68	0,66
580,127	0,65
580,574	0,65
581,021	0,65
581,468	0,65
581,915	0,64
582,362	0,64
582,809	0,64
583,255	0,64
583,702	0,63
584,149	0,63
584,596	0,63
585,042	0,63
585,489	0,62
585,936	0,62
586,382	0,62
586,829	0,62
587,275	0,62
587,722	0,61
588,168	0,61
588,615	0,61
589,061	0,61
589,508	0,61
589,954	0,6
590,4	0,6
590,847	0,6
591,293	0,6
591,739	0,59
592,185	0,59
592,632	0,59
593,078	0,59
593,524	0,59
593,97	0,59
594,416	0,59
594,862	0,59
595,308	0,58
595,754	0,58
596,2	0,58
596,646	0,58
597,092	0,58
597,538	0,58
597,984	0,57
598,43	0,57
598,876	0,57
599,321	0,57
599,767	0,57
600,213	0,57
600,659	0,57
601,104	0,57
601,55	0,56
601,995	0,56
602,441	0,56
602,887	0,56
603,332	0,56
603,778	0,56
604,223	0,56
604,668	0,55
605,114	0,55
605,559	0,55
606,005	0,55
606,45	0,55
606,895	0,55
607,341	0,55
607,786	0,55
608,231	0,54
608,676	0,54
609,121	0,54
609,566	0,53
610,012	0,52
610,457	0,52
610,902	0,52
611,347	0,52
611,792	0,51
612,237	0,51
612,682	0,51
613,127	0,51
613,571	0,51
614,016	0,51
614,461	0,52
614,906	0,52
615,351	0,52
615,795	0,52
616,24	0,52
616,685	0,52
617,129	0,52
617,574	0,52
618,019	0,52
618,463	0,52
618,908	0,52
619,352	0,52
619,797	0,52
620,241	0,52
620,686	0,52
621,13	0,52
621,574	0,51
622,019	0,51
622,463	0,51
622,907	0,51
623,352	0,51
623,796	0,51
624,24	0,51
624,684	0,51
625,128	0,51
625,572	0,51
626,016	0,51
626,461	0,51
626,905	0,51
627,349	0,51
627,793	0,51
628,236	0,51
628,68	0,51
629,124	0,5
629,568	0,5
630,012	0,5
630,456	0,5
630,9	0,5
631,343	0,5
631,787	0,5
632,231	0,5
632,674	0,5
633,118	0,5
633,562	0,5
634,005	0,5
634,449	0,5
634,892	0,5
635,336	0,5
635,779	0,5
636,223	0,5
636,666	0,5
637,109	0,5
637,553	0,5
637,996	0,5
638,439	0,5
638,883	0,5
639,326	0,5
639,769	0,5
640,212	0,5
640,655	0,5
641,099	0,49
641,542	0,49
641,985	0,49
642,428	0,49
642,871	0,49
643,314	0,49
643,757	0,49
644,2	0,49
644,643	0,49
645,085	0,49
645,528	0,49
645,971	0,49
646,414	0,49
646,857	0,49
647,299	0,49
647,742	0,48
648,185	0,48
648,627	0,48
649,07	0,48
649,513	0,48
649,955	0,48
650,398	0,48
650,84	0,48
651,283	0,48
651,725	0,49
652,168	0,49
652,61	0,49
653,052	0,49
653,495	0,49
653,937	0,4
654,379	0,34
654,821	0,35
655,264	0,35
655,706	0,35
656,148	0,35
656,59	0,35
657,032	0,35
657,474	0,35
657,916	0,35
658,358	0,34
658,8	0,4
659,242	0,48
659,684	0,48
660,126	0,48
660,568	0,48
661,01	0,48
661,452	0,48
661,894	0,48
662,335	0,48
662,777	0,48
663,219	0,48
663,661	0,48
664,102	0,48
664,544	0,48
664,985	0,48
665,427	0,48
665,869	0,48
666,31	0,48
666,752	0,48
667,193	0,48
667,634	0,48
668,076	0,48
668,517	0,48
668,959	0,48
669,4	0,48
669,841	0,48
670,282	0,48
670,724	0,48
671,165	0,48
671,606	0,48
672,047	0,48
672,488	0,48
672,929	0,48
673,37	0,48
673,811	0,47
674,252	0,47
674,693	0,47
675,134	0,47
675,575	0,47
676,016	0,47
676,457	0,47
676,898	0,47
677,339	0,46
677,78	0,46
678,22	0,46
678,661	0,46
679,102	0,46
679,542	0,46
679,983	0,46
680,424	0,46
680,864	0,46
681,305	0,46
681,745	0,47
682,186	0,47
682,626	0,47
683,067	0,47
683,507	0,47
683,948	0,47
684,388	0,47
684,828	0,47
685,269	0,47
685,709	0,47
686,149	0,46
686,589	0,46
687,029	0,46
687,47	0,46
687,91	0,46
688,35	0,46
688,79	0,46
689,23	0,46
689,67	0,46
690,11	0,46
690,55	0,46
690,99	0,46
691,43	0,46
691,87	0,46
692,31	0,46
692,749	0,45
693,189	0,45
693,629	0,45
694,069	0,45
694,508	0,45
694,948	0,45
695,388	0,45
695,827	0,45
696,267	0,45
696,706	0,45
697,146	0,45
697,586	0,45
698,025	0,45
698,464	0,45
698,904	0,46
699,343	0,46
699,783	0,46
700,222	0,46
700,661	0,46
701,101	0,46
701,54	0,46
701,979	0,46
702,418	0,46
702,857	0,46
703,297	0,46
703,736	0,46
704,175	0,46
704,614	0,46
705,053	0,46
705,492	0,46
705,931	0,45
706,37	0,45
706,809	0,45
707,248	0,45
707,687	0,45
708,125	0,45
708,564	0,45
709,003	0,45
709,442	0,45
709,88	0,45
710,319	0,45
710,758	0,45
711,196	0,45
711,635	0,45
712,074	0,45
712,512	0,44
712,951	0,44
713,389	0,44
713,828	0,44
714,266	0,44
714,705	0,44
715,143	0,44
715,581	0,44
716,02	0,44
716,458	0,44
716,896	0,44
717,334	0,44
717,773	0,44
718,211	0,44
718,649	0,44
719,087	0,44
719,525	0,44
719,963	0,44
720,401	0,44
720,839	0,45
721,277	0,45
721,715	0,45
722,153	0,45
722,591	0,45
723,029	0,44
723,467	0,44
723,905	0,44
724,342	0,44
724,78	0,44
725,218	0,44
725,656	0,44
726,093	0,44
726,531	0,44
726,969	0,45
727,406	0,45
727,844	0,45
728,281	0,45
728,719	0,44
729,156	0,44
729,594	0,44
730,031	0,44
730,469	0,44
730,906	0,44
731,343	0,44
731,781	0,44
732,218	0,44
732,655	0,44
733,092	0,44
733,53	0,44
733,967	0,43
734,404	0,43
734,841	0,43
735,278	0,43
735,715	0,43
736,152	0,43
736,589	0,43
737,026	0,43
737,463	0,43
737,9	0,43
738,337	0,43
738,774	0,43
739,211	0,43
739,647	0,43
740,084	0,43
740,521	0,43
740,958	0,43
741,394	0,43
741,831	0,43
742,268	0,43
742,704	0,43
743,141	0,43
743,577	0,43
744,014	0,43
744,45	0,43
744,887	0,43
745,323	0,42
745,76	0,42
746,196	0,42
746,632	0,42
747,069	0,42
747,505	0,42
747,941	0,42
748,378	0,42
748,814	0,42
749,25	0,42
749,686	0,42
750,122	0,42
750,558	0,42
750,994	0,42
751,43	0,43
751,866	0,43
752,302	0,43
752,738	0,43
753,174	0,43
753,61	0,43
754,046	0,43
754,482	0,43
754,918	0,43
755,354	0,43
755,789	0,43
756,225	0,43
756,661	0,43
757,096	0,43
757,532	0,42
757,968	0,42
758,403	0,42
758,839	0,42
759,274	0,41
759,71	0,41
760,145	0,4
760,581	0,4
761,016	0,39
761,452	0,39
761,887	0,39
762,322	0,38
762,758	0,38
763,193	0,37
763,628	0,36
764,063	0,36
764,499	0,35
764,934	0,35
765,369	0,34
765,804	0,33
766,239	0,33
766,674	0,32
767,109	0,31
767,544	0,3
767,979	0,29
768,414	0,29
768,849	0,28
769,284	0,27
769,719	0,25
770,154	0,25
770,588	0,24
771,023	0,23
771,458	0,22
771,893	0,21
772,327	0,2
772,762	0,19
773,197	0,18
773,631	0,17
774,066	0,16
774,5	0,16
774,935	0,14
775,369	0,14
775,804	0,13
776,238	0,12
776,673	0,1
777,107	0,09
777,541	0,08
777,976	0,07
778,41	0,06
778,844	0,05
779,279	0,05
779,713	0,04
780,147	0,03
780,581	0,02
781,015	0
781,449	-0
781,883	-0,01
782,317	-0,02
782,751	-0,03
783,185	-0,04
783,619	-0,04
784,053	-0,06
784,487	-0,07
784,921	-0,08
785,355	-0,08
785,789	-0,08
786,223	-0,1
786,656	-0,11
787,09	-0,12
787,524	-0,13
787,957	-0,14
788,391	-0,16
788,825	-0,17
789,258	-0,19
789,692	-0,2
790,125	-0,21
790,559	-0,23
790,992	-0,25
791,426	-0,27
791,859	-0,29
792,293	-0,32
792,726	-0,34
793,159	-0,36
793,593	-0,38
794,026	-0,4
794,459	-0,43
794,892	-0,46
795,326	-0,48
795,759	-0,52
796,192	-0,56
796,625	-0,61
797,058	-0,63
797,491	-0,67
797,924	-0,71
798,357	-0,76
798,79	-0,81
799,223	-0,85
799,656	-0,9
800,089	-0,95
800,522	-0,99
800,955	-1,04
801,387	-1,1
801,82	-1,15
802,253	-1,21
802,686	-1,29
803,118	-1,35
803,551	-1,4
803,984	-1,45
804,416	-1,48
804,849	-1,52
805,281	-1,67
805,714	-2,06
806,146	-2,48
806,579	-2,73
807,011	-2,89
807,444	-2,98
807,876	-3,06
808,308	-3,09
808,741	-3,12
809,173	-3,17
809,605	-3,19
810,037	-3,27
810,47	-3,18
810,902	-2,98
811,334	-2,83
811,766	-2,67
812,198	-2,42
812,63	-1,99
813,062	-1,78
813,494	-1,69
813,926	-1,6
814,358	-1,55
814,79	-1,47
815,222	-1,41
815,654	-1,36
816,086	-1,3
816,518	-1,24
816,949	-1,19
817,381	-1,15
817,813	-1,13
818,245	-1,09
818,676	-1,05
819,108	-1,02
819,54	-1
819,971	-0,98
820,403	-0,93
820,834	-0,92
821,266	-0,88
821,697	-0,85
822,129	-0,84
822,56	-0,81
822,991	-0,79
823,423	-0,77
823,854	-0,76
824,286	-0,73
824,717	-0,72
825,148	-0,71
825,579	-0,7
826,01	-0,68
826,442	-0,67
826,873	-0,65
827,304	-0,61
827,735	-0,6
828,166	-0,61
828,597	-0,6
829,028	-0,6
829,459	-0,61
829,89	-0,61
830,321	-0,57
830,752	-0,58
831,183	-0,57
831,613	-0,56
832,044	-0,56
832,475	-0,55
832,906	-0,57
833,336	-0,58
833,767	-0,58
834,198	-0,57
834,628	-0,54
835,059	-0,57
835,49	-0,58
835,92	-0,55
836,351	-0,55
836,781	-0,56
837,212	-0,56
837,642	-0,56
838,072	-0,53
838,503	-0,55
838,933	-0,52
839,364	-0,54
839,794	-0,51
840,224	-0,5
840,654	-0,55
841,085	-0,55
841,515	-0,52
841,945	-0,53
842,375	-0,49
842,805	-0,48
843,235	-0,46
843,665	-0,47
844,095	-0,46
844,525	-0,48
844,955	-0,48
845,385	-0,45
845,815	-0,44
846,245	-0,46
846,675	-0,46
847,105	-0,48
847,534	-0,49
847,964	-0,47
848,394	-0,46
848,824	-0,5
849,253	-0,5
849,683	-0,5
850,112	-0,51
850,542	-0,54
850,972	-0,55
851,401	-0,53
851,831	-0,5
852,26	-0,51
852,69	-0,54
853,119	-0,54
853,548	-0,53
853,978	-0,53
854,407	-0,51
854,836	-0,51
855,266	-0,51
855,695	-0,52
856,124	-0,54
856,553	-0,55
856,983	-0,57
857,412	-0,56
857,841	-0,58
858,27	-0,58
858,699	-0,58
859,128	-0,62
859,557	-0,63
859,986	-0,63
860,415	-0,61
860,844	-0,59
861,273	-0,58
861,702	-0,6
862,13	-0,58
862,559	-0,59
862,988	-0,57
863,417	-0,55
863,845	-0,55
864,274	-0,55
864,703	-0,55
865,131	-0,55
865,56	-0,55
865,989	-0,58
866,417	-0,55
866,846	-0,56
867,274	-0,55
867,703	-0,58
868,131	-0,59
868,559	-0,59
868,988	-0,61
869,416	-0,6
869,844	-0,61
870,273	-0,64
870,701	-0,62
871,129	-0,66
871,557	-0,69
871,986	-0,69
872,414	-0,7
872,842	-0,67
873,27	-0,66
873,698	-0,62
874,126	-0,67
874,554	-0,66
874,982	-0,65
875,41	-0,68
875,838	-0,62
876,266	-0,59
876,694	-0,59
877,122	-0,57
877,549	-0,62
877,977	-0,59
878,405	-0,61
878,833	-0,57
879,26	-0,55
879,688	-0,56
880,116	-0,54
880,543	-0,52
880,971	-0,52
881,399	-0,55
881,826	-0,56
882,254	-0,54
882,681	-0,57
883,109	-0,53
883,536	-0,55
883,963	-0,57
884,391	-0,55
884,818	-0,53
885,245	-0,57
885,673	-0,59
886,1	-0,56
886,527	-0,56
886,954	-0,54
887,381	-0,56
887,809	-0,57
888,236	-0,58
888,663	-0,58
889,09	-0,62
889,517	-0,64
889,944	-0,64
890,371	-0,62
890,798	-0,63
891,225	-0,63
891,652	-0,65
892,078	-0,62
892,505	-0,66
892,932	-0,61
893,359	-0,62
893,786	-0,63
894,212	-0,6
894,639	-0,61
895,066	-0,64
895,492	-0,58
895,919	-0,58
896,346	-0,59
896,772	-0,59
897,199	-0,56
897,625	-0,58
898,052	-0,55
898,478	-0,53
898,904	-0,54
899,331	-0,53
899,757	-0,54
900,183	-0,57
900,61	-0,55
901,036	-0,54
901,462	-0,55
901,888	-0,54
902,315	-0,53
902,741	-0,59
903,167	-0,57
903,593	-0,61
904,019	-0,59
904,445	-0,56
904,871	-0,58
905,297	-0,6
905,723	-0,6
906,149	-0,59
906,575	-0,6
907,001	-0,59
907,427	-0,56
907,852	-0,56
908,278	-0,56
908,704	-0,54
909,13	-0,54
909,555	-0,54
909,981	-0,53
910,407	-0,53
910,832	-0,53
911,258	-0,53
911,684	-0,53
912,109	-0,54
912,535	-0,55
912,96	-0,52
913,386	-0,55
913,811	-0,55
914,236	-0,57
914,662	-0,55
915,087	-0,59
915,512	-0,6
915,938	-0,61
916,363	-0,6
916,788	-0,62
917,213	-0,59
917,639	-0,64
918,064	-0,61
918,489	-0,62
918,914	-0,6
919,339	-0,62
919,764	-0,59
920,189	-0,58
920,614	-0,6
921,039	-0,61
921,464	-0,56
921,889	-0,59
922,314	-0,6
922,738	-0,63
923,163	-0,65
923,588	-0,65
924,013	-0,64
924,437	-0,64
924,862	-0,64
925,287	-0,6
925,711	-0,61
926,136	-0,63
926,561	-0,61
926,985	-0,61
927,41	-0,58
927,834	-0,56
928,259	-0,53
928,683	-0,51
929,108	-0,48
929,532	-0,5
929,956	-0,5
930,381	-0,48
930,805	-0,48
931,229	-0,47
931,653	-0,46
932,078	-0,45
932,502	-0,46
932,926	-0,47
933,35	-0,47
933,774	-0,47
934,198	-0,45
934,622	-0,44
935,046	-0,45
935,47	-0,45
935,894	-0,45
936,318	-0,45
936,742	-0,45
937,166	-0,44
937,59	-0,43
938,014	-0,45
938,437	-0,46
938,861	-0,48
939,285	-0,48
939,709	-0,48
940,132	-0,48
940,556	-0,48
940,98	-0,48
941,403	-0,47
941,827	-0,48
942,25	-0,49
942,674	-0,48
943,097	-0,47
943,521	-0,47
943,944	-0,49
944,368	-0,47
944,791	-0,46
945,214	-0,48
945,638	-0,49
946,061	-0,52
946,484	-0,53
946,907	-0,5
947,331	-0,51
947,754	-0,54
948,177	-0,51
948,6	-0,5
949,023	-0,51
949,446	-0,52
949,869	-0,5
950,292	-0,49
950,715	-0,46
951,138	-0,45
951,561	-0,43
951,984	-0,43
952,407	-0,42
952,83	-0,41
953,252	-0,37
953,675	-0,37
954,098	-0,37
954,521	-0,35
954,943	-0,34
955,366	-0,36
955,789	-0,35
956,211	-0,37
956,634	-0,37
957,056	-0,35
957,479	-0,37
957,902	-0,39
958,324	-0,39
958,746	-0,38
959,169	-0,4
959,591	-0,4
960,014	-0,4
960,436	-0,4
960,858	-0,39
961,281	-0,38
961,703	-0,39
962,125	-0,39
962,547	-0,37
962,969	-0,37
963,391	-0,37
963,814	-0,38
964,236	-0,37
964,658	-0,33
965,08	-0,34
965,502	-0,34
965,924	-0,31
966,346	-0,31
966,768	-0,3
967,189	-0,32
967,611	-0,32
968,033	-0,32
968,455	-0,29
968,877	-0,31
969,298	-0,32
969,72	-0,33
970,142	-0,32
970,563	-0,33
970,985	-0,31
971,407	-0,3
971,828	-0,28
972,25	-0,26
972,671	-0,25
973,093	-0,26
973,514	-0,24
973,936	-0,22
974,357	-0,21
974,778	-0,21
975,2	-0,21
975,621	-0,21
976,042	-0,2
976,464	-0,19
976,885	-0,18
977,306	-0,18
977,727	-0,17
978,148	-0,16
978,57	-0,15
978,991	-0,13
979,412	-0,11
979,833	-0,09
980,254	-0,09
980,675	-0,09
981,096	-0,08
981,517	-0,07
981,937	-0,06
982,358	-0,04
982,779	-0,03
983,2	-0,03
983,621	-0,02
984,042	-0,01
984,462	0
984,883	0,02
985,304	0,04
985,724	0,05
986,145	0,06
986,565	0,08
986,986	0,08
987,407	0,1
987,827	0,11
988,248	0,12
988,668	0,13
989,088	0,14
989,509	0,15
989,929	0,16
990,35	0,17
990,77	0,19
991,19	0,19
991,61	0,21
992,031	0,22
992,451	0,23
992,871	0,24
993,291	0,25
993,711	0,26
994,131	0,27
994,551	0,28
994,971	0,29
995,391	0,29
995,811	0,3
996,231	0,3
996,651	0,31
997,071	0,32
997,491	0,32
997,911	0,33
998,331	0,34
998,75	0,35
999,17	0,35
999,59	0,36
1000,009	0,36
1000,429	0,37
1000,849	0,37
1001,268	0,38
1001,688	0,38
1002,107	0,39
1002,527	0,39
1002,946	0,39
1003,366	0,4
1003,785	0,4
1004,205	0,4
1004,624	0,41
1005,044	0,41
1005,463	0,41
1005,882	0,41
1006,301	0,41
1006,721	0,42
1007,14	0,42
1007,559	0,42
1007,978	0,42
1008,397	0,42
1008,816	0,42
1009,235	0,42
1009,655	0,42
1010,074	0,42
1010,492	0,42
1010,911	0,42
1011,33	0,42
1011,749	0,42
1012,168	0,42
1012,587	0,42
1013,006	0,41
1013,425	0,41
1013,843	0,41
1014,262	0,41
1014,681	0,41
1015,099	0,41
1015,518	0,41
1015,937	0,41
1016,355	0,41
1016,774	0,41
1017,192	0,41
1017,611	0,41
1018,029	0,41
1018,448	0,41
1018,866	0,41
1019,285	0,41
1019,703	0,41
1020,121	0,41
1020,54	0,41
1020,958	0,4
1021,376	0,4
1021,794	0,4
1022,213	0,4
1022,631	0,4
1023,049	0,4
1023,467	0,4
1023,885	0,4
1024,303	0,4
1024,721	0,4
1025,139	0,4
1025,557	0,4
1025,975	0,4
1026,393	0,4
1026,811	0,39
1027,229	0,39
1027,647	0,39
1028,065	0,39
1028,482	0,39
1028,9	0,39
1029,318	0,39
1029,735	0,39
1030,153	0,39
1030,571	0,39
1030,988	0,39
1031,406	0,39
1031,823	0,39
1032,241	0,39
1032,659	0,39
1033,076	0,39
1033,493	0,39
1033,911	0,39
1034,328	0,39
1034,746	0,4
1035,163	0,4
1035,58	0,4
1035,997	0,4
1036,415	0,4
1036,832	0,4
1037,249	0,4
1037,666	0,4
1038,083	0,4
1038,501	0,4
1038,918	0,4
1039,335	0,4
1039,752	0,4
1040,169	0,4
1040,586	0,4
1041,003	0,4
1041,419	0,4
1041,836	0,4
1042,253	0,4
1042,67	0,4
1043,087	0,4
1043,504	0,4
1043,92	0,4
1044,337	0,4
1044,754	0,4
1045,17	0,4
1045,587	0,4
1046,004	0,4
1046,42	0,4
1046,837	0,4
1047,253	0,4
1047,67	0,4
1048,086	0,4
1048,503	0,4
1048,919	0,4
1049,335	0,4
1049,752	0,4
1050,168	0,4
1050,584	0,4
1051,001	0,4
1051,417	0,4
1051,833	0,4
1052,249	0,4
1052,665	0,4
1053,081	0,4
1053,497	0,4
1053,914	0,4
1054,33	0,4
1054,746	0,4
1055,162	0,41
1055,578	0,41
1055,993	0,41
1056,409	0,41
1056,825	0,41
1057,241	0,41
1057,657	0,41
1058,073	0,41
1058,488	0,41
1058,904	0,41
1059,32	0,41
1059,736	0,41
1060,151	0,4
1060,567	0,4
1060,982	0,4
1061,398	0,4
1061,813	0,4
1062,229	0,4
1062,644	0,4
1063,06	0,4
1063,475	0,4
1063,891	0,4
1064,306	0,4
1064,721	0,4
1065,137	0,4
1065,552	0,4
1065,967	0,4
1066,382	0,4
1066,798	0,4
1067,213	0,4
1067,628	0,4
1068,043	0,4
1068,458	0,4
1068,873	0,4
1069,288	0,4
1069,703	0,4
1070,118	0,4
1070,533	0,4
1070,948	0,4
1071,363	0,4
1071,778	0,4
1072,193	0,4
1072,607	0,4
1073,022	0,4
1073,437	0,4
1073,852	0,4
1074,266	0,4
1074,681	0,4
1075,096	0,4
1075,51	0,4
1075,925	0,4
1076,339	0,39
1076,754	0,39
1077,168	0,39
1077,583	0,39
1077,997	0,39
1078,412	0,39
1078,826	0,39
1079,24	0,39
1079,655	0,39
1080,069	0,39
1080,483	0,39
1080,897	0,39
1081,312	0,39
1081,726	0,39
1082,14	0,39
1082,554	0,39
1082,968	0,39
1083,382	0,39
1083,796	0,39
1084,21	0,39
1084,624	0,39
1085,038	0,38
1085,452	0,38
1085,866	0,38
1086,28	0,38
1086,694	0,38
1087,108	0,38
1087,521	0,38
1087,935	0,37
1088,349	0,37
1088,763	0,37
1089,176	0,37
1089,59	0,36
1090,004	0,36
1090,417	0,36
1090,831	0,36
1091,244	0,35
1091,658	0,35
1092,071	0,35
1092,485	0,35
1092,898	0,34
1093,312	0,34
1093,725	0,34
1094,138	0,33
1094,552	0,33
1094,965	0,33
1095,378	0,33
1095,791	0,32
1096,205	0,32
1096,618	0,32
1097,031	0,31
1097,444	0,31
1097,857	0,31
1098,27	0,31
1098,683	0,3
1099,096	0,3
1099,509	0,3
1099,922	0,29
1100,335	0,29
1100,748	0,28
1101,161	0,28
1101,574	0,28
1101,986	0,27
1102,399	0,27
1102,812	0,26
1103,225	0,26
1103,637	0,26
1104,05	0,25
1104,463	0,26
1104,875	0,25
1105,288	0,25
1105,7	0,24
1106,113	0,24
1106,525	0,24
1106,938	0,23
1107,35	0,23
1107,763	0,23
1108,175	0,22
1108,588	0,22
1109	0,21
1109,412	0,21
1109,824	0,2
1110,237	0,21
1110,649	0,21
1111,061	0,2
