Data from 18C-808nm-8A-cont_Absorbance__553__01982.txt Node

Date: Mon Jul 17 17:39:38 CEST 2023
User: Laser008
Spectrometer: MAYP115816
Trigger mode: 0
Integration Time (sec): 2,500000E-1
Scans to average: 10
Electric dark correction enabled: true
Nonlinearity correction enabled: true
Boxcar width: 5
XAxis mode: Wavelengths
Number of Pixels in Spectrum: 2068
>>>>>Begin Spectral Data<<<<<
198,914	-0,69
199,384	-0,5
199,855	-0,37
200,325	-0,3
200,796	-0,26
201,266	-0,21
201,737	-0,19
202,207	-0,18
202,677	-0,17
203,147	-0,15
203,618	-0,13
204,088	-0,12
204,558	-0,1
205,028	-0,09
205,498	-0,09
205,968	-0,09
206,439	-0,1
206,909	-0,1
207,379	-0,11
207,849	-0,11
208,319	-0,12
208,789	-0,13
209,258	-0,12
209,728	-0,13
210,198	-0,13
210,668	-0,13
211,138	-0,13
211,608	-0,14
212,077	-0,14
212,547	-0,14
213,017	-0,15
213,486	-0,15
213,956	-0,15
214,426	-0,17
214,895	-0,16
215,365	-0,17
215,834	-0,18
216,304	-0,19
216,773	-0,18
217,243	-0,19
217,712	-0,2
218,181	-0,2
218,651	-0,19
219,12	-0,19
219,589	-0,19
220,058	-0,19
220,528	-0,2
220,997	-0,2
221,466	-0,2
221,935	-0,21
222,404	-0,21
222,873	-0,19
223,342	-0,19
223,812	-0,19
224,281	-0,19
224,749	-0,19
225,218	-0,2
225,687	-0,2
226,156	-0,19
226,625	-0,19
227,094	-0,18
227,563	-0,19
228,031	-0,21
228,5	-0,21
228,969	-0,21
229,438	-0,21
229,906	-0,19
230,375	-0,18
230,844	-0,17
231,312	-0,17
231,781	-0,17
232,249	-0,17
232,718	-0,17
233,186	-0,15
233,655	-0,16
234,123	-0,16
234,591	-0,16
235,06	-0,17
235,528	-0,17
235,996	-0,17
236,465	-0,16
236,933	-0,16
237,401	-0,15
237,869	-0,14
238,337	-0,14
238,805	-0,14
239,274	-0,14
239,742	-0,13
240,21	-0,13
240,678	-0,12
241,146	-0,12
241,614	-0,12
242,081	-0,12
242,549	-0,13
243,017	-0,13
243,485	-0,14
243,953	-0,13
244,421	-0,12
244,888	-0,12
245,356	-0,12
245,824	-0,11
246,291	-0,12
246,759	-0,12
247,227	-0,13
247,694	-0,12
248,162	-0,11
248,629	-0,1
249,097	-0,11
249,564	-0,11
250,032	-0,12
250,499	-0,12
250,967	-0,13
251,434	-0,14
251,901	-0,13
252,369	-0,13
252,836	-0,14
253,303	-0,16
253,77	-0,18
254,237	-0,17
254,705	-0,18
255,172	-0,17
255,639	-0,17
256,106	-0,18
256,573	-0,18
257,04	-0,18
257,507	-0,19
257,974	-0,19
258,441	-0,16
258,908	-0,17
259,375	-0,17
259,841	-0,18
260,308	-0,19
260,775	-0,19
261,242	-0,18
261,709	-0,18
262,175	-0,19
262,642	-0,19
263,109	-0,19
263,575	-0,21
264,042	-0,19
264,508	-0,19
264,975	-0,21
265,441	-0,22
265,908	-0,22
266,374	-0,22
266,841	-0,22
267,307	-0,23
267,773	-0,22
268,24	-0,22
268,706	-0,22
269,172	-0,23
269,639	-0,24
270,105	-0,22
270,571	-0,21
271,037	-0,22
271,503	-0,23
271,969	-0,22
272,435	-0,22
272,902	-0,24
273,368	-0,25
273,834	-0,25
274,3	-0,26
274,765	-0,26
275,231	-0,26
275,697	-0,25
276,163	-0,24
276,629	-0,24
277,095	-0,25
277,56	-0,25
278,026	-0,25
278,492	-0,22
278,958	-0,22
279,423	-0,22
279,889	-0,21
280,354	-0,22
280,82	-0,23
281,286	-0,25
281,751	-0,25
282,217	-0,24
282,682	-0,23
283,147	-0,23
283,613	-0,24
284,078	-0,23
284,544	-0,25
285,009	-0,26
285,474	-0,25
285,939	-0,26
286,405	-0,25
286,87	-0,24
287,335	-0,24
287,8	-0,23
288,265	-0,22
288,73	-0,23
289,195	-0,25
289,66	-0,25
290,125	-0,23
290,59	-0,23
291,055	-0,22
291,52	-0,22
291,985	-0,22
292,45	-0,24
292,915	-0,24
293,38	-0,25
293,844	-0,23
294,309	-0,22
294,774	-0,21
295,239	-0,23
295,703	-0,23
296,168	-0,23
296,632	-0,22
297,097	-0,21
297,562	-0,19
298,026	-0,2
298,491	-0,2
298,955	-0,19
299,419	-0,18
299,884	-0,18
300,348	-0,17
300,813	-0,16
301,277	-0,16
301,741	-0,16
302,205	-0,16
302,67	-0,15
303,134	-0,14
303,598	-0,15
304,062	-0,15
304,526	-0,14
304,99	-0,14
305,454	-0,15
305,919	-0,15
306,383	-0,14
306,847	-0,14
307,31	-0,14
307,774	-0,16
308,238	-0,16
308,702	-0,15
309,166	-0,16
309,63	-0,16
310,094	-0,13
310,557	-0,13
311,021	-0,12
311,485	-0,13
311,948	-0,13
312,412	-0,13
312,876	-0,12
313,339	-0,12
313,803	-0,14
314,266	-0,13
314,73	-0,14
315,193	-0,14
315,657	-0,13
316,12	-0,13
316,584	-0,12
317,047	-0,11
317,51	-0,11
317,973	-0,11
318,437	-0,09
318,9	-0,08
319,363	-0,07
319,826	-0,06
320,29	-0,07
320,753	-0,07
321,216	-0,07
321,679	-0,07
322,142	-0,07
322,605	-0,08
323,068	-0,08
323,531	-0,08
323,994	-0,08
324,457	-0,07
324,92	-0,06
325,382	-0,06
325,845	-0,06
326,308	-0,05
326,771	-0,04
327,233	-0,03
327,696	-0,01
328,159	-0,01
328,622	0
329,084	-0
329,547	0
330,009	0,01
330,472	0,03
330,934	0,03
331,397	0,04
331,859	0,05
332,322	0,04
332,784	0,04
333,246	0,05
333,709	0,05
334,171	0,06
334,633	0,06
335,096	0,05
335,558	0,05
336,02	0,04
336,482	0,04
336,944	0,05
337,406	0,06
337,868	0,07
338,331	0,07
338,793	0,08
339,255	0,08
339,717	0,09
340,178	0,1
340,64	0,11
341,102	0,13
341,564	0,14
342,026	0,14
342,488	0,15
342,949	0,16
343,411	0,19
343,873	0,21
344,335	0,24
344,796	0,28
345,258	0,33
345,719	0,37
346,181	0,42
346,643	0,46
347,104	0,5
347,566	0,54
348,027	0,56
348,488	0,59
348,95	0,61
349,411	0,63
349,873	0,66
350,334	0,68
350,795	0,7
351,256	0,71
351,718	0,72
352,179	0,73
352,64	0,73
353,101	0,73
353,562	0,74
354,023	0,74
354,484	0,74
354,945	0,75
355,406	0,75
355,867	0,75
356,328	0,75
356,789	0,75
357,25	0,76
357,711	0,76
358,172	0,76
358,633	0,76
359,093	0,76
359,554	0,77
360,015	0,77
360,476	0,77
360,936	0,77
361,397	0,77
361,858	0,77
362,318	0,77
362,779	0,77
363,239	0,77
363,7	0,78
364,16	0,78
364,621	0,78
365,081	0,78
365,541	0,78
366,002	0,77
366,462	0,77
366,922	0,77
367,383	0,77
367,843	0,77
368,303	0,77
368,763	0,77
369,223	0,77
369,684	0,77
370,144	0,77
370,604	0,78
371,064	0,78
371,524	0,77
371,984	0,77
372,444	0,77
372,904	0,77
373,363	0,77
373,823	0,77
374,283	0,77
374,743	0,77
375,203	0,77
375,663	0,77
376,122	0,77
376,582	0,77
377,042	0,77
377,501	0,77
377,961	0,77
378,42	0,77
378,88	0,77
379,34	0,77
379,799	0,77
380,259	0,77
380,718	0,77
381,177	0,77
381,637	0,77
382,096	0,76
382,555	0,76
383,015	0,76
383,474	0,76
383,933	0,76
384,393	0,76
384,852	0,76
385,311	0,76
385,77	0,76
386,229	0,76
386,688	0,76
387,147	0,76
387,606	0,76
388,065	0,76
388,524	0,76
388,983	0,76
389,442	0,76
389,901	0,76
390,36	0,76
390,819	0,75
391,277	0,75
391,736	0,75
392,195	0,75
392,654	0,75
393,112	0,75
393,571	0,75
394,03	0,75
394,488	0,75
394,947	0,75
395,405	0,75
395,864	0,75
396,322	0,75
396,781	0,75
397,239	0,75
397,698	0,75
398,156	0,75
398,614	0,75
399,073	0,75
399,531	0,75
399,989	0,75
400,447	0,75
400,905	0,75
401,364	0,75
401,822	0,75
402,28	0,75
402,738	0,74
403,196	0,74
403,654	0,74
404,112	0,74
404,57	0,74
405,028	0,74
405,486	0,74
405,944	0,74
406,402	0,74
406,859	0,74
407,317	0,74
407,775	0,74
408,233	0,74
408,691	0,74
409,148	0,74
409,606	0,74
410,064	0,74
410,521	0,74
410,979	0,74
411,436	0,74
411,894	0,74
412,351	0,74
412,809	0,74
413,266	0,74
413,724	0,74
414,181	0,74
414,638	0,74
415,096	0,74
415,553	0,74
416,01	0,74
416,467	0,74
416,925	0,74
417,382	0,74
417,839	0,74
418,296	0,74
418,753	0,74
419,21	0,73
419,667	0,73
420,124	0,73
420,581	0,73
421,038	0,73
421,495	0,73
421,952	0,73
422,409	0,73
422,866	0,73
423,322	0,73
423,779	0,73
424,236	0,73
424,693	0,73
425,149	0,73
425,606	0,73
426,063	0,73
426,519	0,74
426,976	0,73
427,433	0,73
427,889	0,73
428,346	0,73
428,802	0,73
429,258	0,73
429,715	0,73
430,171	0,73
430,628	0,73
431,084	0,73
431,54	0,73
431,997	0,73
432,453	0,73
432,909	0,73
433,365	0,73
433,821	0,73
434,277	0,73
434,734	0,73
435,19	0,73
435,646	0,73
436,102	0,73
436,558	0,73
437,014	0,73
437,47	0,73
437,925	0,73
438,381	0,73
438,837	0,73
439,293	0,73
439,749	0,73
440,205	0,73
440,66	0,73
441,116	0,73
441,572	0,73
442,027	0,73
442,483	0,73
442,939	0,73
443,394	0,73
443,85	0,73
444,305	0,73
444,761	0,73
445,216	0,73
445,672	0,73
446,127	0,73
446,582	0,73
447,038	0,73
447,493	0,73
447,948	0,73
448,403	0,73
448,859	0,74
449,314	0,74
449,769	0,74
450,224	0,74
450,679	0,74
451,134	0,74
451,589	0,74
452,044	0,74
452,499	0,74
452,954	0,74
453,409	0,74
453,864	0,74
454,319	0,74
454,774	0,74
455,229	0,74
455,684	0,74
456,138	0,74
456,593	0,74
457,048	0,74
457,503	0,74
457,957	0,74
458,412	0,74
458,866	0,74
459,321	0,74
459,776	0,74
460,23	0,74
460,685	0,74
461,139	0,74
461,593	0,75
462,048	0,75
462,502	0,75
462,957	0,75
463,411	0,75
463,865	0,75
464,319	0,75
464,774	0,75
465,228	0,75
465,682	0,75
466,136	0,75
466,59	0,75
467,044	0,76
467,499	0,76
467,953	0,76
468,407	0,76
468,861	0,76
469,315	0,76
469,768	0,76
470,222	0,76
470,676	0,76
471,13	0,76
471,584	0,77
472,038	0,77
472,491	0,77
472,945	0,77
473,399	0,77
473,852	0,77
474,306	0,77
474,76	0,77
475,213	0,77
475,667	0,78
476,12	0,78
476,574	0,78
477,027	0,78
477,481	0,78
477,934	0,78
478,388	0,79
478,841	0,79
479,294	0,79
479,748	0,79
480,201	0,79
480,654	0,8
481,107	0,8
481,561	0,8
482,014	0,8
482,467	0,8
482,92	0,8
483,373	0,81
483,826	0,81
484,279	0,81
484,732	0,81
485,185	0,82
485,638	0,82
486,091	0,82
486,544	0,82
486,997	0,82
487,449	0,83
487,902	0,83
488,355	0,83
488,808	0,84
489,26	0,84
489,713	0,84
490,166	0,85
490,618	0,85
491,071	0,85
491,523	0,86
491,976	0,86
492,429	0,86
492,881	0,87
493,333	0,87
493,786	0,87
494,238	0,88
494,691	0,88
495,143	0,88
495,595	0,89
496,048	0,89
496,5	0,89
496,952	0,9
497,404	0,9
497,856	0,91
498,309	0,91
498,761	0,91
499,213	0,92
499,665	0,92
500,117	0,93
500,569	0,93
501,021	0,94
501,473	0,94
501,925	0,95
502,377	0,95
502,828	0,95
503,28	0,96
503,732	0,96
504,184	0,97
504,636	0,97
505,087	0,98
505,539	0,98
505,991	0,98
506,442	0,99
506,894	0,99
507,345	1
507,797	1
508,249	1,01
508,7	1,01
509,151	1,02
509,603	1,02
510,054	1,02
510,506	1,03
510,957	1,03
511,408	1,04
511,86	1,04
512,311	1,05
512,762	1,05
513,213	1,05
513,665	1,06
514,116	1,06
514,567	1,06
515,018	1,07
515,469	1,07
515,92	1,07
516,371	1,08
516,822	1,08
517,273	1,09
517,724	1,09
518,175	1,09
518,626	1,09
519,076	1,1
519,527	1,1
519,978	1,1
520,429	1,1
520,88	1,11
521,33	1,11
521,781	1,11
522,232	1,11
522,682	1,11
523,133	1,11
523,583	1,12
524,034	1,12
524,484	1,12
524,935	1,12
525,385	1,12
525,836	1,12
526,286	1,12
526,736	1,12
527,187	1,12
527,637	1,12
528,087	1,12
528,538	1,12
528,988	1,12
529,438	1,12
529,888	1,12
530,338	1,12
530,788	1,11
531,238	1,11
531,688	1,11
532,139	1,11
532,589	1,11
533,038	1,1
533,488	1,1
533,938	1,1
534,388	1,1
534,838	1,09
535,288	1,09
535,738	1,09
536,187	1,08
536,637	1,08
537,087	1,07
537,537	1,07
537,986	1,07
538,436	1,06
538,885	1,06
539,335	1,05
539,785	1,04
540,234	1,04
540,684	1,03
541,133	1,03
541,582	1,02
542,032	1,02
542,481	1,01
542,931	1,01
543,38	1
543,829	1
544,278	0,99
544,728	0,99
545,177	0,98
545,626	0,98
546,075	0,97
546,524	0,97
546,973	0,96
547,422	0,96
547,871	0,95
548,32	0,95
548,769	0,94
549,218	0,94
549,667	0,94
550,116	0,93
550,565	0,92
551,014	0,92
551,463	0,91
551,911	0,91
552,36	0,9
552,809	0,9
553,258	0,89
553,706	0,89
554,155	0,88
554,603	0,88
555,052	0,87
555,501	0,87
555,949	0,86
556,398	0,85
556,846	0,85
557,294	0,84
557,743	0,84
558,191	0,83
558,64	0,82
559,088	0,82
559,536	0,81
559,985	0,81
560,433	0,8
560,881	0,8
561,329	0,79
561,777	0,79
562,225	0,78
562,674	0,78
563,122	0,77
563,57	0,77
564,018	0,76
564,466	0,76
564,914	0,75
565,362	0,75
565,809	0,74
566,257	0,74
566,705	0,73
567,153	0,73
567,601	0,72
568,048	0,72
568,496	0,71
568,944	0,71
569,392	0,71
569,839	0,7
570,287	0,7
570,734	0,69
571,182	0,69
571,63	0,69
572,077	0,68
572,525	0,68
572,972	0,67
573,419	0,67
573,867	0,67
574,314	0,66
574,761	0,66
575,209	0,65
575,656	0,65
576,103	0,64
576,551	0,64
576,998	0,64
577,445	0,63
577,892	0,63
578,339	0,63
578,786	0,62
579,233	0,62
579,68	0,62
580,127	0,61
580,574	0,61
581,021	0,61
581,468	0,6
581,915	0,6
582,362	0,6
582,809	0,59
583,255	0,59
583,702	0,59
584,149	0,59
584,596	0,58
585,042	0,58
585,489	0,58
585,936	0,57
586,382	0,57
586,829	0,57
587,275	0,57
587,722	0,57
588,168	0,56
588,615	0,56
589,061	0,56
589,508	0,55
589,954	0,55
590,4	0,55
590,847	0,55
591,293	0,54
591,739	0,54
592,185	0,54
592,632	0,54
593,078	0,54
593,524	0,54
593,97	0,54
594,416	0,53
594,862	0,53
595,308	0,53
595,754	0,53
596,2	0,53
596,646	0,52
597,092	0,52
597,538	0,52
597,984	0,52
598,43	0,52
598,876	0,51
599,321	0,51
599,767	0,51
600,213	0,51
600,659	0,51
601,104	0,51
601,55	0,5
601,995	0,5
602,441	0,5
602,887	0,5
603,332	0,5
603,778	0,5
604,223	0,49
604,668	0,49
605,114	0,49
605,559	0,49
606,005	0,49
606,45	0,49
606,895	0,49
607,341	0,49
607,786	0,49
608,231	0,48
608,676	0,48
609,121	0,47
609,566	0,47
610,012	0,46
610,457	0,46
610,902	0,46
611,347	0,45
611,792	0,45
612,237	0,45
612,682	0,45
613,127	0,45
613,571	0,45
614,016	0,45
614,461	0,45
614,906	0,45
615,351	0,45
615,795	0,45
616,24	0,45
616,685	0,45
617,129	0,45
617,574	0,45
618,019	0,45
618,463	0,45
618,908	0,45
619,352	0,45
619,797	0,45
620,241	0,45
620,686	0,45
621,13	0,45
621,574	0,45
622,019	0,45
622,463	0,44
622,907	0,44
623,352	0,44
623,796	0,44
624,24	0,44
624,684	0,44
625,128	0,44
625,572	0,44
626,016	0,44
626,461	0,44
626,905	0,44
627,349	0,44
627,793	0,44
628,236	0,44
628,68	0,44
629,124	0,44
629,568	0,44
630,012	0,43
630,456	0,43
630,9	0,43
631,343	0,43
631,787	0,43
632,231	0,43
632,674	0,43
633,118	0,43
633,562	0,43
634,005	0,43
634,449	0,43
634,892	0,43
635,336	0,43
635,779	0,43
636,223	0,43
636,666	0,43
637,109	0,43
637,553	0,42
637,996	0,42
638,439	0,42
638,883	0,42
639,326	0,42
639,769	0,42
640,212	0,42
640,655	0,42
641,099	0,42
641,542	0,42
641,985	0,42
642,428	0,42
642,871	0,42
643,314	0,42
643,757	0,41
644,2	0,41
644,643	0,41
645,085	0,41
645,528	0,41
645,971	0,41
646,414	0,41
646,857	0,41
647,299	0,41
647,742	0,41
648,185	0,41
648,627	0,41
649,07	0,41
649,513	0,41
649,955	0,41
650,398	0,41
650,84	0,41
651,283	0,41
651,725	0,41
652,168	0,41
652,61	0,41
653,052	0,41
653,495	0,41
653,937	0,32
654,379	0,27
654,821	0,27
655,264	0,27
655,706	0,27
656,148	0,27
656,59	0,27
657,032	0,27
657,474	0,27
657,916	0,27
658,358	0,26
658,8	0,32
659,242	0,4
659,684	0,4
660,126	0,4
660,568	0,4
661,01	0,4
661,452	0,4
661,894	0,4
662,335	0,4
662,777	0,4
663,219	0,4
663,661	0,4
664,102	0,4
664,544	0,4
664,985	0,4
665,427	0,4
665,869	0,4
666,31	0,4
666,752	0,4
667,193	0,4
667,634	0,4
668,076	0,4
668,517	0,4
668,959	0,4
669,4	0,4
669,841	0,4
670,282	0,4
670,724	0,4
671,165	0,4
671,606	0,4
672,047	0,4
672,488	0,4
672,929	0,4
673,37	0,4
673,811	0,39
674,252	0,39
674,693	0,39
675,134	0,39
675,575	0,39
676,016	0,39
676,457	0,39
676,898	0,39
677,339	0,39
677,78	0,39
678,22	0,39
678,661	0,39
679,102	0,39
679,542	0,39
679,983	0,39
680,424	0,39
680,864	0,39
681,305	0,39
681,745	0,39
682,186	0,39
682,626	0,39
683,067	0,39
683,507	0,39
683,948	0,39
684,388	0,39
684,828	0,39
685,269	0,39
685,709	0,39
686,149	0,39
686,589	0,39
687,029	0,38
687,47	0,38
687,91	0,38
688,35	0,38
688,79	0,38
689,23	0,38
689,67	0,38
690,11	0,38
690,55	0,38
690,99	0,38
691,43	0,38
691,87	0,38
692,31	0,38
692,749	0,38
693,189	0,37
693,629	0,37
694,069	0,37
694,508	0,37
694,948	0,37
695,388	0,37
695,827	0,37
696,267	0,37
696,706	0,37
697,146	0,38
697,586	0,38
698,025	0,38
698,464	0,38
698,904	0,38
699,343	0,38
699,783	0,38
700,222	0,38
700,661	0,38
701,101	0,38
701,54	0,38
701,979	0,38
702,418	0,38
702,857	0,38
703,297	0,38
703,736	0,38
704,175	0,38
704,614	0,38
705,053	0,38
705,492	0,38
705,931	0,38
706,37	0,38
706,809	0,38
707,248	0,38
707,687	0,38
708,125	0,38
708,564	0,37
709,003	0,37
709,442	0,37
709,88	0,37
710,319	0,37
710,758	0,37
711,196	0,37
711,635	0,37
712,074	0,37
712,512	0,37
712,951	0,37
713,389	0,37
713,828	0,37
714,266	0,37
714,705	0,37
715,143	0,37
715,581	0,37
716,02	0,37
716,458	0,37
716,896	0,37
717,334	0,37
717,773	0,37
718,211	0,37
718,649	0,37
719,087	0,37
719,525	0,37
719,963	0,37
720,401	0,37
720,839	0,37
721,277	0,37
721,715	0,37
722,153	0,37
722,591	0,37
723,029	0,37
723,467	0,37
723,905	0,37
724,342	0,37
724,78	0,37
725,218	0,37
725,656	0,37
726,093	0,37
726,531	0,37
726,969	0,37
727,406	0,37
727,844	0,37
728,281	0,37
728,719	0,37
729,156	0,37
729,594	0,37
730,031	0,36
730,469	0,36
730,906	0,36
731,343	0,36
731,781	0,36
732,218	0,36
732,655	0,36
733,092	0,36
733,53	0,36
733,967	0,36
734,404	0,36
734,841	0,36
735,278	0,36
735,715	0,36
736,152	0,36
736,589	0,36
737,026	0,36
737,463	0,36
737,9	0,36
738,337	0,36
738,774	0,36
739,211	0,36
739,647	0,36
740,084	0,36
740,521	0,36
740,958	0,36
741,394	0,36
741,831	0,36
742,268	0,36
742,704	0,36
743,141	0,36
743,577	0,36
744,014	0,36
744,45	0,36
744,887	0,36
745,323	0,35
745,76	0,35
746,196	0,35
746,632	0,35
747,069	0,35
747,505	0,35
747,941	0,35
748,378	0,35
748,814	0,35
749,25	0,35
749,686	0,35
750,122	0,36
750,558	0,36
750,994	0,36
751,43	0,36
751,866	0,36
752,302	0,36
752,738	0,36
753,174	0,36
753,61	0,36
754,046	0,36
754,482	0,36
754,918	0,36
755,354	0,36
755,789	0,36
756,225	0,36
756,661	0,36
757,096	0,36
757,532	0,36
757,968	0,36
758,403	0,35
758,839	0,35
759,274	0,35
759,71	0,35
760,145	0,34
760,581	0,34
761,016	0,33
761,452	0,33
761,887	0,33
762,322	0,32
762,758	0,32
763,193	0,31
763,628	0,31
764,063	0,3
764,499	0,3
764,934	0,29
765,369	0,29
765,804	0,28
766,239	0,27
766,674	0,27
767,109	0,26
767,544	0,25
767,979	0,24
768,414	0,23
768,849	0,22
769,284	0,22
769,719	0,21
770,154	0,2
770,588	0,19
771,023	0,18
771,458	0,17
771,893	0,16
772,327	0,15
772,762	0,14
773,197	0,13
773,631	0,12
774,066	0,12
774,5	0,11
774,935	0,1
775,369	0,09
775,804	0,08
776,238	0,07
776,673	0,07
777,107	0,06
777,541	0,05
777,976	0,05
778,41	0,04
778,844	0,03
779,279	0,03
779,713	0,02
780,147	0,01
780,581	0
781,015	-0,01
781,449	-0,02
781,883	-0,03
782,317	-0,05
782,751	-0,06
783,185	-0,06
783,619	-0,07
784,053	-0,08
784,487	-0,09
784,921	-0,1
785,355	-0,1
785,789	-0,11
786,223	-0,12
786,656	-0,13
787,09	-0,14
787,524	-0,14
787,957	-0,16
788,391	-0,18
788,825	-0,19
789,258	-0,21
789,692	-0,22
790,125	-0,24
790,559	-0,25
790,992	-0,27
791,426	-0,29
791,859	-0,29
792,293	-0,32
792,726	-0,34
793,159	-0,35
793,593	-0,36
794,026	-0,38
794,459	-0,41
794,892	-0,44
795,326	-0,46
795,759	-0,5
796,192	-0,54
796,625	-0,58
797,058	-0,61
797,491	-0,65
797,924	-0,68
798,357	-0,74
798,79	-0,78
799,223	-0,82
799,656	-0,87
800,089	-0,91
800,522	-0,95
800,955	-1
801,387	-1,05
801,82	-1,1
802,253	-1,17
802,686	-1,24
803,118	-1,3
803,551	-1,35
803,984	-1,39
804,416	-1,42
804,849	-1,45
805,281	-1,55
805,714	-1,91
806,146	-2,39
806,579	-2,67
807,011	-2,84
807,444	-2,94
807,876	-3,03
808,308	-3,07
808,741	-3,1
809,173	-3,15
809,605	-3,17
810,037	-3,25
810,47	-3,17
810,902	-2,98
811,334	-2,83
811,766	-2,67
812,198	-2,42
812,63	-1,98
813,062	-1,75
813,494	-1,65
813,926	-1,56
814,358	-1,51
814,79	-1,43
815,222	-1,37
815,654	-1,33
816,086	-1,26
816,518	-1,21
816,949	-1,16
817,381	-1,11
817,813	-1,1
818,245	-1,06
818,676	-1,02
819,108	-0,99
819,54	-0,97
819,971	-0,95
820,403	-0,9
820,834	-0,89
821,266	-0,85
821,697	-0,83
822,129	-0,82
822,56	-0,79
822,991	-0,77
823,423	-0,75
823,854	-0,74
824,286	-0,71
824,717	-0,7
825,148	-0,69
825,579	-0,68
826,01	-0,67
826,442	-0,66
826,873	-0,65
827,304	-0,61
827,735	-0,61
828,166	-0,61
828,597	-0,61
829,028	-0,61
829,459	-0,62
829,89	-0,61
830,321	-0,57
830,752	-0,58
831,183	-0,57
831,613	-0,56
832,044	-0,56
832,475	-0,54
832,906	-0,56
833,336	-0,56
833,767	-0,56
834,198	-0,55
834,628	-0,53
835,059	-0,55
835,49	-0,56
835,92	-0,53
836,351	-0,54
836,781	-0,55
837,212	-0,56
837,642	-0,56
838,072	-0,55
838,503	-0,56
838,933	-0,54
839,364	-0,56
839,794	-0,54
840,224	-0,53
840,654	-0,58
841,085	-0,57
841,515	-0,54
841,945	-0,55
842,375	-0,5
842,805	-0,49
843,235	-0,48
843,665	-0,5
844,095	-0,48
844,525	-0,51
844,955	-0,5
845,385	-0,47
845,815	-0,45
846,245	-0,47
846,675	-0,48
847,105	-0,5
847,534	-0,5
847,964	-0,48
848,394	-0,47
848,824	-0,5
849,253	-0,48
849,683	-0,49
850,112	-0,5
850,542	-0,53
850,972	-0,53
851,401	-0,51
851,831	-0,5
852,26	-0,5
852,69	-0,54
853,119	-0,54
853,548	-0,54
853,978	-0,55
854,407	-0,54
854,836	-0,54
855,266	-0,54
855,695	-0,56
856,124	-0,57
856,553	-0,58
856,983	-0,59
857,412	-0,58
857,841	-0,59
858,27	-0,6
858,699	-0,59
859,128	-0,62
859,557	-0,63
859,986	-0,63
860,415	-0,6
860,844	-0,57
861,273	-0,57
861,702	-0,58
862,13	-0,57
862,559	-0,58
862,988	-0,56
863,417	-0,55
863,845	-0,55
864,274	-0,56
864,703	-0,55
865,131	-0,57
865,56	-0,58
865,989	-0,61
866,417	-0,58
866,846	-0,58
867,274	-0,58
867,703	-0,61
868,131	-0,62
868,559	-0,62
868,988	-0,64
869,416	-0,64
869,844	-0,65
870,273	-0,67
870,701	-0,65
871,129	-0,69
871,557	-0,71
871,986	-0,71
872,414	-0,72
872,842	-0,7
873,27	-0,67
873,698	-0,65
874,126	-0,69
874,554	-0,67
874,982	-0,67
875,41	-0,7
875,838	-0,65
876,266	-0,63
876,694	-0,63
877,122	-0,61
877,549	-0,66
877,977	-0,64
878,405	-0,66
878,833	-0,62
879,26	-0,6
879,688	-0,6
880,116	-0,58
880,543	-0,56
880,971	-0,56
881,399	-0,59
881,826	-0,6
882,254	-0,57
882,681	-0,61
883,109	-0,57
883,536	-0,58
883,963	-0,6
884,391	-0,58
884,818	-0,56
885,245	-0,6
885,673	-0,62
886,1	-0,59
886,527	-0,59
886,954	-0,56
887,381	-0,57
887,809	-0,58
888,236	-0,6
888,663	-0,61
889,09	-0,65
889,517	-0,67
889,944	-0,66
890,371	-0,65
890,798	-0,65
891,225	-0,65
891,652	-0,68
892,078	-0,66
892,505	-0,69
892,932	-0,65
893,359	-0,65
893,786	-0,65
894,212	-0,62
894,639	-0,64
895,066	-0,67
895,492	-0,61
895,919	-0,61
896,346	-0,61
896,772	-0,61
897,199	-0,57
897,625	-0,6
898,052	-0,56
898,478	-0,54
898,904	-0,55
899,331	-0,55
899,757	-0,56
900,183	-0,58
900,61	-0,56
901,036	-0,57
901,462	-0,57
901,888	-0,56
902,315	-0,54
902,741	-0,6
903,167	-0,59
903,593	-0,62
904,019	-0,6
904,445	-0,57
904,871	-0,6
905,297	-0,63
905,723	-0,62
906,149	-0,61
906,575	-0,62
907,001	-0,62
907,427	-0,59
907,852	-0,58
908,278	-0,58
908,704	-0,56
909,13	-0,55
909,555	-0,54
909,981	-0,53
910,407	-0,54
910,832	-0,53
911,258	-0,53
911,684	-0,53
912,109	-0,54
912,535	-0,56
912,96	-0,52
913,386	-0,56
913,811	-0,56
914,236	-0,58
914,662	-0,56
915,087	-0,59
915,512	-0,6
915,938	-0,62
916,363	-0,62
916,788	-0,63
917,213	-0,61
917,639	-0,66
918,064	-0,63
918,489	-0,64
918,914	-0,64
919,339	-0,65
919,764	-0,62
920,189	-0,62
920,614	-0,64
921,039	-0,64
921,464	-0,6
921,889	-0,62
922,314	-0,63
922,738	-0,66
923,163	-0,66
923,588	-0,66
924,013	-0,66
924,437	-0,66
924,862	-0,67
925,287	-0,62
925,711	-0,64
926,136	-0,64
926,561	-0,63
926,985	-0,62
927,41	-0,59
927,834	-0,57
928,259	-0,54
928,683	-0,53
929,108	-0,49
929,532	-0,51
929,956	-0,49
930,381	-0,48
930,805	-0,49
931,229	-0,48
931,653	-0,46
932,078	-0,46
932,502	-0,47
932,926	-0,48
933,35	-0,48
933,774	-0,48
934,198	-0,46
934,622	-0,45
935,046	-0,46
935,47	-0,47
935,894	-0,46
936,318	-0,46
936,742	-0,46
937,166	-0,47
937,59	-0,46
938,014	-0,48
938,437	-0,49
938,861	-0,51
939,285	-0,51
939,709	-0,5
940,132	-0,51
940,556	-0,52
940,98	-0,51
941,403	-0,49
941,827	-0,49
942,25	-0,51
942,674	-0,49
943,097	-0,48
943,521	-0,49
943,944	-0,5
944,368	-0,49
944,791	-0,48
945,214	-0,5
945,638	-0,5
946,061	-0,54
946,484	-0,54
946,907	-0,53
947,331	-0,54
947,754	-0,57
948,177	-0,54
948,6	-0,54
949,023	-0,54
949,446	-0,54
949,869	-0,52
950,292	-0,52
950,715	-0,49
951,138	-0,47
951,561	-0,45
951,984	-0,46
952,407	-0,44
952,83	-0,43
953,252	-0,38
953,675	-0,38
954,098	-0,39
954,521	-0,38
954,943	-0,37
955,366	-0,38
955,789	-0,37
956,211	-0,38
956,634	-0,39
957,056	-0,36
957,479	-0,37
957,902	-0,4
958,324	-0,41
958,746	-0,39
959,169	-0,4
959,591	-0,41
960,014	-0,42
960,436	-0,42
960,858	-0,41
961,281	-0,41
961,703	-0,42
962,125	-0,42
962,547	-0,4
962,969	-0,4
963,391	-0,4
963,814	-0,41
964,236	-0,4
964,658	-0,37
965,08	-0,37
965,502	-0,36
965,924	-0,33
966,346	-0,33
966,768	-0,32
967,189	-0,34
967,611	-0,34
968,033	-0,34
968,455	-0,32
968,877	-0,33
969,298	-0,33
969,72	-0,35
970,142	-0,34
970,563	-0,35
970,985	-0,34
971,407	-0,33
971,828	-0,31
972,25	-0,3
972,671	-0,29
973,093	-0,29
973,514	-0,28
973,936	-0,27
974,357	-0,25
974,778	-0,26
975,2	-0,24
975,621	-0,24
976,042	-0,22
976,464	-0,22
976,885	-0,2
977,306	-0,19
977,727	-0,18
978,148	-0,18
978,57	-0,16
978,991	-0,15
979,412	-0,13
979,833	-0,12
980,254	-0,11
980,675	-0,11
981,096	-0,1
981,517	-0,08
981,937	-0,08
982,358	-0,07
982,779	-0,05
983,2	-0,05
983,621	-0,05
984,042	-0,04
984,462	-0,02
984,883	-0,01
985,304	-0
985,724	0,01
986,145	0,02
986,565	0,04
986,986	0,05
987,407	0,06
987,827	0,07
988,248	0,09
988,668	0,1
989,088	0,11
989,509	0,12
989,929	0,13
990,35	0,14
990,77	0,16
991,19	0,16
991,61	0,17
992,031	0,18
992,451	0,19
992,871	0,2
993,291	0,21
993,711	0,22
994,131	0,22
994,551	0,23
994,971	0,24
995,391	0,24
995,811	0,25
996,231	0,25
996,651	0,26
997,071	0,26
997,491	0,27
997,911	0,28
998,331	0,29
998,75	0,3
999,17	0,3
999,59	0,3
1000,009	0,31
1000,429	0,31
1000,849	0,32
1001,268	0,32
1001,688	0,32
1002,107	0,33
1002,527	0,33
1002,946	0,33
1003,366	0,33
1003,785	0,34
1004,205	0,34
1004,624	0,34
1005,044	0,35
1005,463	0,35
1005,882	0,35
1006,301	0,35
1006,721	0,35
1007,14	0,36
1007,559	0,36
1007,978	0,36
1008,397	0,36
1008,816	0,36
1009,235	0,36
1009,655	0,36
1010,074	0,36
1010,492	0,36
1010,911	0,35
1011,33	0,35
1011,749	0,35
1012,168	0,35
1012,587	0,35
1013,006	0,35
1013,425	0,35
1013,843	0,35
1014,262	0,35
1014,681	0,35
1015,099	0,35
1015,518	0,35
1015,937	0,35
1016,355	0,35
1016,774	0,35
1017,192	0,35
1017,611	0,35
1018,029	0,35
1018,448	0,35
1018,866	0,35
1019,285	0,35
1019,703	0,35
1020,121	0,35
1020,54	0,35
1020,958	0,35
1021,376	0,35
1021,794	0,35
1022,213	0,35
1022,631	0,35
1023,049	0,35
1023,467	0,35
1023,885	0,35
1024,303	0,34
1024,721	0,34
1025,139	0,34
1025,557	0,34
1025,975	0,34
1026,393	0,34
1026,811	0,34
1027,229	0,34
1027,647	0,34
1028,065	0,34
1028,482	0,34
1028,9	0,34
1029,318	0,34
1029,735	0,34
1030,153	0,34
1030,571	0,34
1030,988	0,34
1031,406	0,34
1031,823	0,34
1032,241	0,34
1032,659	0,34
1033,076	0,34
1033,493	0,34
1033,911	0,34
1034,328	0,34
1034,746	0,34
1035,163	0,34
1035,58	0,34
1035,997	0,34
1036,415	0,34
1036,832	0,34
1037,249	0,34
1037,666	0,34
1038,083	0,34
1038,501	0,34
1038,918	0,34
1039,335	0,34
1039,752	0,34
1040,169	0,34
1040,586	0,34
1041,003	0,34
1041,419	0,34
1041,836	0,34
1042,253	0,34
1042,67	0,34
1043,087	0,33
1043,504	0,34
1043,92	0,33
1044,337	0,33
1044,754	0,33
1045,17	0,33
1045,587	0,33
1046,004	0,33
1046,42	0,33
1046,837	0,33
1047,253	0,33
1047,67	0,33
1048,086	0,33
1048,503	0,33
1048,919	0,33
1049,335	0,33
1049,752	0,33
1050,168	0,33
1050,584	0,33
1051,001	0,33
1051,417	0,33
1051,833	0,33
1052,249	0,33
1052,665	0,33
1053,081	0,33
1053,497	0,33
1053,914	0,33
1054,33	0,34
1054,746	0,34
1055,162	0,34
1055,578	0,34
1055,993	0,34
1056,409	0,34
1056,825	0,34
1057,241	0,34
1057,657	0,34
1058,073	0,34
1058,488	0,34
1058,904	0,34
1059,32	0,34
1059,736	0,34
1060,151	0,34
1060,567	0,34
1060,982	0,34
1061,398	0,34
1061,813	0,34
1062,229	0,34
1062,644	0,34
1063,06	0,34
1063,475	0,34
1063,891	0,34
1064,306	0,34
1064,721	0,34
1065,137	0,34
1065,552	0,34
1065,967	0,34
1066,382	0,34
1066,798	0,34
1067,213	0,34
1067,628	0,34
1068,043	0,34
1068,458	0,34
1068,873	0,34
1069,288	0,34
1069,703	0,34
1070,118	0,34
1070,533	0,34
1070,948	0,34
1071,363	0,34
1071,778	0,34
1072,193	0,34
1072,607	0,34
1073,022	0,34
1073,437	0,34
1073,852	0,34
1074,266	0,34
1074,681	0,34
1075,096	0,34
1075,51	0,34
1075,925	0,34
1076,339	0,34
1076,754	0,34
1077,168	0,34
1077,583	0,34
1077,997	0,34
1078,412	0,34
1078,826	0,34
1079,24	0,34
1079,655	0,34
1080,069	0,34
1080,483	0,34
1080,897	0,34
1081,312	0,34
1081,726	0,34
1082,14	0,34
1082,554	0,33
1082,968	0,33
1083,382	0,33
1083,796	0,33
1084,21	0,33
1084,624	0,33
1085,038	0,33
1085,452	0,33
1085,866	0,32
1086,28	0,32
1086,694	0,32
1087,108	0,32
1087,521	0,32
1087,935	0,32
1088,349	0,32
1088,763	0,31
1089,176	0,31
1089,59	0,31
1090,004	0,31
1090,417	0,3
1090,831	0,3
1091,244	0,3
1091,658	0,3
1092,071	0,29
1092,485	0,29
1092,898	0,29
1093,312	0,29
1093,725	0,28
1094,138	0,28
1094,552	0,28
1094,965	0,28
1095,378	0,28
1095,791	0,28
1096,205	0,27
1096,618	0,27
1097,031	0,27
1097,444	0,27
1097,857	0,26
1098,27	0,26
1098,683	0,26
1099,096	0,25
1099,509	0,25
1099,922	0,25
1100,335	0,24
1100,748	0,24
1101,161	0,23
1101,574	0,23
1101,986	0,22
1102,399	0,23
1102,812	0,22
1103,225	0,22
1103,637	0,21
1104,05	0,21
1104,463	0,21
1104,875	0,21
1105,288	0,21
1105,7	0,21
1106,113	0,2
1106,525	0,2
1106,938	0,19
1107,35	0,19
1107,763	0,19
1108,175	0,18
1108,588	0,18
1109	0,17
1109,412	0,17
1109,824	0,16
1110,237	0,16
1110,649	0,15
1111,061	0,14
