Data from 18C-808nm-8A-cont_Absorbance__332__01761.txt Node

Date: Mon Jul 17 17:30:25 CEST 2023
User: Laser008
Spectrometer: MAYP115816
Trigger mode: 0
Integration Time (sec): 2,500000E-1
Scans to average: 10
Electric dark correction enabled: true
Nonlinearity correction enabled: true
Boxcar width: 5
XAxis mode: Wavelengths
Number of Pixels in Spectrum: 2068
>>>>>Begin Spectral Data<<<<<
198,914	-0,66
199,384	-0,47
199,855	-0,35
200,325	-0,26
200,796	-0,23
201,266	-0,17
201,737	-0,17
202,207	-0,16
202,677	-0,14
203,147	-0,13
203,618	-0,1
204,088	-0,08
204,558	-0,07
205,028	-0,06
205,498	-0,07
205,968	-0,07
206,439	-0,1
206,909	-0,08
207,379	-0,09
207,849	-0,1
208,319	-0,1
208,789	-0,11
209,258	-0,11
209,728	-0,13
210,198	-0,14
210,668	-0,14
211,138	-0,13
211,608	-0,13
212,077	-0,13
212,547	-0,13
213,017	-0,13
213,486	-0,13
213,956	-0,14
214,426	-0,14
214,895	-0,13
215,365	-0,14
215,834	-0,13
216,304	-0,14
216,773	-0,13
217,243	-0,15
217,712	-0,16
218,181	-0,16
218,651	-0,16
219,12	-0,14
219,589	-0,14
220,058	-0,13
220,528	-0,14
220,997	-0,16
221,466	-0,17
221,935	-0,17
222,404	-0,17
222,873	-0,16
223,342	-0,16
223,812	-0,17
224,281	-0,18
224,749	-0,19
225,218	-0,2
225,687	-0,2
226,156	-0,18
226,625	-0,17
227,094	-0,17
227,563	-0,18
228,031	-0,19
228,5	-0,2
228,969	-0,2
229,438	-0,19
229,906	-0,18
230,375	-0,17
230,844	-0,16
231,312	-0,17
231,781	-0,18
232,249	-0,17
232,718	-0,17
233,186	-0,15
233,655	-0,15
234,123	-0,14
234,591	-0,14
235,06	-0,13
235,528	-0,14
235,996	-0,14
236,465	-0,14
236,933	-0,13
237,401	-0,13
237,869	-0,13
238,337	-0,13
238,805	-0,12
239,274	-0,11
239,742	-0,11
240,21	-0,11
240,678	-0,1
241,146	-0,1
241,614	-0,1
242,081	-0,09
242,549	-0,1
243,017	-0,1
243,485	-0,1
243,953	-0,1
244,421	-0,1
244,888	-0,1
245,356	-0,1
245,824	-0,1
246,291	-0,11
246,759	-0,12
247,227	-0,12
247,694	-0,11
248,162	-0,11
248,629	-0,1
249,097	-0,11
249,564	-0,12
250,032	-0,12
250,499	-0,13
250,967	-0,13
251,434	-0,13
251,901	-0,12
252,369	-0,12
252,836	-0,13
253,303	-0,15
253,77	-0,16
254,237	-0,16
254,705	-0,16
255,172	-0,15
255,639	-0,15
256,106	-0,17
256,573	-0,16
257,04	-0,17
257,507	-0,17
257,974	-0,18
258,441	-0,15
258,908	-0,15
259,375	-0,16
259,841	-0,16
260,308	-0,17
260,775	-0,16
261,242	-0,15
261,709	-0,15
262,175	-0,17
262,642	-0,16
263,109	-0,15
263,575	-0,15
264,042	-0,14
264,508	-0,14
264,975	-0,15
265,441	-0,15
265,908	-0,16
266,374	-0,16
266,841	-0,16
267,307	-0,17
267,773	-0,16
268,24	-0,17
268,706	-0,18
269,172	-0,19
269,639	-0,21
270,105	-0,19
270,571	-0,19
271,037	-0,2
271,503	-0,2
271,969	-0,19
272,435	-0,18
272,902	-0,2
273,368	-0,21
273,834	-0,2
274,3	-0,21
274,765	-0,21
275,231	-0,21
275,697	-0,21
276,163	-0,2
276,629	-0,2
277,095	-0,22
277,56	-0,21
278,026	-0,21
278,492	-0,2
278,958	-0,2
279,423	-0,21
279,889	-0,2
280,354	-0,21
280,82	-0,2
281,286	-0,22
281,751	-0,22
282,217	-0,21
282,682	-0,21
283,147	-0,21
283,613	-0,22
284,078	-0,22
284,544	-0,22
285,009	-0,23
285,474	-0,23
285,939	-0,24
286,405	-0,23
286,87	-0,23
287,335	-0,22
287,8	-0,21
288,265	-0,2
288,73	-0,21
289,195	-0,23
289,66	-0,23
290,125	-0,22
290,59	-0,22
291,055	-0,21
291,52	-0,22
291,985	-0,22
292,45	-0,23
292,915	-0,23
293,38	-0,23
293,844	-0,21
294,309	-0,2
294,774	-0,19
295,239	-0,2
295,703	-0,2
296,168	-0,19
296,632	-0,18
297,097	-0,17
297,562	-0,17
298,026	-0,17
298,491	-0,18
298,955	-0,17
299,419	-0,16
299,884	-0,17
300,348	-0,16
300,813	-0,14
301,277	-0,15
301,741	-0,15
302,205	-0,15
302,67	-0,13
303,134	-0,13
303,598	-0,13
304,062	-0,12
304,526	-0,13
304,99	-0,13
305,454	-0,13
305,919	-0,13
306,383	-0,12
306,847	-0,12
307,31	-0,12
307,774	-0,13
308,238	-0,13
308,702	-0,12
309,166	-0,14
309,63	-0,13
310,094	-0,11
310,557	-0,11
311,021	-0,11
311,485	-0,11
311,948	-0,12
312,412	-0,11
312,876	-0,1
313,339	-0,11
313,803	-0,12
314,266	-0,11
314,73	-0,11
315,193	-0,11
315,657	-0,1
316,12	-0,1
316,584	-0,08
317,047	-0,07
317,51	-0,06
317,973	-0,06
318,437	-0,04
318,9	-0,04
319,363	-0,03
319,826	-0,02
320,29	-0,02
320,753	-0,02
321,216	-0,03
321,679	-0,03
322,142	-0,03
322,605	-0,05
323,068	-0,05
323,531	-0,05
323,994	-0,05
324,457	-0,05
324,92	-0,04
325,382	-0,03
325,845	-0,03
326,308	-0,02
326,771	-0,02
327,233	-0,01
327,696	0,01
328,159	0,01
328,622	0,02
329,084	0,02
329,547	0,03
330,009	0,03
330,472	0,04
330,934	0,05
331,397	0,05
331,859	0,06
332,322	0,06
332,784	0,06
333,246	0,06
333,709	0,07
334,171	0,07
334,633	0,07
335,096	0,08
335,558	0,08
336,02	0,08
336,482	0,08
336,944	0,09
337,406	0,09
337,868	0,1
338,331	0,1
338,793	0,11
339,255	0,11
339,717	0,12
340,178	0,13
340,64	0,13
341,102	0,14
341,564	0,15
342,026	0,16
342,488	0,18
342,949	0,19
343,411	0,22
343,873	0,25
344,335	0,28
344,796	0,32
345,258	0,36
345,719	0,41
346,181	0,45
346,643	0,49
347,104	0,53
347,566	0,56
348,027	0,59
348,488	0,61
348,95	0,64
349,411	0,66
349,873	0,69
350,334	0,7
350,795	0,72
351,256	0,73
351,718	0,74
352,179	0,75
352,64	0,75
353,101	0,75
353,562	0,76
354,023	0,76
354,484	0,76
354,945	0,77
355,406	0,77
355,867	0,77
356,328	0,78
356,789	0,78
357,25	0,78
357,711	0,78
358,172	0,78
358,633	0,79
359,093	0,79
359,554	0,79
360,015	0,79
360,476	0,79
360,936	0,79
361,397	0,79
361,858	0,8
362,318	0,8
362,779	0,8
363,239	0,8
363,7	0,8
364,16	0,8
364,621	0,8
365,081	0,8
365,541	0,8
366,002	0,8
366,462	0,8
366,922	0,8
367,383	0,8
367,843	0,8
368,303	0,8
368,763	0,8
369,223	0,8
369,684	0,8
370,144	0,8
370,604	0,8
371,064	0,8
371,524	0,8
371,984	0,8
372,444	0,8
372,904	0,8
373,363	0,8
373,823	0,8
374,283	0,8
374,743	0,8
375,203	0,8
375,663	0,8
376,122	0,8
376,582	0,8
377,042	0,8
377,501	0,8
377,961	0,8
378,42	0,8
378,88	0,8
379,34	0,8
379,799	0,8
380,259	0,8
380,718	0,79
381,177	0,79
381,637	0,79
382,096	0,79
382,555	0,79
383,015	0,79
383,474	0,79
383,933	0,79
384,393	0,79
384,852	0,79
385,311	0,79
385,77	0,79
386,229	0,79
386,688	0,79
387,147	0,79
387,606	0,79
388,065	0,79
388,524	0,79
388,983	0,79
389,442	0,79
389,901	0,79
390,36	0,79
390,819	0,79
391,277	0,79
391,736	0,79
392,195	0,79
392,654	0,79
393,112	0,78
393,571	0,78
394,03	0,78
394,488	0,78
394,947	0,78
395,405	0,78
395,864	0,78
396,322	0,78
396,781	0,78
397,239	0,78
397,698	0,78
398,156	0,78
398,614	0,78
399,073	0,78
399,531	0,78
399,989	0,78
400,447	0,78
400,905	0,78
401,364	0,78
401,822	0,78
402,28	0,78
402,738	0,78
403,196	0,78
403,654	0,78
404,112	0,78
404,57	0,78
405,028	0,78
405,486	0,78
405,944	0,78
406,402	0,78
406,859	0,78
407,317	0,78
407,775	0,78
408,233	0,78
408,691	0,78
409,148	0,78
409,606	0,78
410,064	0,78
410,521	0,78
410,979	0,78
411,436	0,78
411,894	0,77
412,351	0,77
412,809	0,77
413,266	0,77
413,724	0,77
414,181	0,77
414,638	0,77
415,096	0,77
415,553	0,77
416,01	0,77
416,467	0,77
416,925	0,77
417,382	0,77
417,839	0,77
418,296	0,77
418,753	0,77
419,21	0,77
419,667	0,77
420,124	0,77
420,581	0,77
421,038	0,77
421,495	0,77
421,952	0,77
422,409	0,77
422,866	0,77
423,322	0,77
423,779	0,77
424,236	0,77
424,693	0,77
425,149	0,77
425,606	0,77
426,063	0,77
426,519	0,77
426,976	0,77
427,433	0,77
427,889	0,77
428,346	0,77
428,802	0,77
429,258	0,77
429,715	0,77
430,171	0,77
430,628	0,77
431,084	0,77
431,54	0,77
431,997	0,77
432,453	0,77
432,909	0,77
433,365	0,77
433,821	0,77
434,277	0,76
434,734	0,76
435,19	0,76
435,646	0,76
436,102	0,76
436,558	0,76
437,014	0,76
437,47	0,76
437,925	0,77
438,381	0,77
438,837	0,77
439,293	0,77
439,749	0,77
440,205	0,77
440,66	0,77
441,116	0,77
441,572	0,77
442,027	0,77
442,483	0,77
442,939	0,77
443,394	0,77
443,85	0,77
444,305	0,77
444,761	0,77
445,216	0,77
445,672	0,77
446,127	0,77
446,582	0,77
447,038	0,77
447,493	0,77
447,948	0,77
448,403	0,77
448,859	0,77
449,314	0,77
449,769	0,77
450,224	0,77
450,679	0,77
451,134	0,77
451,589	0,78
452,044	0,78
452,499	0,78
452,954	0,78
453,409	0,78
453,864	0,78
454,319	0,78
454,774	0,78
455,229	0,78
455,684	0,78
456,138	0,78
456,593	0,78
457,048	0,78
457,503	0,78
457,957	0,78
458,412	0,78
458,866	0,78
459,321	0,78
459,776	0,78
460,23	0,78
460,685	0,78
461,139	0,78
461,593	0,78
462,048	0,78
462,502	0,78
462,957	0,78
463,411	0,79
463,865	0,79
464,319	0,79
464,774	0,79
465,228	0,79
465,682	0,79
466,136	0,79
466,59	0,79
467,044	0,79
467,499	0,79
467,953	0,8
468,407	0,8
468,861	0,8
469,315	0,8
469,768	0,8
470,222	0,8
470,676	0,8
471,13	0,8
471,584	0,8
472,038	0,8
472,491	0,8
472,945	0,8
473,399	0,8
473,852	0,81
474,306	0,81
474,76	0,81
475,213	0,81
475,667	0,81
476,12	0,81
476,574	0,81
477,027	0,81
477,481	0,82
477,934	0,82
478,388	0,82
478,841	0,82
479,294	0,82
479,748	0,82
480,201	0,83
480,654	0,83
481,107	0,83
481,561	0,83
482,014	0,83
482,467	0,83
482,92	0,84
483,373	0,84
483,826	0,84
484,279	0,84
484,732	0,84
485,185	0,84
485,638	0,85
486,091	0,85
486,544	0,85
486,997	0,85
487,449	0,86
487,902	0,86
488,355	0,86
488,808	0,86
489,26	0,87
489,713	0,87
490,166	0,87
490,618	0,87
491,071	0,88
491,523	0,88
491,976	0,88
492,429	0,89
492,881	0,89
493,333	0,89
493,786	0,9
494,238	0,9
494,691	0,9
495,143	0,9
495,595	0,91
496,048	0,91
496,5	0,92
496,952	0,92
497,404	0,92
497,856	0,93
498,309	0,93
498,761	0,93
499,213	0,94
499,665	0,94
500,117	0,95
500,569	0,95
501,021	0,95
501,473	0,96
501,925	0,96
502,377	0,96
502,828	0,97
503,28	0,97
503,732	0,98
504,184	0,98
504,636	0,98
505,087	0,99
505,539	0,99
505,991	1
506,442	1
506,894	1
507,345	1,01
507,797	1,01
508,249	1,02
508,7	1,02
509,151	1,02
509,603	1,03
510,054	1,03
510,506	1,03
510,957	1,04
511,408	1,04
511,86	1,05
512,311	1,05
512,762	1,05
513,213	1,06
513,665	1,06
514,116	1,06
514,567	1,07
515,018	1,07
515,469	1,07
515,92	1,08
516,371	1,08
516,822	1,08
517,273	1,08
517,724	1,09
518,175	1,09
518,626	1,09
519,076	1,09
519,527	1,1
519,978	1,1
520,429	1,1
520,88	1,1
521,33	1,11
521,781	1,11
522,232	1,11
522,682	1,11
523,133	1,11
523,583	1,12
524,034	1,12
524,484	1,12
524,935	1,12
525,385	1,12
525,836	1,12
526,286	1,12
526,736	1,12
527,187	1,12
527,637	1,12
528,087	1,12
528,538	1,12
528,988	1,12
529,438	1,12
529,888	1,12
530,338	1,11
530,788	1,11
531,238	1,11
531,688	1,11
532,139	1,11
532,589	1,11
533,038	1,11
533,488	1,1
533,938	1,1
534,388	1,1
534,838	1,1
535,288	1,09
535,738	1,09
536,187	1,09
536,637	1,08
537,087	1,08
537,537	1,08
537,986	1,07
538,436	1,07
538,885	1,06
539,335	1,06
539,785	1,05
540,234	1,05
540,684	1,04
541,133	1,04
541,582	1,04
542,032	1,03
542,481	1,03
542,931	1,02
543,38	1,01
543,829	1,01
544,278	1
544,728	1
545,177	1
545,626	0,99
546,075	0,99
546,524	0,98
546,973	0,98
547,422	0,97
547,871	0,97
548,32	0,97
548,769	0,97
549,218	0,96
549,667	0,96
550,116	0,96
550,565	0,95
551,014	0,95
551,463	0,94
551,911	0,94
552,36	0,93
552,809	0,93
553,258	0,92
553,706	0,92
554,155	0,92
554,603	0,91
555,052	0,91
555,501	0,9
555,949	0,9
556,398	0,89
556,846	0,89
557,294	0,88
557,743	0,88
558,191	0,88
558,64	0,87
559,088	0,86
559,536	0,86
559,985	0,85
560,433	0,85
560,881	0,85
561,329	0,84
561,777	0,84
562,225	0,83
562,674	0,83
563,122	0,82
563,57	0,82
564,018	0,82
564,466	0,81
564,914	0,81
565,362	0,8
565,809	0,8
566,257	0,8
566,705	0,79
567,153	0,79
567,601	0,78
568,048	0,78
568,496	0,78
568,944	0,77
569,392	0,77
569,839	0,76
570,287	0,76
570,734	0,76
571,182	0,75
571,63	0,75
572,077	0,75
572,525	0,74
572,972	0,74
573,419	0,74
573,867	0,73
574,314	0,73
574,761	0,73
575,209	0,72
575,656	0,72
576,103	0,71
576,551	0,71
576,998	0,71
577,445	0,71
577,892	0,7
578,339	0,7
578,786	0,7
579,233	0,69
579,68	0,69
580,127	0,69
580,574	0,69
581,021	0,68
581,468	0,68
581,915	0,68
582,362	0,67
582,809	0,67
583,255	0,67
583,702	0,67
584,149	0,67
584,596	0,66
585,042	0,66
585,489	0,66
585,936	0,66
586,382	0,65
586,829	0,65
587,275	0,65
587,722	0,65
588,168	0,65
588,615	0,64
589,061	0,64
589,508	0,64
589,954	0,64
590,4	0,63
590,847	0,63
591,293	0,63
591,739	0,63
592,185	0,63
592,632	0,63
593,078	0,62
593,524	0,62
593,97	0,62
594,416	0,62
594,862	0,62
595,308	0,62
595,754	0,62
596,2	0,61
596,646	0,61
597,092	0,61
597,538	0,61
597,984	0,61
598,43	0,61
598,876	0,6
599,321	0,6
599,767	0,6
600,213	0,6
600,659	0,6
601,104	0,6
601,55	0,6
601,995	0,6
602,441	0,59
602,887	0,59
603,332	0,59
603,778	0,59
604,223	0,59
604,668	0,59
605,114	0,59
605,559	0,59
606,005	0,58
606,45	0,58
606,895	0,58
607,341	0,58
607,786	0,58
608,231	0,58
608,676	0,57
609,121	0,57
609,566	0,56
610,012	0,56
610,457	0,55
610,902	0,55
611,347	0,55
611,792	0,54
612,237	0,54
612,682	0,54
613,127	0,54
613,571	0,54
614,016	0,55
614,461	0,55
614,906	0,55
615,351	0,55
615,795	0,55
616,24	0,55
616,685	0,55
617,129	0,55
617,574	0,55
618,019	0,55
618,463	0,55
618,908	0,55
619,352	0,55
619,797	0,55
620,241	0,55
620,686	0,55
621,13	0,55
621,574	0,55
622,019	0,54
622,463	0,54
622,907	0,54
623,352	0,54
623,796	0,54
624,24	0,54
624,684	0,54
625,128	0,54
625,572	0,54
626,016	0,54
626,461	0,54
626,905	0,54
627,349	0,54
627,793	0,54
628,236	0,54
628,68	0,54
629,124	0,54
629,568	0,54
630,012	0,54
630,456	0,54
630,9	0,54
631,343	0,54
631,787	0,54
632,231	0,54
632,674	0,54
633,118	0,54
633,562	0,54
634,005	0,54
634,449	0,53
634,892	0,53
635,336	0,53
635,779	0,53
636,223	0,53
636,666	0,53
637,109	0,53
637,553	0,53
637,996	0,53
638,439	0,53
638,883	0,53
639,326	0,53
639,769	0,53
640,212	0,53
640,655	0,53
641,099	0,53
641,542	0,53
641,985	0,52
642,428	0,52
642,871	0,52
643,314	0,52
643,757	0,52
644,2	0,52
644,643	0,52
645,085	0,52
645,528	0,52
645,971	0,52
646,414	0,52
646,857	0,52
647,299	0,52
647,742	0,52
648,185	0,52
648,627	0,52
649,07	0,52
649,513	0,52
649,955	0,52
650,398	0,52
650,84	0,52
651,283	0,52
651,725	0,52
652,168	0,52
652,61	0,52
653,052	0,52
653,495	0,52
653,937	0,43
654,379	0,37
654,821	0,38
655,264	0,38
655,706	0,38
656,148	0,38
656,59	0,38
657,032	0,38
657,474	0,38
657,916	0,38
658,358	0,37
658,8	0,43
659,242	0,52
659,684	0,52
660,126	0,51
660,568	0,51
661,01	0,51
661,452	0,51
661,894	0,51
662,335	0,51
662,777	0,51
663,219	0,51
663,661	0,51
664,102	0,51
664,544	0,51
664,985	0,51
665,427	0,51
665,869	0,51
666,31	0,51
666,752	0,51
667,193	0,51
667,634	0,51
668,076	0,51
668,517	0,51
668,959	0,51
669,4	0,51
669,841	0,51
670,282	0,51
670,724	0,51
671,165	0,51
671,606	0,51
672,047	0,51
672,488	0,51
672,929	0,51
673,37	0,51
673,811	0,51
674,252	0,5
674,693	0,5
675,134	0,5
675,575	0,5
676,016	0,5
676,457	0,5
676,898	0,5
677,339	0,5
677,78	0,5
678,22	0,5
678,661	0,5
679,102	0,5
679,542	0,5
679,983	0,5
680,424	0,5
680,864	0,5
681,305	0,5
681,745	0,5
682,186	0,5
682,626	0,5
683,067	0,5
683,507	0,5
683,948	0,5
684,388	0,5
684,828	0,5
685,269	0,5
685,709	0,5
686,149	0,5
686,589	0,5
687,029	0,5
687,47	0,49
687,91	0,49
688,35	0,49
688,79	0,49
689,23	0,49
689,67	0,49
690,11	0,49
690,55	0,49
690,99	0,49
691,43	0,49
691,87	0,49
692,31	0,49
692,749	0,49
693,189	0,49
693,629	0,48
694,069	0,48
694,508	0,48
694,948	0,48
695,388	0,48
695,827	0,48
696,267	0,48
696,706	0,48
697,146	0,48
697,586	0,49
698,025	0,49
698,464	0,49
698,904	0,49
699,343	0,49
699,783	0,49
700,222	0,49
700,661	0,49
701,101	0,49
701,54	0,49
701,979	0,49
702,418	0,49
702,857	0,49
703,297	0,49
703,736	0,49
704,175	0,49
704,614	0,49
705,053	0,49
705,492	0,49
705,931	0,49
706,37	0,49
706,809	0,48
707,248	0,48
707,687	0,48
708,125	0,48
708,564	0,48
709,003	0,48
709,442	0,48
709,88	0,48
710,319	0,48
710,758	0,48
711,196	0,48
711,635	0,48
712,074	0,48
712,512	0,48
712,951	0,48
713,389	0,47
713,828	0,47
714,266	0,47
714,705	0,47
715,143	0,47
715,581	0,47
716,02	0,47
716,458	0,47
716,896	0,47
717,334	0,47
717,773	0,47
718,211	0,48
718,649	0,48
719,087	0,48
719,525	0,48
719,963	0,48
720,401	0,48
720,839	0,48
721,277	0,48
721,715	0,48
722,153	0,48
722,591	0,48
723,029	0,48
723,467	0,48
723,905	0,48
724,342	0,48
724,78	0,48
725,218	0,48
725,656	0,48
726,093	0,48
726,531	0,48
726,969	0,48
727,406	0,48
727,844	0,48
728,281	0,48
728,719	0,48
729,156	0,48
729,594	0,48
730,031	0,47
730,469	0,47
730,906	0,47
731,343	0,47
731,781	0,47
732,218	0,47
732,655	0,47
733,092	0,47
733,53	0,47
733,967	0,46
734,404	0,46
734,841	0,46
735,278	0,46
735,715	0,46
736,152	0,46
736,589	0,46
737,026	0,46
737,463	0,46
737,9	0,46
738,337	0,46
738,774	0,46
739,211	0,46
739,647	0,46
740,084	0,46
740,521	0,46
740,958	0,46
741,394	0,46
741,831	0,46
742,268	0,46
742,704	0,46
743,141	0,46
743,577	0,46
744,014	0,46
744,45	0,46
744,887	0,46
745,323	0,46
745,76	0,45
746,196	0,45
746,632	0,45
747,069	0,45
747,505	0,45
747,941	0,45
748,378	0,45
748,814	0,45
749,25	0,45
749,686	0,45
750,122	0,45
750,558	0,45
750,994	0,46
751,43	0,46
751,866	0,46
752,302	0,46
752,738	0,46
753,174	0,46
753,61	0,46
754,046	0,46
754,482	0,46
754,918	0,46
755,354	0,46
755,789	0,46
756,225	0,46
756,661	0,45
757,096	0,45
757,532	0,45
757,968	0,45
758,403	0,45
758,839	0,44
759,274	0,44
759,71	0,43
760,145	0,43
760,581	0,42
761,016	0,42
761,452	0,41
761,887	0,41
762,322	0,4
762,758	0,4
763,193	0,39
763,628	0,39
764,063	0,38
764,499	0,37
764,934	0,37
765,369	0,36
765,804	0,35
766,239	0,35
766,674	0,34
767,109	0,33
767,544	0,32
767,979	0,31
768,414	0,3
768,849	0,29
769,284	0,28
769,719	0,27
770,154	0,27
770,588	0,26
771,023	0,25
771,458	0,24
771,893	0,23
772,327	0,21
772,762	0,2
773,197	0,19
773,631	0,18
774,066	0,17
774,5	0,16
774,935	0,15
775,369	0,14
775,804	0,13
776,238	0,12
776,673	0,11
777,107	0,1
777,541	0,09
777,976	0,08
778,41	0,07
778,844	0,06
779,279	0,05
779,713	0,04
780,147	0,03
780,581	0,02
781,015	0,02
781,449	0
781,883	-0
782,317	-0,02
782,751	-0,02
783,185	-0,03
783,619	-0,04
784,053	-0,04
784,487	-0,05
784,921	-0,06
785,355	-0,07
785,789	-0,08
786,223	-0,09
786,656	-0,1
787,09	-0,1
787,524	-0,12
787,957	-0,13
788,391	-0,15
788,825	-0,17
789,258	-0,18
789,692	-0,19
790,125	-0,21
790,559	-0,23
790,992	-0,25
791,426	-0,28
791,859	-0,29
792,293	-0,32
792,726	-0,34
793,159	-0,36
793,593	-0,37
794,026	-0,39
794,459	-0,43
794,892	-0,45
795,326	-0,48
795,759	-0,52
796,192	-0,56
796,625	-0,61
797,058	-0,63
797,491	-0,68
797,924	-0,72
798,357	-0,77
798,79	-0,81
799,223	-0,85
799,656	-0,91
800,089	-0,96
800,522	-1
800,955	-1,04
801,387	-1,1
801,82	-1,15
802,253	-1,22
802,686	-1,3
803,118	-1,35
803,551	-1,4
803,984	-1,45
804,416	-1,49
804,849	-1,53
805,281	-1,67
805,714	-2,05
806,146	-2,48
806,579	-2,73
807,011	-2,88
807,444	-2,98
807,876	-3,06
808,308	-3,09
808,741	-3,12
809,173	-3,17
809,605	-3,19
810,037	-3,26
810,47	-3,18
810,902	-2,97
811,334	-2,82
811,766	-2,66
812,198	-2,4
812,63	-1,98
813,062	-1,78
813,494	-1,69
813,926	-1,6
814,358	-1,55
814,79	-1,47
815,222	-1,41
815,654	-1,36
816,086	-1,3
816,518	-1,24
816,949	-1,19
817,381	-1,14
817,813	-1,13
818,245	-1,08
818,676	-1,04
819,108	-1,01
819,54	-1
819,971	-0,98
820,403	-0,92
820,834	-0,91
821,266	-0,87
821,697	-0,85
822,129	-0,83
822,56	-0,81
822,991	-0,79
823,423	-0,76
823,854	-0,75
824,286	-0,72
824,717	-0,71
825,148	-0,7
825,579	-0,69
826,01	-0,67
826,442	-0,66
826,873	-0,65
827,304	-0,61
827,735	-0,6
828,166	-0,61
828,597	-0,6
829,028	-0,59
829,459	-0,6
829,89	-0,59
830,321	-0,55
830,752	-0,55
831,183	-0,55
831,613	-0,53
832,044	-0,53
832,475	-0,52
832,906	-0,54
833,336	-0,54
833,767	-0,55
834,198	-0,54
834,628	-0,53
835,059	-0,56
835,49	-0,58
835,92	-0,55
836,351	-0,55
836,781	-0,56
837,212	-0,57
837,642	-0,57
838,072	-0,55
838,503	-0,57
838,933	-0,54
839,364	-0,55
839,794	-0,53
840,224	-0,51
840,654	-0,56
841,085	-0,56
841,515	-0,53
841,945	-0,53
842,375	-0,49
842,805	-0,48
843,235	-0,46
843,665	-0,48
844,095	-0,46
844,525	-0,48
844,955	-0,49
845,385	-0,47
845,815	-0,45
846,245	-0,47
846,675	-0,47
847,105	-0,49
847,534	-0,49
847,964	-0,47
848,394	-0,46
848,824	-0,49
849,253	-0,47
849,683	-0,47
850,112	-0,48
850,542	-0,51
850,972	-0,52
851,401	-0,5
851,831	-0,49
852,26	-0,5
852,69	-0,53
853,119	-0,53
853,548	-0,53
853,978	-0,54
854,407	-0,53
854,836	-0,53
855,266	-0,52
855,695	-0,53
856,124	-0,54
856,553	-0,55
856,983	-0,57
857,412	-0,56
857,841	-0,57
858,27	-0,58
858,699	-0,58
859,128	-0,61
859,557	-0,62
859,986	-0,63
860,415	-0,61
860,844	-0,59
861,273	-0,59
861,702	-0,6
862,13	-0,57
862,559	-0,59
862,988	-0,57
863,417	-0,57
863,845	-0,56
864,274	-0,56
864,703	-0,56
865,131	-0,56
865,56	-0,57
865,989	-0,59
866,417	-0,56
866,846	-0,56
867,274	-0,56
867,703	-0,57
868,131	-0,57
868,559	-0,57
868,988	-0,59
869,416	-0,58
869,844	-0,6
870,273	-0,63
870,701	-0,6
871,129	-0,63
871,557	-0,66
871,986	-0,66
872,414	-0,68
872,842	-0,66
873,27	-0,64
873,698	-0,61
874,126	-0,64
874,554	-0,63
874,982	-0,63
875,41	-0,66
875,838	-0,61
876,266	-0,58
876,694	-0,58
877,122	-0,57
877,549	-0,61
877,977	-0,58
878,405	-0,63
878,833	-0,6
879,26	-0,58
879,688	-0,57
880,116	-0,55
880,543	-0,54
880,971	-0,53
881,399	-0,57
881,826	-0,58
882,254	-0,57
882,681	-0,6
883,109	-0,55
883,536	-0,57
883,963	-0,58
884,391	-0,57
884,818	-0,55
885,245	-0,59
885,673	-0,61
886,1	-0,57
886,527	-0,57
886,954	-0,53
887,381	-0,55
887,809	-0,56
888,236	-0,56
888,663	-0,57
889,09	-0,61
889,517	-0,63
889,944	-0,62
890,371	-0,61
890,798	-0,61
891,225	-0,61
891,652	-0,64
892,078	-0,6
892,505	-0,63
892,932	-0,59
893,359	-0,59
893,786	-0,6
894,212	-0,57
894,639	-0,58
895,066	-0,6
895,492	-0,55
895,919	-0,55
896,346	-0,56
896,772	-0,57
897,199	-0,54
897,625	-0,57
898,052	-0,53
898,478	-0,51
898,904	-0,53
899,331	-0,53
899,757	-0,54
900,183	-0,57
900,61	-0,55
901,036	-0,55
901,462	-0,55
901,888	-0,54
902,315	-0,53
902,741	-0,59
903,167	-0,58
903,593	-0,61
904,019	-0,6
904,445	-0,57
904,871	-0,59
905,297	-0,61
905,723	-0,6
906,149	-0,58
906,575	-0,59
907,001	-0,59
907,427	-0,55
907,852	-0,54
908,278	-0,55
908,704	-0,52
909,13	-0,53
909,555	-0,52
909,981	-0,51
910,407	-0,52
910,832	-0,51
911,258	-0,51
911,684	-0,51
912,109	-0,53
912,535	-0,54
912,96	-0,5
913,386	-0,54
913,811	-0,53
914,236	-0,54
914,662	-0,53
915,087	-0,56
915,512	-0,56
915,938	-0,59
916,363	-0,58
916,788	-0,59
917,213	-0,57
917,639	-0,62
918,064	-0,59
918,489	-0,6
918,914	-0,6
919,339	-0,61
919,764	-0,58
920,189	-0,58
920,614	-0,6
921,039	-0,6
921,464	-0,56
921,889	-0,58
922,314	-0,58
922,738	-0,61
923,163	-0,62
923,588	-0,62
924,013	-0,61
924,437	-0,6
924,862	-0,62
925,287	-0,58
925,711	-0,6
926,136	-0,62
926,561	-0,6
926,985	-0,6
927,41	-0,58
927,834	-0,56
928,259	-0,53
928,683	-0,51
929,108	-0,49
929,532	-0,5
929,956	-0,5
930,381	-0,48
930,805	-0,48
931,229	-0,48
931,653	-0,46
932,078	-0,45
932,502	-0,47
932,926	-0,48
933,35	-0,47
933,774	-0,46
934,198	-0,44
934,622	-0,42
935,046	-0,42
935,47	-0,43
935,894	-0,42
936,318	-0,42
936,742	-0,42
937,166	-0,42
937,59	-0,42
938,014	-0,45
938,437	-0,45
938,861	-0,47
939,285	-0,48
939,709	-0,48
940,132	-0,48
940,556	-0,49
940,98	-0,48
941,403	-0,46
941,827	-0,47
942,25	-0,49
942,674	-0,47
943,097	-0,47
943,521	-0,46
943,944	-0,48
944,368	-0,46
944,791	-0,45
945,214	-0,47
945,638	-0,48
946,061	-0,51
946,484	-0,52
946,907	-0,5
947,331	-0,5
947,754	-0,54
948,177	-0,52
948,6	-0,51
949,023	-0,52
949,446	-0,52
949,869	-0,49
950,292	-0,5
950,715	-0,46
951,138	-0,45
951,561	-0,42
951,984	-0,43
952,407	-0,42
952,83	-0,41
953,252	-0,37
953,675	-0,37
954,098	-0,38
954,521	-0,37
954,943	-0,35
955,366	-0,36
955,789	-0,34
956,211	-0,36
956,634	-0,37
957,056	-0,34
957,479	-0,36
957,902	-0,38
958,324	-0,38
958,746	-0,37
959,169	-0,38
959,591	-0,38
960,014	-0,4
960,436	-0,39
960,858	-0,38
961,281	-0,39
961,703	-0,4
962,125	-0,4
962,547	-0,38
962,969	-0,38
963,391	-0,38
963,814	-0,39
964,236	-0,39
964,658	-0,36
965,08	-0,38
965,502	-0,37
965,924	-0,34
966,346	-0,34
966,768	-0,32
967,189	-0,33
967,611	-0,33
968,033	-0,32
968,455	-0,3
968,877	-0,31
969,298	-0,31
969,72	-0,33
970,142	-0,31
970,563	-0,32
970,985	-0,31
971,407	-0,3
971,828	-0,29
972,25	-0,28
972,671	-0,26
973,093	-0,26
973,514	-0,25
973,936	-0,23
974,357	-0,21
974,778	-0,22
975,2	-0,2
975,621	-0,19
976,042	-0,17
976,464	-0,16
976,885	-0,15
977,306	-0,15
977,727	-0,14
978,148	-0,13
978,57	-0,12
978,991	-0,1
979,412	-0,09
979,833	-0,08
980,254	-0,08
980,675	-0,08
981,096	-0,07
981,517	-0,05
981,937	-0,05
982,358	-0,03
982,779	-0,02
983,2	-0,02
983,621	-0,01
984,042	0
984,462	0,02
984,883	0,04
985,304	0,05
985,724	0,05
986,145	0,07
986,565	0,08
986,986	0,09
987,407	0,1
987,827	0,12
988,248	0,14
988,668	0,15
989,088	0,15
989,509	0,17
989,929	0,18
990,35	0,19
990,77	0,2
991,19	0,21
991,61	0,23
992,031	0,24
992,451	0,25
992,871	0,26
993,291	0,27
993,711	0,28
994,131	0,29
994,551	0,3
994,971	0,31
995,391	0,32
995,811	0,33
996,231	0,33
996,651	0,34
997,071	0,35
997,491	0,35
997,911	0,36
998,331	0,37
998,75	0,38
999,17	0,38
999,59	0,38
1000,009	0,39
1000,429	0,39
1000,849	0,4
1001,268	0,41
1001,688	0,41
1002,107	0,41
1002,527	0,42
1002,946	0,42
1003,366	0,42
1003,785	0,43
1004,205	0,43
1004,624	0,44
1005,044	0,44
1005,463	0,44
1005,882	0,44
1006,301	0,44
1006,721	0,45
1007,14	0,45
1007,559	0,45
1007,978	0,45
1008,397	0,45
1008,816	0,45
1009,235	0,45
1009,655	0,45
1010,074	0,45
1010,492	0,45
1010,911	0,45
1011,33	0,45
1011,749	0,45
1012,168	0,45
1012,587	0,45
1013,006	0,45
1013,425	0,45
1013,843	0,45
1014,262	0,44
1014,681	0,44
1015,099	0,44
1015,518	0,44
1015,937	0,44
1016,355	0,44
1016,774	0,44
1017,192	0,44
1017,611	0,44
1018,029	0,44
1018,448	0,44
1018,866	0,44
1019,285	0,44
1019,703	0,44
1020,121	0,44
1020,54	0,44
1020,958	0,44
1021,376	0,44
1021,794	0,44
1022,213	0,44
1022,631	0,43
1023,049	0,43
1023,467	0,43
1023,885	0,43
1024,303	0,43
1024,721	0,43
1025,139	0,43
1025,557	0,43
1025,975	0,43
1026,393	0,43
1026,811	0,43
1027,229	0,43
1027,647	0,43
1028,065	0,42
1028,482	0,42
1028,9	0,42
1029,318	0,42
1029,735	0,42
1030,153	0,42
1030,571	0,42
1030,988	0,42
1031,406	0,42
1031,823	0,42
1032,241	0,42
1032,659	0,42
1033,076	0,42
1033,493	0,42
1033,911	0,42
1034,328	0,42
1034,746	0,42
1035,163	0,42
1035,58	0,42
1035,997	0,42
1036,415	0,43
1036,832	0,43
1037,249	0,43
1037,666	0,43
1038,083	0,43
1038,501	0,43
1038,918	0,43
1039,335	0,43
1039,752	0,43
1040,169	0,43
1040,586	0,43
1041,003	0,43
1041,419	0,43
1041,836	0,43
1042,253	0,43
1042,67	0,43
1043,087	0,43
1043,504	0,43
1043,92	0,43
1044,337	0,43
1044,754	0,43
1045,17	0,43
1045,587	0,42
1046,004	0,42
1046,42	0,42
1046,837	0,42
1047,253	0,42
1047,67	0,43
1048,086	0,43
1048,503	0,43
1048,919	0,43
1049,335	0,43
1049,752	0,43
1050,168	0,43
1050,584	0,43
1051,001	0,43
1051,417	0,43
1051,833	0,43
1052,249	0,43
1052,665	0,43
1053,081	0,43
1053,497	0,43
1053,914	0,43
1054,33	0,43
1054,746	0,43
1055,162	0,44
1055,578	0,44
1055,993	0,44
1056,409	0,44
1056,825	0,44
1057,241	0,44
1057,657	0,44
1058,073	0,44
1058,488	0,44
1058,904	0,44
1059,32	0,44
1059,736	0,44
1060,151	0,44
1060,567	0,44
1060,982	0,44
1061,398	0,44
1061,813	0,43
1062,229	0,43
1062,644	0,43
1063,06	0,43
1063,475	0,43
1063,891	0,43
1064,306	0,43
1064,721	0,43
1065,137	0,43
1065,552	0,43
1065,967	0,43
1066,382	0,43
1066,798	0,43
1067,213	0,43
1067,628	0,43
1068,043	0,43
1068,458	0,43
1068,873	0,43
1069,288	0,43
1069,703	0,43
1070,118	0,43
1070,533	0,43
1070,948	0,43
1071,363	0,43
1071,778	0,43
1072,193	0,43
1072,607	0,43
1073,022	0,43
1073,437	0,43
1073,852	0,43
1074,266	0,43
1074,681	0,43
1075,096	0,43
1075,51	0,43
1075,925	0,43
1076,339	0,43
1076,754	0,43
1077,168	0,43
1077,583	0,43
1077,997	0,43
1078,412	0,43
1078,826	0,42
1079,24	0,42
1079,655	0,42
1080,069	0,42
1080,483	0,42
1080,897	0,42
1081,312	0,42
1081,726	0,42
1082,14	0,42
1082,554	0,42
1082,968	0,42
1083,382	0,42
1083,796	0,42
1084,21	0,42
1084,624	0,41
1085,038	0,41
1085,452	0,41
1085,866	0,41
1086,28	0,41
1086,694	0,41
1087,108	0,41
1087,521	0,4
1087,935	0,4
1088,349	0,4
1088,763	0,4
1089,176	0,39
1089,59	0,39
1090,004	0,39
1090,417	0,39
1090,831	0,38
1091,244	0,38
1091,658	0,38
1092,071	0,38
1092,485	0,37
1092,898	0,37
1093,312	0,37
1093,725	0,36
1094,138	0,36
1094,552	0,36
1094,965	0,35
1095,378	0,35
1095,791	0,35
1096,205	0,35
1096,618	0,34
1097,031	0,34
1097,444	0,34
1097,857	0,33
1098,27	0,33
1098,683	0,33
1099,096	0,32
1099,509	0,32
1099,922	0,31
1100,335	0,31
1100,748	0,3
1101,161	0,3
1101,574	0,29
1101,986	0,29
1102,399	0,29
1102,812	0,28
1103,225	0,28
1103,637	0,27
1104,05	0,27
1104,463	0,27
1104,875	0,27
1105,288	0,27
1105,7	0,27
1106,113	0,26
1106,525	0,26
1106,938	0,26
1107,35	0,25
1107,763	0,25
1108,175	0,25
1108,588	0,24
1109	0,24
1109,412	0,24
1109,824	0,24
1110,237	0,23
1110,649	0,23
1111,061	0,22
