Data from 18C-808nm-8A-cont_Absorbance__496__01925.txt Node

Date: Mon Jul 17 17:37:15 CEST 2023
User: Laser008
Spectrometer: MAYP115816
Trigger mode: 0
Integration Time (sec): 2,500000E-1
Scans to average: 10
Electric dark correction enabled: true
Nonlinearity correction enabled: true
Boxcar width: 5
XAxis mode: Wavelengths
Number of Pixels in Spectrum: 2068
>>>>>Begin Spectral Data<<<<<
198,914	-0,79
199,384	-0,54
199,855	-0,4
200,325	-0,33
200,796	-0,29
201,266	-0,24
201,737	-0,21
202,207	-0,2
202,677	-0,19
203,147	-0,17
203,618	-0,15
204,088	-0,13
204,558	-0,11
205,028	-0,11
205,498	-0,11
205,968	-0,11
206,439	-0,12
206,909	-0,12
207,379	-0,13
207,849	-0,12
208,319	-0,13
208,789	-0,13
209,258	-0,13
209,728	-0,15
210,198	-0,15
210,668	-0,14
211,138	-0,14
211,608	-0,14
212,077	-0,15
212,547	-0,14
213,017	-0,15
213,486	-0,15
213,956	-0,16
214,426	-0,16
214,895	-0,16
215,365	-0,17
215,834	-0,17
216,304	-0,18
216,773	-0,17
217,243	-0,18
217,712	-0,19
218,181	-0,19
218,651	-0,19
219,12	-0,18
219,589	-0,18
220,058	-0,17
220,528	-0,18
220,997	-0,18
221,466	-0,19
221,935	-0,2
222,404	-0,2
222,873	-0,19
223,342	-0,18
223,812	-0,19
224,281	-0,19
224,749	-0,19
225,218	-0,2
225,687	-0,2
226,156	-0,19
226,625	-0,17
227,094	-0,17
227,563	-0,17
228,031	-0,18
228,5	-0,19
228,969	-0,19
229,438	-0,18
229,906	-0,17
230,375	-0,16
230,844	-0,16
231,312	-0,16
231,781	-0,17
232,249	-0,17
232,718	-0,17
233,186	-0,15
233,655	-0,15
234,123	-0,15
234,591	-0,16
235,06	-0,16
235,528	-0,17
235,996	-0,16
236,465	-0,15
236,933	-0,14
237,401	-0,14
237,869	-0,13
238,337	-0,14
238,805	-0,13
239,274	-0,12
239,742	-0,11
240,21	-0,12
240,678	-0,11
241,146	-0,1
241,614	-0,1
242,081	-0,1
242,549	-0,1
243,017	-0,11
243,485	-0,11
243,953	-0,11
244,421	-0,11
244,888	-0,11
245,356	-0,1
245,824	-0,1
246,291	-0,1
246,759	-0,12
247,227	-0,11
247,694	-0,11
248,162	-0,1
248,629	-0,09
249,097	-0,09
249,564	-0,11
250,032	-0,11
250,499	-0,11
250,967	-0,12
251,434	-0,13
251,901	-0,12
252,369	-0,13
252,836	-0,14
253,303	-0,15
253,77	-0,17
254,237	-0,17
254,705	-0,17
255,172	-0,16
255,639	-0,16
256,106	-0,17
256,573	-0,17
257,04	-0,17
257,507	-0,18
257,974	-0,18
258,441	-0,17
258,908	-0,18
259,375	-0,19
259,841	-0,19
260,308	-0,2
260,775	-0,2
261,242	-0,19
261,709	-0,2
262,175	-0,21
262,642	-0,21
263,109	-0,2
263,575	-0,2
264,042	-0,19
264,508	-0,18
264,975	-0,2
265,441	-0,21
265,908	-0,21
266,374	-0,21
266,841	-0,22
267,307	-0,22
267,773	-0,21
268,24	-0,22
268,706	-0,23
269,172	-0,24
269,639	-0,25
270,105	-0,23
270,571	-0,23
271,037	-0,23
271,503	-0,24
271,969	-0,24
272,435	-0,23
272,902	-0,25
273,368	-0,26
273,834	-0,26
274,3	-0,26
274,765	-0,26
275,231	-0,26
275,697	-0,25
276,163	-0,24
276,629	-0,24
277,095	-0,24
277,56	-0,25
278,026	-0,24
278,492	-0,22
278,958	-0,22
279,423	-0,22
279,889	-0,2
280,354	-0,21
280,82	-0,22
281,286	-0,23
281,751	-0,23
282,217	-0,22
282,682	-0,21
283,147	-0,22
283,613	-0,22
284,078	-0,23
284,544	-0,24
285,009	-0,26
285,474	-0,25
285,939	-0,26
286,405	-0,25
286,87	-0,25
287,335	-0,24
287,8	-0,24
288,265	-0,23
288,73	-0,23
289,195	-0,25
289,66	-0,25
290,125	-0,23
290,59	-0,24
291,055	-0,23
291,52	-0,23
291,985	-0,24
292,45	-0,25
292,915	-0,25
293,38	-0,25
293,844	-0,24
294,309	-0,22
294,774	-0,21
295,239	-0,23
295,703	-0,23
296,168	-0,22
296,632	-0,21
297,097	-0,19
297,562	-0,18
298,026	-0,18
298,491	-0,19
298,955	-0,19
299,419	-0,19
299,884	-0,19
300,348	-0,19
300,813	-0,18
301,277	-0,18
301,741	-0,18
302,205	-0,18
302,67	-0,17
303,134	-0,17
303,598	-0,17
304,062	-0,16
304,526	-0,15
304,99	-0,17
305,454	-0,16
305,919	-0,16
306,383	-0,16
306,847	-0,16
307,31	-0,16
307,774	-0,17
308,238	-0,17
308,702	-0,17
309,166	-0,19
309,63	-0,19
310,094	-0,16
310,557	-0,16
311,021	-0,16
311,485	-0,16
311,948	-0,15
312,412	-0,14
312,876	-0,13
313,339	-0,13
313,803	-0,14
314,266	-0,13
314,73	-0,13
315,193	-0,13
315,657	-0,12
316,12	-0,11
316,584	-0,1
317,047	-0,09
317,51	-0,09
317,973	-0,09
318,437	-0,08
318,9	-0,07
319,363	-0,06
319,826	-0,05
320,29	-0,05
320,753	-0,06
321,216	-0,07
321,679	-0,07
322,142	-0,06
322,605	-0,08
323,068	-0,07
323,531	-0,07
323,994	-0,06
324,457	-0,06
324,92	-0,05
325,382	-0,04
325,845	-0,04
326,308	-0,03
326,771	-0,02
327,233	-0,02
327,696	-0,01
328,159	-0
328,622	0
329,084	-0
329,547	0
330,009	-0
330,472	0,01
330,934	0,02
331,397	0,02
331,859	0,03
332,322	0,03
332,784	0,04
333,246	0,04
333,709	0,04
334,171	0,05
334,633	0,05
335,096	0,06
335,558	0,05
336,02	0,06
336,482	0,06
336,944	0,06
337,406	0,07
337,868	0,08
338,331	0,08
338,793	0,09
339,255	0,1
339,717	0,1
340,178	0,12
340,64	0,13
341,102	0,13
341,564	0,14
342,026	0,16
342,488	0,16
342,949	0,18
343,411	0,21
343,873	0,24
344,335	0,27
344,796	0,31
345,258	0,36
345,719	0,41
346,181	0,47
346,643	0,52
347,104	0,56
347,566	0,6
348,027	0,63
348,488	0,66
348,95	0,68
349,411	0,71
349,873	0,74
350,334	0,77
350,795	0,79
351,256	0,81
351,718	0,82
352,179	0,82
352,64	0,83
353,101	0,83
353,562	0,84
354,023	0,84
354,484	0,84
354,945	0,85
355,406	0,85
355,867	0,86
356,328	0,86
356,789	0,86
357,25	0,86
357,711	0,87
358,172	0,87
358,633	0,87
359,093	0,87
359,554	0,88
360,015	0,88
360,476	0,88
360,936	0,88
361,397	0,88
361,858	0,89
362,318	0,89
362,779	0,89
363,239	0,89
363,7	0,89
364,16	0,89
364,621	0,89
365,081	0,89
365,541	0,89
366,002	0,89
366,462	0,89
366,922	0,89
367,383	0,89
367,843	0,89
368,303	0,89
368,763	0,89
369,223	0,89
369,684	0,89
370,144	0,89
370,604	0,89
371,064	0,89
371,524	0,89
371,984	0,89
372,444	0,89
372,904	0,89
373,363	0,89
373,823	0,89
374,283	0,89
374,743	0,89
375,203	0,89
375,663	0,89
376,122	0,89
376,582	0,89
377,042	0,89
377,501	0,89
377,961	0,89
378,42	0,89
378,88	0,89
379,34	0,89
379,799	0,89
380,259	0,89
380,718	0,88
381,177	0,88
381,637	0,88
382,096	0,88
382,555	0,88
383,015	0,88
383,474	0,88
383,933	0,88
384,393	0,88
384,852	0,88
385,311	0,88
385,77	0,88
386,229	0,88
386,688	0,88
387,147	0,88
387,606	0,88
388,065	0,88
388,524	0,88
388,983	0,88
389,442	0,88
389,901	0,88
390,36	0,88
390,819	0,88
391,277	0,88
391,736	0,88
392,195	0,88
392,654	0,88
393,112	0,88
393,571	0,88
394,03	0,88
394,488	0,88
394,947	0,87
395,405	0,87
395,864	0,87
396,322	0,87
396,781	0,87
397,239	0,87
397,698	0,87
398,156	0,87
398,614	0,87
399,073	0,87
399,531	0,87
399,989	0,87
400,447	0,87
400,905	0,87
401,364	0,87
401,822	0,87
402,28	0,87
402,738	0,87
403,196	0,87
403,654	0,87
404,112	0,87
404,57	0,87
405,028	0,87
405,486	0,87
405,944	0,87
406,402	0,87
406,859	0,87
407,317	0,87
407,775	0,87
408,233	0,87
408,691	0,87
409,148	0,87
409,606	0,87
410,064	0,87
410,521	0,87
410,979	0,87
411,436	0,87
411,894	0,87
412,351	0,87
412,809	0,87
413,266	0,87
413,724	0,87
414,181	0,87
414,638	0,86
415,096	0,86
415,553	0,86
416,01	0,86
416,467	0,86
416,925	0,86
417,382	0,86
417,839	0,86
418,296	0,86
418,753	0,86
419,21	0,86
419,667	0,86
420,124	0,86
420,581	0,86
421,038	0,86
421,495	0,86
421,952	0,86
422,409	0,86
422,866	0,86
423,322	0,86
423,779	0,86
424,236	0,86
424,693	0,86
425,149	0,86
425,606	0,86
426,063	0,86
426,519	0,86
426,976	0,86
427,433	0,86
427,889	0,86
428,346	0,86
428,802	0,86
429,258	0,86
429,715	0,86
430,171	0,86
430,628	0,86
431,084	0,86
431,54	0,86
431,997	0,86
432,453	0,86
432,909	0,86
433,365	0,86
433,821	0,86
434,277	0,85
434,734	0,85
435,19	0,85
435,646	0,85
436,102	0,85
436,558	0,85
437,014	0,85
437,47	0,85
437,925	0,86
438,381	0,86
438,837	0,86
439,293	0,86
439,749	0,86
440,205	0,86
440,66	0,86
441,116	0,86
441,572	0,86
442,027	0,86
442,483	0,86
442,939	0,86
443,394	0,86
443,85	0,86
444,305	0,86
444,761	0,86
445,216	0,86
445,672	0,86
446,127	0,86
446,582	0,86
447,038	0,86
447,493	0,86
447,948	0,86
448,403	0,86
448,859	0,87
449,314	0,87
449,769	0,87
450,224	0,87
450,679	0,87
451,134	0,87
451,589	0,87
452,044	0,87
452,499	0,87
452,954	0,87
453,409	0,87
453,864	0,87
454,319	0,87
454,774	0,87
455,229	0,87
455,684	0,87
456,138	0,87
456,593	0,87
457,048	0,87
457,503	0,87
457,957	0,87
458,412	0,87
458,866	0,87
459,321	0,87
459,776	0,87
460,23	0,87
460,685	0,87
461,139	0,88
461,593	0,88
462,048	0,88
462,502	0,88
462,957	0,88
463,411	0,88
463,865	0,88
464,319	0,88
464,774	0,88
465,228	0,88
465,682	0,88
466,136	0,89
466,59	0,89
467,044	0,89
467,499	0,89
467,953	0,89
468,407	0,89
468,861	0,89
469,315	0,89
469,768	0,89
470,222	0,89
470,676	0,89
471,13	0,9
471,584	0,9
472,038	0,9
472,491	0,9
472,945	0,9
473,399	0,9
473,852	0,9
474,306	0,9
474,76	0,9
475,213	0,91
475,667	0,91
476,12	0,91
476,574	0,91
477,027	0,91
477,481	0,91
477,934	0,91
478,388	0,92
478,841	0,92
479,294	0,92
479,748	0,92
480,201	0,92
480,654	0,93
481,107	0,93
481,561	0,93
482,014	0,93
482,467	0,93
482,92	0,93
483,373	0,94
483,826	0,94
484,279	0,94
484,732	0,94
485,185	0,95
485,638	0,95
486,091	0,95
486,544	0,95
486,997	0,95
487,449	0,96
487,902	0,96
488,355	0,96
488,808	0,97
489,26	0,97
489,713	0,97
490,166	0,97
490,618	0,98
491,071	0,98
491,523	0,98
491,976	0,99
492,429	0,99
492,881	0,99
493,333	0,99
493,786	1
494,238	1
494,691	1,01
495,143	1,01
495,595	1,01
496,048	1,02
496,5	1,02
496,952	1,03
497,404	1,03
497,856	1,03
498,309	1,04
498,761	1,04
499,213	1,05
499,665	1,05
500,117	1,06
500,569	1,06
501,021	1,06
501,473	1,07
501,925	1,07
502,377	1,08
502,828	1,08
503,28	1,09
503,732	1,09
504,184	1,09
504,636	1,1
505,087	1,1
505,539	1,1
505,991	1,11
506,442	1,11
506,894	1,12
507,345	1,12
507,797	1,12
508,249	1,13
508,7	1,13
509,151	1,14
509,603	1,14
510,054	1,15
510,506	1,15
510,957	1,16
511,408	1,16
511,86	1,17
512,311	1,17
512,762	1,17
513,213	1,18
513,665	1,18
514,116	1,18
514,567	1,19
515,018	1,19
515,469	1,19
515,92	1,2
516,371	1,2
516,822	1,2
517,273	1,21
517,724	1,21
518,175	1,21
518,626	1,21
519,076	1,22
519,527	1,22
519,978	1,22
520,429	1,22
520,88	1,23
521,33	1,23
521,781	1,23
522,232	1,23
522,682	1,23
523,133	1,24
523,583	1,24
524,034	1,24
524,484	1,24
524,935	1,24
525,385	1,24
525,836	1,24
526,286	1,24
526,736	1,24
527,187	1,24
527,637	1,24
528,087	1,24
528,538	1,24
528,988	1,24
529,438	1,24
529,888	1,24
530,338	1,23
530,788	1,23
531,238	1,23
531,688	1,23
532,139	1,23
532,589	1,23
533,038	1,23
533,488	1,23
533,938	1,22
534,388	1,22
534,838	1,22
535,288	1,21
535,738	1,21
536,187	1,21
536,637	1,2
537,087	1,2
537,537	1,19
537,986	1,19
538,436	1,18
538,885	1,18
539,335	1,17
539,785	1,16
540,234	1,16
540,684	1,15
541,133	1,15
541,582	1,14
542,032	1,14
542,481	1,13
542,931	1,13
543,38	1,12
543,829	1,12
544,278	1,11
544,728	1,11
545,177	1,1
545,626	1,1
546,075	1,09
546,524	1,09
546,973	1,08
547,422	1,08
547,871	1,07
548,32	1,07
548,769	1,07
549,218	1,06
549,667	1,06
550,116	1,06
550,565	1,05
551,014	1,05
551,463	1,04
551,911	1,04
552,36	1,03
552,809	1,03
553,258	1,02
553,706	1,02
554,155	1,01
554,603	1,01
555,052	1
555,501	1
555,949	0,99
556,398	0,99
556,846	0,98
557,294	0,98
557,743	0,97
558,191	0,97
558,64	0,96
559,088	0,96
559,536	0,95
559,985	0,95
560,433	0,94
560,881	0,94
561,329	0,93
561,777	0,93
562,225	0,92
562,674	0,92
563,122	0,91
563,57	0,91
564,018	0,9
564,466	0,9
564,914	0,89
565,362	0,89
565,809	0,88
566,257	0,88
566,705	0,87
567,153	0,87
567,601	0,86
568,048	0,86
568,496	0,86
568,944	0,85
569,392	0,85
569,839	0,84
570,287	0,84
570,734	0,84
571,182	0,83
571,63	0,83
572,077	0,82
572,525	0,82
572,972	0,82
573,419	0,81
573,867	0,81
574,314	0,8
574,761	0,8
575,209	0,8
575,656	0,79
576,103	0,79
576,551	0,79
576,998	0,78
577,445	0,78
577,892	0,78
578,339	0,77
578,786	0,77
579,233	0,76
579,68	0,76
580,127	0,76
580,574	0,76
581,021	0,75
581,468	0,75
581,915	0,75
582,362	0,74
582,809	0,74
583,255	0,74
583,702	0,74
584,149	0,73
584,596	0,73
585,042	0,73
585,489	0,72
585,936	0,72
586,382	0,72
586,829	0,72
587,275	0,71
587,722	0,71
588,168	0,71
588,615	0,71
589,061	0,7
589,508	0,7
589,954	0,7
590,4	0,7
590,847	0,69
591,293	0,69
591,739	0,69
592,185	0,69
592,632	0,69
593,078	0,68
593,524	0,68
593,97	0,68
594,416	0,68
594,862	0,68
595,308	0,68
595,754	0,68
596,2	0,67
596,646	0,67
597,092	0,67
597,538	0,67
597,984	0,67
598,43	0,66
598,876	0,66
599,321	0,66
599,767	0,66
600,213	0,66
600,659	0,66
601,104	0,66
601,55	0,65
601,995	0,65
602,441	0,65
602,887	0,65
603,332	0,65
603,778	0,65
604,223	0,65
604,668	0,64
605,114	0,64
605,559	0,64
606,005	0,64
606,45	0,64
606,895	0,64
607,341	0,64
607,786	0,64
608,231	0,63
608,676	0,63
609,121	0,62
609,566	0,61
610,012	0,61
610,457	0,6
610,902	0,6
611,347	0,6
611,792	0,59
612,237	0,59
612,682	0,59
613,127	0,59
613,571	0,59
614,016	0,59
614,461	0,6
614,906	0,6
615,351	0,6
615,795	0,6
616,24	0,6
616,685	0,6
617,129	0,6
617,574	0,6
618,019	0,6
618,463	0,6
618,908	0,6
619,352	0,6
619,797	0,6
620,241	0,6
620,686	0,6
621,13	0,6
621,574	0,6
622,019	0,6
622,463	0,6
622,907	0,59
623,352	0,59
623,796	0,59
624,24	0,59
624,684	0,59
625,128	0,59
625,572	0,59
626,016	0,59
626,461	0,59
626,905	0,59
627,349	0,59
627,793	0,59
628,236	0,59
628,68	0,59
629,124	0,59
629,568	0,59
630,012	0,59
630,456	0,59
630,9	0,59
631,343	0,59
631,787	0,59
632,231	0,59
632,674	0,59
633,118	0,59
633,562	0,59
634,005	0,59
634,449	0,58
634,892	0,58
635,336	0,58
635,779	0,58
636,223	0,58
636,666	0,58
637,109	0,58
637,553	0,58
637,996	0,58
638,439	0,58
638,883	0,58
639,326	0,58
639,769	0,58
640,212	0,58
640,655	0,58
641,099	0,57
641,542	0,57
641,985	0,57
642,428	0,57
642,871	0,57
643,314	0,57
643,757	0,57
644,2	0,57
644,643	0,57
645,085	0,57
645,528	0,57
645,971	0,57
646,414	0,57
646,857	0,57
647,299	0,57
647,742	0,57
648,185	0,56
648,627	0,56
649,07	0,56
649,513	0,56
649,955	0,56
650,398	0,56
650,84	0,56
651,283	0,56
651,725	0,57
652,168	0,57
652,61	0,57
653,052	0,57
653,495	0,56
653,937	0,47
654,379	0,42
654,821	0,43
655,264	0,43
655,706	0,43
656,148	0,43
656,59	0,43
657,032	0,43
657,474	0,43
657,916	0,43
658,358	0,42
658,8	0,48
659,242	0,56
659,684	0,56
660,126	0,56
660,568	0,56
661,01	0,56
661,452	0,56
661,894	0,56
662,335	0,56
662,777	0,56
663,219	0,56
663,661	0,56
664,102	0,56
664,544	0,56
664,985	0,56
665,427	0,56
665,869	0,56
666,31	0,56
666,752	0,56
667,193	0,56
667,634	0,56
668,076	0,56
668,517	0,56
668,959	0,56
669,4	0,56
669,841	0,56
670,282	0,56
670,724	0,56
671,165	0,56
671,606	0,56
672,047	0,56
672,488	0,55
672,929	0,55
673,37	0,55
673,811	0,55
674,252	0,55
674,693	0,55
675,134	0,55
675,575	0,55
676,016	0,55
676,457	0,55
676,898	0,55
677,339	0,55
677,78	0,55
678,22	0,54
678,661	0,55
679,102	0,55
679,542	0,55
679,983	0,55
680,424	0,55
680,864	0,55
681,305	0,55
681,745	0,55
682,186	0,55
682,626	0,55
683,067	0,55
683,507	0,55
683,948	0,55
684,388	0,55
684,828	0,55
685,269	0,55
685,709	0,55
686,149	0,55
686,589	0,54
687,029	0,54
687,47	0,54
687,91	0,54
688,35	0,54
688,79	0,54
689,23	0,54
689,67	0,54
690,11	0,54
690,55	0,54
690,99	0,54
691,43	0,54
691,87	0,54
692,31	0,53
692,749	0,53
693,189	0,53
693,629	0,53
694,069	0,53
694,508	0,53
694,948	0,53
695,388	0,53
695,827	0,53
696,267	0,53
696,706	0,53
697,146	0,53
697,586	0,53
698,025	0,54
698,464	0,54
698,904	0,54
699,343	0,54
699,783	0,54
700,222	0,54
700,661	0,54
701,101	0,54
701,54	0,54
701,979	0,54
702,418	0,54
702,857	0,54
703,297	0,54
703,736	0,54
704,175	0,54
704,614	0,54
705,053	0,54
705,492	0,53
705,931	0,53
706,37	0,53
706,809	0,53
707,248	0,53
707,687	0,53
708,125	0,53
708,564	0,53
709,003	0,53
709,442	0,53
709,88	0,53
710,319	0,53
710,758	0,53
711,196	0,53
711,635	0,53
712,074	0,53
712,512	0,53
712,951	0,53
713,389	0,52
713,828	0,52
714,266	0,52
714,705	0,52
715,143	0,52
715,581	0,52
716,02	0,52
716,458	0,52
716,896	0,52
717,334	0,52
717,773	0,52
718,211	0,52
718,649	0,53
719,087	0,53
719,525	0,53
719,963	0,53
720,401	0,53
720,839	0,53
721,277	0,53
721,715	0,53
722,153	0,53
722,591	0,53
723,029	0,53
723,467	0,53
723,905	0,53
724,342	0,53
724,78	0,52
725,218	0,52
725,656	0,52
726,093	0,52
726,531	0,52
726,969	0,52
727,406	0,52
727,844	0,52
728,281	0,52
728,719	0,52
729,156	0,52
729,594	0,52
730,031	0,52
730,469	0,52
730,906	0,52
731,343	0,52
731,781	0,52
732,218	0,52
732,655	0,51
733,092	0,51
733,53	0,51
733,967	0,51
734,404	0,51
734,841	0,51
735,278	0,51
735,715	0,51
736,152	0,51
736,589	0,51
737,026	0,51
737,463	0,51
737,9	0,51
738,337	0,51
738,774	0,51
739,211	0,51
739,647	0,51
740,084	0,51
740,521	0,51
740,958	0,51
741,394	0,51
741,831	0,51
742,268	0,51
742,704	0,51
743,141	0,51
743,577	0,51
744,014	0,51
744,45	0,51
744,887	0,51
745,323	0,51
745,76	0,51
746,196	0,5
746,632	0,5
747,069	0,5
747,505	0,5
747,941	0,5
748,378	0,5
748,814	0,5
749,25	0,5
749,686	0,5
750,122	0,5
750,558	0,51
750,994	0,51
751,43	0,51
751,866	0,51
752,302	0,51
752,738	0,51
753,174	0,51
753,61	0,51
754,046	0,51
754,482	0,51
754,918	0,51
755,354	0,5
755,789	0,5
756,225	0,5
756,661	0,5
757,096	0,5
757,532	0,5
757,968	0,49
758,403	0,49
758,839	0,49
759,274	0,48
759,71	0,48
760,145	0,47
760,581	0,46
761,016	0,46
761,452	0,45
761,887	0,45
762,322	0,44
762,758	0,44
763,193	0,43
763,628	0,42
764,063	0,42
764,499	0,41
764,934	0,4
765,369	0,39
765,804	0,38
766,239	0,38
766,674	0,37
767,109	0,36
767,544	0,35
767,979	0,34
768,414	0,33
768,849	0,31
769,284	0,31
769,719	0,3
770,154	0,29
770,588	0,28
771,023	0,27
771,458	0,25
771,893	0,24
772,327	0,22
772,762	0,22
773,197	0,21
773,631	0,19
774,066	0,18
774,5	0,17
774,935	0,16
775,369	0,14
775,804	0,13
776,238	0,12
776,673	0,11
777,107	0,1
777,541	0,09
777,976	0,07
778,41	0,07
778,844	0,06
779,279	0,05
779,713	0,04
780,147	0,03
780,581	0,02
781,015	0,01
781,449	-0
781,883	-0,01
782,317	-0,02
782,751	-0,04
783,185	-0,05
783,619	-0,05
784,053	-0,06
784,487	-0,08
784,921	-0,08
785,355	-0,09
785,789	-0,1
786,223	-0,11
786,656	-0,13
787,09	-0,13
787,524	-0,14
787,957	-0,15
788,391	-0,17
788,825	-0,18
789,258	-0,2
789,692	-0,22
790,125	-0,23
790,559	-0,25
790,992	-0,27
791,426	-0,29
791,859	-0,31
792,293	-0,34
792,726	-0,36
793,159	-0,37
793,593	-0,39
794,026	-0,42
794,459	-0,44
794,892	-0,47
795,326	-0,5
795,759	-0,54
796,192	-0,58
796,625	-0,62
797,058	-0,64
797,491	-0,69
797,924	-0,72
798,357	-0,77
798,79	-0,81
799,223	-0,85
799,656	-0,91
800,089	-0,95
800,522	-1
800,955	-1,04
801,387	-1,1
801,82	-1,15
802,253	-1,21
802,686	-1,29
803,118	-1,35
803,551	-1,4
803,984	-1,44
804,416	-1,48
804,849	-1,51
805,281	-1,61
805,714	-1,94
806,146	-2,43
806,579	-2,7
807,011	-2,86
807,444	-2,96
807,876	-3,04
808,308	-3,08
808,741	-3,11
809,173	-3,16
809,605	-3,18
810,037	-3,26
810,47	-3,18
810,902	-2,98
811,334	-2,83
811,766	-2,67
812,198	-2,43
812,63	-2
813,062	-1,79
813,494	-1,7
813,926	-1,61
814,358	-1,56
814,79	-1,48
815,222	-1,42
815,654	-1,37
816,086	-1,31
816,518	-1,25
816,949	-1,2
817,381	-1,16
817,813	-1,14
818,245	-1,1
818,676	-1,06
819,108	-1,03
819,54	-1,02
819,971	-1
820,403	-0,95
820,834	-0,93
821,266	-0,89
821,697	-0,87
822,129	-0,85
822,56	-0,83
822,991	-0,81
823,423	-0,78
823,854	-0,77
824,286	-0,74
824,717	-0,73
825,148	-0,71
825,579	-0,71
826,01	-0,69
826,442	-0,68
826,873	-0,67
827,304	-0,63
827,735	-0,63
828,166	-0,63
828,597	-0,63
829,028	-0,63
829,459	-0,63
829,89	-0,63
830,321	-0,59
830,752	-0,6
831,183	-0,59
831,613	-0,58
832,044	-0,59
832,475	-0,57
832,906	-0,59
833,336	-0,58
833,767	-0,59
834,198	-0,58
834,628	-0,56
835,059	-0,6
835,49	-0,61
835,92	-0,58
836,351	-0,58
836,781	-0,58
837,212	-0,59
837,642	-0,59
838,072	-0,57
838,503	-0,58
838,933	-0,56
839,364	-0,57
839,794	-0,55
840,224	-0,53
840,654	-0,58
841,085	-0,58
841,515	-0,56
841,945	-0,56
842,375	-0,51
842,805	-0,51
843,235	-0,49
843,665	-0,51
844,095	-0,49
844,525	-0,5
844,955	-0,51
845,385	-0,48
845,815	-0,46
846,245	-0,49
846,675	-0,5
847,105	-0,52
847,534	-0,52
847,964	-0,5
848,394	-0,5
848,824	-0,53
849,253	-0,52
849,683	-0,52
850,112	-0,54
850,542	-0,57
850,972	-0,58
851,401	-0,56
851,831	-0,54
852,26	-0,55
852,69	-0,58
853,119	-0,57
853,548	-0,57
853,978	-0,58
854,407	-0,56
854,836	-0,56
855,266	-0,55
855,695	-0,56
856,124	-0,57
856,553	-0,57
856,983	-0,59
857,412	-0,58
857,841	-0,6
858,27	-0,6
858,699	-0,61
859,128	-0,64
859,557	-0,65
859,986	-0,66
860,415	-0,63
860,844	-0,61
861,273	-0,62
861,702	-0,62
862,13	-0,61
862,559	-0,63
862,988	-0,6
863,417	-0,58
863,845	-0,58
864,274	-0,59
864,703	-0,58
865,131	-0,59
865,56	-0,61
865,989	-0,63
866,417	-0,6
866,846	-0,61
867,274	-0,6
867,703	-0,62
868,131	-0,63
868,559	-0,64
868,988	-0,66
869,416	-0,65
869,844	-0,66
870,273	-0,68
870,701	-0,67
871,129	-0,7
871,557	-0,72
871,986	-0,72
872,414	-0,73
872,842	-0,7
873,27	-0,67
873,698	-0,64
874,126	-0,67
874,554	-0,66
874,982	-0,65
875,41	-0,68
875,838	-0,64
876,266	-0,62
876,694	-0,62
877,122	-0,61
877,549	-0,67
877,977	-0,64
878,405	-0,66
878,833	-0,63
879,26	-0,61
879,688	-0,61
880,116	-0,59
880,543	-0,56
880,971	-0,55
881,399	-0,58
881,826	-0,58
882,254	-0,56
882,681	-0,6
883,109	-0,56
883,536	-0,57
883,963	-0,59
884,391	-0,58
884,818	-0,58
885,245	-0,62
885,673	-0,64
886,1	-0,62
886,527	-0,61
886,954	-0,57
887,381	-0,58
887,809	-0,6
888,236	-0,62
888,663	-0,62
889,09	-0,67
889,517	-0,68
889,944	-0,67
890,371	-0,66
890,798	-0,66
891,225	-0,67
891,652	-0,7
892,078	-0,67
892,505	-0,7
892,932	-0,65
893,359	-0,66
893,786	-0,66
894,212	-0,63
894,639	-0,64
895,066	-0,67
895,492	-0,61
895,919	-0,61
896,346	-0,6
896,772	-0,61
897,199	-0,57
897,625	-0,6
898,052	-0,56
898,478	-0,54
898,904	-0,55
899,331	-0,55
899,757	-0,57
900,183	-0,6
900,61	-0,58
901,036	-0,59
901,462	-0,59
901,888	-0,59
902,315	-0,58
902,741	-0,63
903,167	-0,62
903,593	-0,65
904,019	-0,63
904,445	-0,6
904,871	-0,63
905,297	-0,65
905,723	-0,64
906,149	-0,63
906,575	-0,64
907,001	-0,63
907,427	-0,61
907,852	-0,6
908,278	-0,61
908,704	-0,58
909,13	-0,58
909,555	-0,57
909,981	-0,56
910,407	-0,57
910,832	-0,56
911,258	-0,56
911,684	-0,56
912,109	-0,56
912,535	-0,57
912,96	-0,53
913,386	-0,58
913,811	-0,57
914,236	-0,59
914,662	-0,56
915,087	-0,59
915,512	-0,6
915,938	-0,62
916,363	-0,62
916,788	-0,63
917,213	-0,61
917,639	-0,66
918,064	-0,63
918,489	-0,63
918,914	-0,63
919,339	-0,65
919,764	-0,62
920,189	-0,63
920,614	-0,64
921,039	-0,64
921,464	-0,6
921,889	-0,63
922,314	-0,63
922,738	-0,67
923,163	-0,69
923,588	-0,68
924,013	-0,68
924,437	-0,67
924,862	-0,68
925,287	-0,64
925,711	-0,64
926,136	-0,66
926,561	-0,64
926,985	-0,63
927,41	-0,6
927,834	-0,57
928,259	-0,55
928,683	-0,53
929,108	-0,5
929,532	-0,51
929,956	-0,51
930,381	-0,5
930,805	-0,5
931,229	-0,5
931,653	-0,48
932,078	-0,47
932,502	-0,49
932,926	-0,49
933,35	-0,49
933,774	-0,48
934,198	-0,46
934,622	-0,44
935,046	-0,46
935,47	-0,46
935,894	-0,46
936,318	-0,46
936,742	-0,46
937,166	-0,47
937,59	-0,47
938,014	-0,49
938,437	-0,5
938,861	-0,52
939,285	-0,53
939,709	-0,52
940,132	-0,53
940,556	-0,53
940,98	-0,53
941,403	-0,52
941,827	-0,52
942,25	-0,54
942,674	-0,52
943,097	-0,51
943,521	-0,52
943,944	-0,53
944,368	-0,52
944,791	-0,51
945,214	-0,53
945,638	-0,53
946,061	-0,56
946,484	-0,56
946,907	-0,54
947,331	-0,54
947,754	-0,58
948,177	-0,54
948,6	-0,54
949,023	-0,54
949,446	-0,54
949,869	-0,51
950,292	-0,52
950,715	-0,48
951,138	-0,47
951,561	-0,45
951,984	-0,45
952,407	-0,44
952,83	-0,43
953,252	-0,39
953,675	-0,37
954,098	-0,38
954,521	-0,37
954,943	-0,37
955,366	-0,38
955,789	-0,36
956,211	-0,38
956,634	-0,39
957,056	-0,36
957,479	-0,38
957,902	-0,4
958,324	-0,41
958,746	-0,39
959,169	-0,4
959,591	-0,39
960,014	-0,4
960,436	-0,4
960,858	-0,4
961,281	-0,41
961,703	-0,41
962,125	-0,41
962,547	-0,39
962,969	-0,4
963,391	-0,4
963,814	-0,41
964,236	-0,4
964,658	-0,38
965,08	-0,38
965,502	-0,37
965,924	-0,34
966,346	-0,35
966,768	-0,34
967,189	-0,36
967,611	-0,36
968,033	-0,36
968,455	-0,34
968,877	-0,35
969,298	-0,36
969,72	-0,36
970,142	-0,35
970,563	-0,36
970,985	-0,35
971,407	-0,34
971,828	-0,31
972,25	-0,3
972,671	-0,29
973,093	-0,28
973,514	-0,27
973,936	-0,25
974,357	-0,24
974,778	-0,24
975,2	-0,23
975,621	-0,22
976,042	-0,2
976,464	-0,2
976,885	-0,19
977,306	-0,18
977,727	-0,17
978,148	-0,16
978,57	-0,15
978,991	-0,13
979,412	-0,12
979,833	-0,11
980,254	-0,11
980,675	-0,11
981,096	-0,09
981,517	-0,08
981,937	-0,07
982,358	-0,06
982,779	-0,04
983,2	-0,03
983,621	-0,03
984,042	-0
984,462	0,01
984,883	0,03
985,304	0,04
985,724	0,06
986,145	0,07
986,565	0,09
986,986	0,1
987,407	0,11
987,827	0,13
988,248	0,14
988,668	0,15
989,088	0,17
989,509	0,18
989,929	0,19
990,35	0,2
990,77	0,22
991,19	0,23
991,61	0,24
992,031	0,25
992,451	0,27
992,871	0,28
993,291	0,29
993,711	0,3
994,131	0,31
994,551	0,32
994,971	0,33
995,391	0,34
995,811	0,35
996,231	0,35
996,651	0,36
997,071	0,37
997,491	0,38
997,911	0,39
998,331	0,4
998,75	0,41
999,17	0,41
999,59	0,42
1000,009	0,43
1000,429	0,43
1000,849	0,44
1001,268	0,45
1001,688	0,45
1002,107	0,45
1002,527	0,46
1002,946	0,46
1003,366	0,47
1003,785	0,47
1004,205	0,48
1004,624	0,48
1005,044	0,49
1005,463	0,49
1005,882	0,49
1006,301	0,49
1006,721	0,5
1007,14	0,5
1007,559	0,5
1007,978	0,5
1008,397	0,5
1008,816	0,5
1009,235	0,5
1009,655	0,5
1010,074	0,5
1010,492	0,5
1010,911	0,5
1011,33	0,5
1011,749	0,5
1012,168	0,5
1012,587	0,5
1013,006	0,5
1013,425	0,5
1013,843	0,5
1014,262	0,5
1014,681	0,5
1015,099	0,5
1015,518	0,5
1015,937	0,5
1016,355	0,5
1016,774	0,5
1017,192	0,5
1017,611	0,5
1018,029	0,49
1018,448	0,49
1018,866	0,49
1019,285	0,49
1019,703	0,49
1020,121	0,49
1020,54	0,49
1020,958	0,49
1021,376	0,49
1021,794	0,49
1022,213	0,49
1022,631	0,49
1023,049	0,49
1023,467	0,49
1023,885	0,49
1024,303	0,48
1024,721	0,48
1025,139	0,48
1025,557	0,48
1025,975	0,48
1026,393	0,48
1026,811	0,48
1027,229	0,48
1027,647	0,48
1028,065	0,48
1028,482	0,48
1028,9	0,48
1029,318	0,48
1029,735	0,47
1030,153	0,47
1030,571	0,47
1030,988	0,47
1031,406	0,47
1031,823	0,47
1032,241	0,47
1032,659	0,48
1033,076	0,48
1033,493	0,48
1033,911	0,48
1034,328	0,48
1034,746	0,48
1035,163	0,48
1035,58	0,48
1035,997	0,48
1036,415	0,48
1036,832	0,48
1037,249	0,48
1037,666	0,48
1038,083	0,48
1038,501	0,48
1038,918	0,48
1039,335	0,48
1039,752	0,48
1040,169	0,48
1040,586	0,48
1041,003	0,48
1041,419	0,48
1041,836	0,48
1042,253	0,48
1042,67	0,48
1043,087	0,48
1043,504	0,48
1043,92	0,48
1044,337	0,48
1044,754	0,48
1045,17	0,48
1045,587	0,48
1046,004	0,48
1046,42	0,48
1046,837	0,48
1047,253	0,47
1047,67	0,47
1048,086	0,47
1048,503	0,47
1048,919	0,47
1049,335	0,47
1049,752	0,47
1050,168	0,47
1050,584	0,47
1051,001	0,48
1051,417	0,48
1051,833	0,48
1052,249	0,48
1052,665	0,48
1053,081	0,48
1053,497	0,48
1053,914	0,48
1054,33	0,48
1054,746	0,48
1055,162	0,49
1055,578	0,49
1055,993	0,49
1056,409	0,49
1056,825	0,49
1057,241	0,49
1057,657	0,49
1058,073	0,49
1058,488	0,49
1058,904	0,49
1059,32	0,49
1059,736	0,49
1060,151	0,49
1060,567	0,49
1060,982	0,49
1061,398	0,49
1061,813	0,49
1062,229	0,49
1062,644	0,49
1063,06	0,49
1063,475	0,49
1063,891	0,49
1064,306	0,48
1064,721	0,48
1065,137	0,48
1065,552	0,48
1065,967	0,48
1066,382	0,48
1066,798	0,48
1067,213	0,48
1067,628	0,48
1068,043	0,48
1068,458	0,48
1068,873	0,48
1069,288	0,48
1069,703	0,48
1070,118	0,48
1070,533	0,48
1070,948	0,48
1071,363	0,48
1071,778	0,48
1072,193	0,48
1072,607	0,48
1073,022	0,48
1073,437	0,48
1073,852	0,48
1074,266	0,48
1074,681	0,48
1075,096	0,48
1075,51	0,48
1075,925	0,48
1076,339	0,48
1076,754	0,48
1077,168	0,48
1077,583	0,48
1077,997	0,48
1078,412	0,48
1078,826	0,48
1079,24	0,48
1079,655	0,47
1080,069	0,47
1080,483	0,47
1080,897	0,47
1081,312	0,47
1081,726	0,47
1082,14	0,47
1082,554	0,47
1082,968	0,47
1083,382	0,46
1083,796	0,46
1084,21	0,46
1084,624	0,46
1085,038	0,46
1085,452	0,46
1085,866	0,46
1086,28	0,45
1086,694	0,45
1087,108	0,45
1087,521	0,45
1087,935	0,45
1088,349	0,45
1088,763	0,44
1089,176	0,44
1089,59	0,44
1090,004	0,44
1090,417	0,43
1090,831	0,43
1091,244	0,42
1091,658	0,42
1092,071	0,42
1092,485	0,41
1092,898	0,41
1093,312	0,41
1093,725	0,41
1094,138	0,4
1094,552	0,4
1094,965	0,4
1095,378	0,39
1095,791	0,39
1096,205	0,39
1096,618	0,38
1097,031	0,38
1097,444	0,38
1097,857	0,37
1098,27	0,37
1098,683	0,37
1099,096	0,36
1099,509	0,36
1099,922	0,35
1100,335	0,35
1100,748	0,34
1101,161	0,33
1101,574	0,32
1101,986	0,32
1102,399	0,32
1102,812	0,31
1103,225	0,31
1103,637	0,31
1104,05	0,3
1104,463	0,31
1104,875	0,3
1105,288	0,3
1105,7	0,3
1106,113	0,29
1106,525	0,29
1106,938	0,28
1107,35	0,27
1107,763	0,27
1108,175	0,27
1108,588	0,26
1109	0,25
1109,412	0,24
1109,824	0,24
1110,237	0,24
1110,649	0,23
1111,061	0,24
