Data from 18C-808nm-8A-cont_Absorbance__204__01633.txt Node

Date: Mon Jul 17 17:25:05 CEST 2023
User: Laser008
Spectrometer: MAYP115816
Trigger mode: 0
Integration Time (sec): 2,500000E-1
Scans to average: 10
Electric dark correction enabled: true
Nonlinearity correction enabled: true
Boxcar width: 5
XAxis mode: Wavelengths
Number of Pixels in Spectrum: 2068
>>>>>Begin Spectral Data<<<<<
198,914	-0,72
199,384	-0,47
199,855	-0,33
200,325	-0,24
200,796	-0,21
201,266	-0,17
201,737	-0,16
202,207	-0,16
202,677	-0,15
203,147	-0,13
203,618	-0,1
204,088	-0,09
204,558	-0,07
205,028	-0,07
205,498	-0,07
205,968	-0,08
206,439	-0,1
206,909	-0,09
207,379	-0,09
207,849	-0,1
208,319	-0,11
208,789	-0,1
209,258	-0,1
209,728	-0,12
210,198	-0,12
210,668	-0,12
211,138	-0,11
211,608	-0,1
212,077	-0,11
212,547	-0,1
213,017	-0,1
213,486	-0,11
213,956	-0,12
214,426	-0,13
214,895	-0,12
215,365	-0,14
215,834	-0,14
216,304	-0,15
216,773	-0,15
217,243	-0,16
217,712	-0,18
218,181	-0,17
218,651	-0,16
219,12	-0,16
219,589	-0,16
220,058	-0,16
220,528	-0,15
220,997	-0,17
221,466	-0,18
221,935	-0,19
222,404	-0,19
222,873	-0,18
223,342	-0,18
223,812	-0,18
224,281	-0,18
224,749	-0,18
225,218	-0,19
225,687	-0,19
226,156	-0,17
226,625	-0,16
227,094	-0,14
227,563	-0,14
228,031	-0,16
228,5	-0,16
228,969	-0,18
229,438	-0,17
229,906	-0,17
230,375	-0,16
230,844	-0,16
231,312	-0,17
231,781	-0,18
232,249	-0,17
232,718	-0,17
233,186	-0,15
233,655	-0,16
234,123	-0,15
234,591	-0,15
235,06	-0,16
235,528	-0,16
235,996	-0,15
236,465	-0,15
236,933	-0,14
237,401	-0,15
237,869	-0,13
238,337	-0,13
238,805	-0,12
239,274	-0,11
239,742	-0,11
240,21	-0,1
240,678	-0,09
241,146	-0,09
241,614	-0,09
242,081	-0,08
242,549	-0,08
243,017	-0,09
243,485	-0,1
243,953	-0,09
244,421	-0,09
244,888	-0,09
245,356	-0,1
245,824	-0,09
246,291	-0,1
246,759	-0,11
247,227	-0,11
247,694	-0,1
248,162	-0,09
248,629	-0,08
249,097	-0,08
249,564	-0,09
250,032	-0,09
250,499	-0,09
250,967	-0,1
251,434	-0,1
251,901	-0,09
252,369	-0,09
252,836	-0,11
253,303	-0,13
253,77	-0,15
254,237	-0,14
254,705	-0,14
255,172	-0,13
255,639	-0,13
256,106	-0,15
256,573	-0,16
257,04	-0,16
257,507	-0,16
257,974	-0,16
258,441	-0,15
258,908	-0,15
259,375	-0,17
259,841	-0,17
260,308	-0,17
260,775	-0,17
261,242	-0,16
261,709	-0,16
262,175	-0,17
262,642	-0,17
263,109	-0,17
263,575	-0,18
264,042	-0,16
264,508	-0,17
264,975	-0,18
265,441	-0,19
265,908	-0,2
266,374	-0,19
266,841	-0,2
267,307	-0,2
267,773	-0,19
268,24	-0,19
268,706	-0,19
269,172	-0,2
269,639	-0,21
270,105	-0,19
270,571	-0,19
271,037	-0,2
271,503	-0,21
271,969	-0,2
272,435	-0,2
272,902	-0,22
273,368	-0,23
273,834	-0,23
274,3	-0,23
274,765	-0,22
275,231	-0,23
275,697	-0,22
276,163	-0,21
276,629	-0,2
277,095	-0,2
277,56	-0,2
278,026	-0,21
278,492	-0,19
278,958	-0,19
279,423	-0,2
279,889	-0,19
280,354	-0,2
280,82	-0,19
281,286	-0,22
281,751	-0,23
282,217	-0,23
282,682	-0,22
283,147	-0,21
283,613	-0,22
284,078	-0,22
284,544	-0,23
285,009	-0,23
285,474	-0,22
285,939	-0,23
286,405	-0,22
286,87	-0,21
287,335	-0,2
287,8	-0,19
288,265	-0,18
288,73	-0,2
289,195	-0,22
289,66	-0,21
290,125	-0,21
290,59	-0,21
291,055	-0,21
291,52	-0,21
291,985	-0,22
292,45	-0,23
292,915	-0,23
293,38	-0,23
293,844	-0,21
294,309	-0,19
294,774	-0,17
295,239	-0,19
295,703	-0,19
296,168	-0,18
296,632	-0,18
297,097	-0,16
297,562	-0,15
298,026	-0,15
298,491	-0,16
298,955	-0,16
299,419	-0,16
299,884	-0,16
300,348	-0,15
300,813	-0,14
301,277	-0,14
301,741	-0,14
302,205	-0,14
302,67	-0,13
303,134	-0,12
303,598	-0,12
304,062	-0,11
304,526	-0,11
304,99	-0,12
305,454	-0,12
305,919	-0,12
306,383	-0,11
306,847	-0,11
307,31	-0,12
307,774	-0,14
308,238	-0,14
308,702	-0,13
309,166	-0,15
309,63	-0,15
310,094	-0,13
310,557	-0,12
311,021	-0,12
311,485	-0,12
311,948	-0,11
312,412	-0,1
312,876	-0,09
313,339	-0,1
313,803	-0,11
314,266	-0,1
314,73	-0,1
315,193	-0,11
315,657	-0,1
316,12	-0,1
316,584	-0,08
317,047	-0,09
317,51	-0,07
317,973	-0,07
318,437	-0,06
318,9	-0,04
319,363	-0,04
319,826	-0,03
320,29	-0,03
320,753	-0,03
321,216	-0,02
321,679	-0,03
322,142	-0,02
322,605	-0,04
323,068	-0,03
323,531	-0,04
323,994	-0,03
324,457	-0,03
324,92	-0,02
325,382	-0,02
325,845	-0,01
326,308	-0,01
326,771	-0,01
327,233	-0,01
327,696	0
328,159	0,01
328,622	0,02
329,084	0,01
329,547	0,01
330,009	0,01
330,472	0,03
330,934	0,03
331,397	0,03
331,859	0,03
332,322	0,04
332,784	0,05
333,246	0,06
333,709	0,05
334,171	0,06
334,633	0,06
335,096	0,06
335,558	0,06
336,02	0,06
336,482	0,06
336,944	0,07
337,406	0,08
337,868	0,07
338,331	0,07
338,793	0,09
339,255	0,1
339,717	0,1
340,178	0,1
340,64	0,11
341,102	0,12
341,564	0,13
342,026	0,15
342,488	0,15
342,949	0,16
343,411	0,19
343,873	0,21
344,335	0,24
344,796	0,28
345,258	0,32
345,719	0,36
346,181	0,41
346,643	0,44
347,104	0,47
347,566	0,5
348,027	0,53
348,488	0,55
348,95	0,57
349,411	0,59
349,873	0,61
350,334	0,63
350,795	0,64
351,256	0,65
351,718	0,66
352,179	0,66
352,64	0,67
353,101	0,67
353,562	0,67
354,023	0,67
354,484	0,68
354,945	0,68
355,406	0,68
355,867	0,68
356,328	0,69
356,789	0,69
357,25	0,69
357,711	0,69
358,172	0,69
358,633	0,69
359,093	0,7
359,554	0,7
360,015	0,7
360,476	0,7
360,936	0,7
361,397	0,7
361,858	0,7
362,318	0,7
362,779	0,7
363,239	0,7
363,7	0,7
364,16	0,7
364,621	0,71
365,081	0,71
365,541	0,71
366,002	0,7
366,462	0,7
366,922	0,7
367,383	0,7
367,843	0,7
368,303	0,7
368,763	0,7
369,223	0,7
369,684	0,7
370,144	0,7
370,604	0,7
371,064	0,71
371,524	0,7
371,984	0,7
372,444	0,7
372,904	0,7
373,363	0,7
373,823	0,7
374,283	0,7
374,743	0,7
375,203	0,7
375,663	0,7
376,122	0,7
376,582	0,7
377,042	0,7
377,501	0,7
377,961	0,7
378,42	0,7
378,88	0,7
379,34	0,7
379,799	0,7
380,259	0,7
380,718	0,7
381,177	0,7
381,637	0,7
382,096	0,7
382,555	0,7
383,015	0,7
383,474	0,7
383,933	0,7
384,393	0,7
384,852	0,7
385,311	0,7
385,77	0,7
386,229	0,7
386,688	0,69
387,147	0,69
387,606	0,69
388,065	0,69
388,524	0,69
388,983	0,69
389,442	0,69
389,901	0,69
390,36	0,69
390,819	0,69
391,277	0,69
391,736	0,69
392,195	0,69
392,654	0,69
393,112	0,69
393,571	0,69
394,03	0,69
394,488	0,69
394,947	0,69
395,405	0,69
395,864	0,69
396,322	0,69
396,781	0,69
397,239	0,69
397,698	0,69
398,156	0,69
398,614	0,69
399,073	0,69
399,531	0,69
399,989	0,69
400,447	0,69
400,905	0,69
401,364	0,69
401,822	0,68
402,28	0,68
402,738	0,68
403,196	0,68
403,654	0,68
404,112	0,68
404,57	0,68
405,028	0,68
405,486	0,68
405,944	0,68
406,402	0,68
406,859	0,68
407,317	0,68
407,775	0,68
408,233	0,68
408,691	0,68
409,148	0,68
409,606	0,68
410,064	0,68
410,521	0,68
410,979	0,68
411,436	0,68
411,894	0,68
412,351	0,68
412,809	0,68
413,266	0,68
413,724	0,68
414,181	0,68
414,638	0,68
415,096	0,68
415,553	0,68
416,01	0,68
416,467	0,68
416,925	0,68
417,382	0,68
417,839	0,68
418,296	0,68
418,753	0,68
419,21	0,68
419,667	0,68
420,124	0,68
420,581	0,68
421,038	0,68
421,495	0,68
421,952	0,68
422,409	0,68
422,866	0,68
423,322	0,68
423,779	0,68
424,236	0,68
424,693	0,68
425,149	0,68
425,606	0,68
426,063	0,68
426,519	0,68
426,976	0,68
427,433	0,68
427,889	0,68
428,346	0,68
428,802	0,68
429,258	0,68
429,715	0,67
430,171	0,67
430,628	0,67
431,084	0,67
431,54	0,67
431,997	0,67
432,453	0,67
432,909	0,67
433,365	0,67
433,821	0,67
434,277	0,67
434,734	0,67
435,19	0,67
435,646	0,67
436,102	0,67
436,558	0,67
437,014	0,67
437,47	0,67
437,925	0,67
438,381	0,67
438,837	0,67
439,293	0,67
439,749	0,67
440,205	0,67
440,66	0,67
441,116	0,67
441,572	0,67
442,027	0,67
442,483	0,67
442,939	0,67
443,394	0,67
443,85	0,67
444,305	0,67
444,761	0,68
445,216	0,68
445,672	0,68
446,127	0,68
446,582	0,68
447,038	0,68
447,493	0,68
447,948	0,68
448,403	0,68
448,859	0,68
449,314	0,68
449,769	0,68
450,224	0,68
450,679	0,68
451,134	0,68
451,589	0,68
452,044	0,68
452,499	0,68
452,954	0,68
453,409	0,68
453,864	0,68
454,319	0,68
454,774	0,68
455,229	0,68
455,684	0,68
456,138	0,68
456,593	0,68
457,048	0,68
457,503	0,68
457,957	0,68
458,412	0,68
458,866	0,68
459,321	0,68
459,776	0,68
460,23	0,68
460,685	0,68
461,139	0,68
461,593	0,68
462,048	0,69
462,502	0,69
462,957	0,69
463,411	0,69
463,865	0,69
464,319	0,69
464,774	0,69
465,228	0,69
465,682	0,69
466,136	0,69
466,59	0,69
467,044	0,69
467,499	0,69
467,953	0,69
468,407	0,7
468,861	0,7
469,315	0,7
469,768	0,7
470,222	0,7
470,676	0,7
471,13	0,7
471,584	0,7
472,038	0,7
472,491	0,7
472,945	0,7
473,399	0,7
473,852	0,7
474,306	0,7
474,76	0,71
475,213	0,71
475,667	0,71
476,12	0,71
476,574	0,71
477,027	0,71
477,481	0,71
477,934	0,71
478,388	0,72
478,841	0,72
479,294	0,72
479,748	0,72
480,201	0,72
480,654	0,72
481,107	0,72
481,561	0,73
482,014	0,73
482,467	0,73
482,92	0,73
483,373	0,73
483,826	0,73
484,279	0,73
484,732	0,74
485,185	0,74
485,638	0,74
486,091	0,74
486,544	0,74
486,997	0,75
487,449	0,75
487,902	0,75
488,355	0,75
488,808	0,75
489,26	0,76
489,713	0,76
490,166	0,76
490,618	0,76
491,071	0,77
491,523	0,77
491,976	0,77
492,429	0,77
492,881	0,78
493,333	0,78
493,786	0,78
494,238	0,78
494,691	0,79
495,143	0,79
495,595	0,79
496,048	0,8
496,5	0,8
496,952	0,8
497,404	0,8
497,856	0,81
498,309	0,81
498,761	0,81
499,213	0,82
499,665	0,82
500,117	0,82
500,569	0,83
501,021	0,83
501,473	0,83
501,925	0,84
502,377	0,84
502,828	0,85
503,28	0,85
503,732	0,85
504,184	0,86
504,636	0,86
505,087	0,86
505,539	0,87
505,991	0,87
506,442	0,87
506,894	0,88
507,345	0,88
507,797	0,88
508,249	0,89
508,7	0,89
509,151	0,89
509,603	0,9
510,054	0,9
510,506	0,9
510,957	0,91
511,408	0,91
511,86	0,91
512,311	0,92
512,762	0,92
513,213	0,92
513,665	0,93
514,116	0,93
514,567	0,93
515,018	0,93
515,469	0,94
515,92	0,94
516,371	0,94
516,822	0,94
517,273	0,95
517,724	0,95
518,175	0,95
518,626	0,95
519,076	0,96
519,527	0,96
519,978	0,96
520,429	0,96
520,88	0,97
521,33	0,97
521,781	0,97
522,232	0,97
522,682	0,97
523,133	0,97
523,583	0,97
524,034	0,98
524,484	0,98
524,935	0,98
525,385	0,98
525,836	0,98
526,286	0,98
526,736	0,98
527,187	0,98
527,637	0,98
528,087	0,98
528,538	0,98
528,988	0,98
529,438	0,98
529,888	0,98
530,338	0,98
530,788	0,98
531,238	0,97
531,688	0,97
532,139	0,97
532,589	0,97
533,038	0,97
533,488	0,97
533,938	0,96
534,388	0,96
534,838	0,96
535,288	0,96
535,738	0,95
536,187	0,95
536,637	0,95
537,087	0,95
537,537	0,94
537,986	0,94
538,436	0,94
538,885	0,93
539,335	0,93
539,785	0,92
540,234	0,92
540,684	0,92
541,133	0,91
541,582	0,91
542,032	0,9
542,481	0,9
542,931	0,89
543,38	0,89
543,829	0,89
544,278	0,88
544,728	0,88
545,177	0,87
545,626	0,87
546,075	0,87
546,524	0,86
546,973	0,86
547,422	0,86
547,871	0,85
548,32	0,85
548,769	0,85
549,218	0,85
549,667	0,85
550,116	0,84
550,565	0,84
551,014	0,83
551,463	0,83
551,911	0,83
552,36	0,82
552,809	0,82
553,258	0,82
553,706	0,81
554,155	0,81
554,603	0,81
555,052	0,8
555,501	0,8
555,949	0,79
556,398	0,79
556,846	0,79
557,294	0,78
557,743	0,78
558,191	0,77
558,64	0,77
559,088	0,76
559,536	0,76
559,985	0,76
560,433	0,75
560,881	0,75
561,329	0,75
561,777	0,74
562,225	0,74
562,674	0,74
563,122	0,73
563,57	0,73
564,018	0,73
564,466	0,72
564,914	0,72
565,362	0,72
565,809	0,71
566,257	0,71
566,705	0,71
567,153	0,7
567,601	0,7
568,048	0,7
568,496	0,69
568,944	0,69
569,392	0,69
569,839	0,68
570,287	0,68
570,734	0,68
571,182	0,68
571,63	0,67
572,077	0,67
572,525	0,67
572,972	0,66
573,419	0,66
573,867	0,66
574,314	0,65
574,761	0,65
575,209	0,65
575,656	0,64
576,103	0,64
576,551	0,64
576,998	0,64
577,445	0,63
577,892	0,63
578,339	0,63
578,786	0,63
579,233	0,62
579,68	0,62
580,127	0,62
580,574	0,62
581,021	0,61
581,468	0,61
581,915	0,61
582,362	0,61
582,809	0,61
583,255	0,6
583,702	0,6
584,149	0,6
584,596	0,6
585,042	0,6
585,489	0,59
585,936	0,59
586,382	0,59
586,829	0,59
587,275	0,59
587,722	0,58
588,168	0,58
588,615	0,58
589,061	0,58
589,508	0,58
589,954	0,58
590,4	0,57
590,847	0,57
591,293	0,57
591,739	0,57
592,185	0,57
592,632	0,57
593,078	0,57
593,524	0,56
593,97	0,56
594,416	0,56
594,862	0,56
595,308	0,56
595,754	0,56
596,2	0,56
596,646	0,56
597,092	0,55
597,538	0,55
597,984	0,55
598,43	0,55
598,876	0,55
599,321	0,55
599,767	0,55
600,213	0,55
600,659	0,55
601,104	0,54
601,55	0,54
601,995	0,54
602,441	0,54
602,887	0,54
603,332	0,54
603,778	0,54
604,223	0,54
604,668	0,54
605,114	0,53
605,559	0,53
606,005	0,53
606,45	0,53
606,895	0,53
607,341	0,53
607,786	0,53
608,231	0,53
608,676	0,52
609,121	0,52
609,566	0,51
610,012	0,51
610,457	0,5
610,902	0,5
611,347	0,5
611,792	0,5
612,237	0,5
612,682	0,49
613,127	0,49
613,571	0,5
614,016	0,5
614,461	0,5
614,906	0,5
615,351	0,5
615,795	0,51
616,24	0,51
616,685	0,51
617,129	0,51
617,574	0,51
618,019	0,51
618,463	0,51
618,908	0,51
619,352	0,51
619,797	0,51
620,241	0,5
620,686	0,5
621,13	0,5
621,574	0,5
622,019	0,5
622,463	0,5
622,907	0,5
623,352	0,5
623,796	0,5
624,24	0,5
624,684	0,5
625,128	0,5
625,572	0,49
626,016	0,5
626,461	0,5
626,905	0,5
627,349	0,49
627,793	0,49
628,236	0,49
628,68	0,49
629,124	0,49
629,568	0,49
630,012	0,49
630,456	0,49
630,9	0,49
631,343	0,49
631,787	0,49
632,231	0,49
632,674	0,49
633,118	0,49
633,562	0,49
634,005	0,49
634,449	0,49
634,892	0,49
635,336	0,49
635,779	0,49
636,223	0,49
636,666	0,49
637,109	0,49
637,553	0,49
637,996	0,49
638,439	0,49
638,883	0,49
639,326	0,49
639,769	0,49
640,212	0,49
640,655	0,48
641,099	0,48
641,542	0,48
641,985	0,48
642,428	0,48
642,871	0,48
643,314	0,48
643,757	0,48
644,2	0,48
644,643	0,48
645,085	0,48
645,528	0,48
645,971	0,48
646,414	0,48
646,857	0,48
647,299	0,48
647,742	0,48
648,185	0,48
648,627	0,48
649,07	0,47
649,513	0,47
649,955	0,47
650,398	0,47
650,84	0,48
651,283	0,48
651,725	0,48
652,168	0,48
652,61	0,48
653,052	0,48
653,495	0,48
653,937	0,39
654,379	0,33
654,821	0,34
655,264	0,34
655,706	0,34
656,148	0,34
656,59	0,34
657,032	0,34
657,474	0,34
657,916	0,34
658,358	0,33
658,8	0,39
659,242	0,47
659,684	0,48
660,126	0,47
660,568	0,47
661,01	0,47
661,452	0,47
661,894	0,47
662,335	0,47
662,777	0,47
663,219	0,47
663,661	0,47
664,102	0,47
664,544	0,47
664,985	0,47
665,427	0,47
665,869	0,47
666,31	0,47
666,752	0,47
667,193	0,47
667,634	0,47
668,076	0,47
668,517	0,47
668,959	0,47
669,4	0,47
669,841	0,47
670,282	0,47
670,724	0,47
671,165	0,47
671,606	0,47
672,047	0,47
672,488	0,47
672,929	0,47
673,37	0,47
673,811	0,47
674,252	0,47
674,693	0,46
675,134	0,46
675,575	0,46
676,016	0,46
676,457	0,46
676,898	0,46
677,339	0,46
677,78	0,46
678,22	0,46
678,661	0,46
679,102	0,46
679,542	0,46
679,983	0,46
680,424	0,46
680,864	0,46
681,305	0,46
681,745	0,46
682,186	0,46
682,626	0,46
683,067	0,46
683,507	0,46
683,948	0,46
684,388	0,46
684,828	0,46
685,269	0,46
685,709	0,46
686,149	0,46
686,589	0,46
687,029	0,46
687,47	0,45
687,91	0,45
688,35	0,45
688,79	0,45
689,23	0,45
689,67	0,45
690,11	0,45
690,55	0,45
690,99	0,45
691,43	0,45
691,87	0,45
692,31	0,45
692,749	0,45
693,189	0,45
693,629	0,45
694,069	0,44
694,508	0,44
694,948	0,44
695,388	0,44
695,827	0,44
696,267	0,44
696,706	0,45
697,146	0,45
697,586	0,45
698,025	0,45
698,464	0,45
698,904	0,45
699,343	0,45
699,783	0,45
700,222	0,45
700,661	0,45
701,101	0,45
701,54	0,45
701,979	0,45
702,418	0,45
702,857	0,45
703,297	0,45
703,736	0,45
704,175	0,45
704,614	0,45
705,053	0,45
705,492	0,45
705,931	0,45
706,37	0,45
706,809	0,45
707,248	0,45
707,687	0,45
708,125	0,45
708,564	0,45
709,003	0,45
709,442	0,44
709,88	0,44
710,319	0,44
710,758	0,44
711,196	0,44
711,635	0,44
712,074	0,44
712,512	0,44
712,951	0,44
713,389	0,44
713,828	0,44
714,266	0,44
714,705	0,43
715,143	0,43
715,581	0,43
716,02	0,43
716,458	0,43
716,896	0,43
717,334	0,44
717,773	0,44
718,211	0,44
718,649	0,44
719,087	0,44
719,525	0,44
719,963	0,44
720,401	0,44
720,839	0,44
721,277	0,44
721,715	0,44
722,153	0,44
722,591	0,44
723,029	0,44
723,467	0,44
723,905	0,44
724,342	0,44
724,78	0,44
725,218	0,44
725,656	0,44
726,093	0,44
726,531	0,44
726,969	0,44
727,406	0,44
727,844	0,44
728,281	0,44
728,719	0,44
729,156	0,44
729,594	0,44
730,031	0,43
730,469	0,43
730,906	0,43
731,343	0,43
731,781	0,43
732,218	0,43
732,655	0,43
733,092	0,43
733,53	0,43
733,967	0,43
734,404	0,43
734,841	0,43
735,278	0,43
735,715	0,42
736,152	0,42
736,589	0,42
737,026	0,42
737,463	0,42
737,9	0,42
738,337	0,42
738,774	0,42
739,211	0,42
739,647	0,42
740,084	0,42
740,521	0,42
740,958	0,42
741,394	0,42
741,831	0,42
742,268	0,42
742,704	0,42
743,141	0,42
743,577	0,42
744,014	0,42
744,45	0,42
744,887	0,42
745,323	0,42
745,76	0,42
746,196	0,41
746,632	0,41
747,069	0,41
747,505	0,41
747,941	0,41
748,378	0,41
748,814	0,41
749,25	0,41
749,686	0,41
750,122	0,41
750,558	0,42
750,994	0,42
751,43	0,42
751,866	0,42
752,302	0,42
752,738	0,42
753,174	0,42
753,61	0,42
754,046	0,42
754,482	0,42
754,918	0,42
755,354	0,42
755,789	0,42
756,225	0,42
756,661	0,42
757,096	0,42
757,532	0,42
757,968	0,41
758,403	0,41
758,839	0,41
759,274	0,41
759,71	0,4
760,145	0,4
760,581	0,39
761,016	0,39
761,452	0,38
761,887	0,38
762,322	0,37
762,758	0,37
763,193	0,36
763,628	0,36
764,063	0,35
764,499	0,34
764,934	0,34
765,369	0,33
765,804	0,32
766,239	0,32
766,674	0,31
767,109	0,3
767,544	0,3
767,979	0,28
768,414	0,28
768,849	0,27
769,284	0,26
769,719	0,25
770,154	0,24
770,588	0,23
771,023	0,22
771,458	0,21
771,893	0,2
772,327	0,19
772,762	0,18
773,197	0,17
773,631	0,16
774,066	0,15
774,5	0,14
774,935	0,13
775,369	0,12
775,804	0,11
776,238	0,1
776,673	0,09
777,107	0,08
777,541	0,08
777,976	0,07
778,41	0,06
778,844	0,04
779,279	0,04
779,713	0,03
780,147	0,02
780,581	0,02
781,015	0,01
781,449	-0
781,883	-0,01
782,317	-0,03
782,751	-0,04
783,185	-0,05
783,619	-0,05
784,053	-0,07
784,487	-0,08
784,921	-0,08
785,355	-0,09
785,789	-0,1
786,223	-0,11
786,656	-0,12
787,09	-0,12
787,524	-0,13
787,957	-0,13
788,391	-0,15
788,825	-0,17
789,258	-0,18
789,692	-0,2
790,125	-0,21
790,559	-0,23
790,992	-0,25
791,426	-0,28
791,859	-0,3
792,293	-0,33
792,726	-0,35
793,159	-0,37
793,593	-0,39
794,026	-0,41
794,459	-0,44
794,892	-0,47
795,326	-0,5
795,759	-0,53
796,192	-0,57
796,625	-0,62
797,058	-0,64
797,491	-0,69
797,924	-0,73
798,357	-0,78
798,79	-0,82
799,223	-0,86
799,656	-0,91
800,089	-0,96
800,522	-1,01
800,955	-1,05
801,387	-1,11
801,82	-1,16
802,253	-1,22
802,686	-1,3
803,118	-1,36
803,551	-1,41
803,984	-1,45
804,416	-1,49
804,849	-1,53
805,281	-1,62
805,714	-1,97
806,146	-2,44
806,579	-2,71
807,011	-2,87
807,444	-2,96
807,876	-3,05
808,308	-3,08
808,741	-3,11
809,173	-3,16
809,605	-3,18
810,037	-3,26
810,47	-3,18
810,902	-2,98
811,334	-2,83
811,766	-2,67
812,198	-2,43
812,63	-2,01
813,062	-1,8
813,494	-1,71
813,926	-1,62
814,358	-1,57
814,79	-1,48
815,222	-1,43
815,654	-1,38
816,086	-1,31
816,518	-1,26
816,949	-1,21
817,381	-1,16
817,813	-1,14
818,245	-1,1
818,676	-1,06
819,108	-1,03
819,54	-1,01
819,971	-0,99
820,403	-0,94
820,834	-0,93
821,266	-0,88
821,697	-0,86
822,129	-0,84
822,56	-0,81
822,991	-0,79
823,423	-0,77
823,854	-0,75
824,286	-0,73
824,717	-0,72
825,148	-0,7
825,579	-0,69
826,01	-0,68
826,442	-0,67
826,873	-0,65
827,304	-0,62
827,735	-0,61
828,166	-0,61
828,597	-0,61
829,028	-0,61
829,459	-0,62
829,89	-0,62
830,321	-0,58
830,752	-0,58
831,183	-0,57
831,613	-0,56
832,044	-0,56
832,475	-0,55
832,906	-0,56
833,336	-0,56
833,767	-0,56
834,198	-0,54
834,628	-0,52
835,059	-0,55
835,49	-0,55
835,92	-0,52
836,351	-0,52
836,781	-0,53
837,212	-0,55
837,642	-0,54
838,072	-0,53
838,503	-0,54
838,933	-0,51
839,364	-0,52
839,794	-0,5
840,224	-0,49
840,654	-0,54
841,085	-0,55
841,515	-0,52
841,945	-0,52
842,375	-0,47
842,805	-0,47
843,235	-0,46
843,665	-0,47
844,095	-0,46
844,525	-0,48
844,955	-0,48
845,385	-0,46
845,815	-0,44
846,245	-0,45
846,675	-0,46
847,105	-0,49
847,534	-0,49
847,964	-0,47
848,394	-0,46
848,824	-0,5
849,253	-0,49
849,683	-0,49
850,112	-0,49
850,542	-0,53
850,972	-0,53
851,401	-0,51
851,831	-0,49
852,26	-0,49
852,69	-0,52
853,119	-0,52
853,548	-0,52
853,978	-0,52
854,407	-0,5
854,836	-0,5
855,266	-0,49
855,695	-0,51
856,124	-0,53
856,553	-0,54
856,983	-0,56
857,412	-0,55
857,841	-0,56
858,27	-0,56
858,699	-0,56
859,128	-0,6
859,557	-0,61
859,986	-0,63
860,415	-0,61
860,844	-0,58
861,273	-0,58
861,702	-0,58
862,13	-0,56
862,559	-0,58
862,988	-0,55
863,417	-0,54
863,845	-0,53
864,274	-0,55
864,703	-0,55
865,131	-0,55
865,56	-0,56
865,989	-0,59
866,417	-0,57
866,846	-0,56
867,274	-0,56
867,703	-0,59
868,131	-0,61
868,559	-0,6
868,988	-0,61
869,416	-0,59
869,844	-0,61
870,273	-0,64
870,701	-0,61
871,129	-0,64
871,557	-0,66
871,986	-0,66
872,414	-0,67
872,842	-0,64
873,27	-0,62
873,698	-0,6
874,126	-0,64
874,554	-0,61
874,982	-0,61
875,41	-0,64
875,838	-0,6
876,266	-0,57
876,694	-0,58
877,122	-0,55
877,549	-0,61
877,977	-0,58
878,405	-0,6
878,833	-0,57
879,26	-0,56
879,688	-0,56
880,116	-0,53
880,543	-0,52
880,971	-0,51
881,399	-0,54
881,826	-0,56
882,254	-0,54
882,681	-0,57
883,109	-0,53
883,536	-0,55
883,963	-0,56
884,391	-0,54
884,818	-0,53
885,245	-0,57
885,673	-0,59
886,1	-0,55
886,527	-0,54
886,954	-0,52
887,381	-0,54
887,809	-0,55
888,236	-0,56
888,663	-0,56
889,09	-0,61
889,517	-0,63
889,944	-0,63
890,371	-0,61
890,798	-0,62
891,225	-0,62
891,652	-0,65
892,078	-0,62
892,505	-0,66
892,932	-0,62
893,359	-0,63
893,786	-0,62
894,212	-0,59
894,639	-0,6
895,066	-0,63
895,492	-0,57
895,919	-0,57
896,346	-0,57
896,772	-0,58
897,199	-0,54
897,625	-0,58
898,052	-0,55
898,478	-0,53
898,904	-0,55
899,331	-0,54
899,757	-0,56
900,183	-0,58
900,61	-0,56
901,036	-0,56
901,462	-0,55
901,888	-0,55
902,315	-0,53
902,741	-0,58
903,167	-0,56
903,593	-0,59
904,019	-0,58
904,445	-0,55
904,871	-0,59
905,297	-0,61
905,723	-0,61
906,149	-0,6
906,575	-0,61
907,001	-0,61
907,427	-0,58
907,852	-0,57
908,278	-0,58
908,704	-0,55
909,13	-0,54
909,555	-0,53
909,981	-0,52
910,407	-0,52
910,832	-0,51
911,258	-0,51
911,684	-0,51
912,109	-0,5
912,535	-0,52
912,96	-0,48
913,386	-0,51
913,811	-0,51
914,236	-0,53
914,662	-0,51
915,087	-0,55
915,512	-0,55
915,938	-0,56
916,363	-0,55
916,788	-0,56
917,213	-0,55
917,639	-0,59
918,064	-0,56
918,489	-0,57
918,914	-0,57
919,339	-0,59
919,764	-0,56
920,189	-0,57
920,614	-0,6
921,039	-0,6
921,464	-0,56
921,889	-0,59
922,314	-0,59
922,738	-0,63
923,163	-0,65
923,588	-0,64
924,013	-0,63
924,437	-0,63
924,862	-0,64
925,287	-0,6
925,711	-0,61
926,136	-0,62
926,561	-0,61
926,985	-0,6
927,41	-0,57
927,834	-0,54
928,259	-0,51
928,683	-0,49
929,108	-0,47
929,532	-0,48
929,956	-0,47
930,381	-0,47
930,805	-0,47
931,229	-0,45
931,653	-0,43
932,078	-0,43
932,502	-0,45
932,926	-0,46
933,35	-0,46
933,774	-0,45
934,198	-0,43
934,622	-0,41
935,046	-0,42
935,47	-0,43
935,894	-0,43
936,318	-0,44
936,742	-0,43
937,166	-0,42
937,59	-0,42
938,014	-0,43
938,437	-0,43
938,861	-0,46
939,285	-0,48
939,709	-0,47
940,132	-0,48
940,556	-0,48
940,98	-0,49
941,403	-0,48
941,827	-0,49
942,25	-0,5
942,674	-0,5
943,097	-0,49
943,521	-0,49
943,944	-0,5
944,368	-0,49
944,791	-0,47
945,214	-0,48
945,638	-0,48
946,061	-0,51
946,484	-0,52
946,907	-0,5
947,331	-0,5
947,754	-0,54
948,177	-0,52
948,6	-0,51
949,023	-0,51
949,446	-0,51
949,869	-0,49
950,292	-0,49
950,715	-0,46
951,138	-0,43
951,561	-0,41
951,984	-0,42
952,407	-0,39
952,83	-0,37
953,252	-0,34
953,675	-0,33
954,098	-0,34
954,521	-0,33
954,943	-0,33
955,366	-0,34
955,789	-0,32
956,211	-0,34
956,634	-0,34
957,056	-0,32
957,479	-0,33
957,902	-0,36
958,324	-0,36
958,746	-0,35
959,169	-0,36
959,591	-0,36
960,014	-0,38
960,436	-0,38
960,858	-0,37
961,281	-0,38
961,703	-0,39
962,125	-0,39
962,547	-0,37
962,969	-0,37
963,391	-0,37
963,814	-0,38
964,236	-0,37
964,658	-0,34
965,08	-0,35
965,502	-0,34
965,924	-0,31
966,346	-0,32
966,768	-0,31
967,189	-0,34
967,611	-0,33
968,033	-0,33
968,455	-0,31
968,877	-0,32
969,298	-0,33
969,72	-0,34
970,142	-0,33
970,563	-0,34
970,985	-0,32
971,407	-0,32
971,828	-0,29
972,25	-0,29
972,671	-0,27
973,093	-0,26
973,514	-0,25
973,936	-0,22
974,357	-0,21
974,778	-0,21
975,2	-0,2
975,621	-0,19
976,042	-0,17
976,464	-0,16
976,885	-0,15
977,306	-0,14
977,727	-0,14
978,148	-0,13
978,57	-0,12
978,991	-0,1
979,412	-0,1
979,833	-0,1
980,254	-0,09
980,675	-0,09
981,096	-0,08
981,517	-0,07
981,937	-0,06
982,358	-0,05
982,779	-0,03
983,2	-0,03
983,621	-0,03
984,042	-0,01
984,462	-0
984,883	0,01
985,304	0,03
985,724	0,05
986,145	0,06
986,565	0,07
986,986	0,07
987,407	0,09
987,827	0,1
988,248	0,12
988,668	0,13
989,088	0,14
989,509	0,16
989,929	0,17
990,35	0,18
990,77	0,19
991,19	0,2
991,61	0,21
992,031	0,22
992,451	0,23
992,871	0,24
993,291	0,25
993,711	0,26
994,131	0,27
994,551	0,27
994,971	0,28
995,391	0,29
995,811	0,29
996,231	0,3
996,651	0,3
997,071	0,31
997,491	0,31
997,911	0,32
998,331	0,33
998,75	0,33
999,17	0,34
999,59	0,34
1000,009	0,35
1000,429	0,35
1000,849	0,36
1001,268	0,37
1001,688	0,37
1002,107	0,37
1002,527	0,38
1002,946	0,38
1003,366	0,39
1003,785	0,39
1004,205	0,39
1004,624	0,39
1005,044	0,4
1005,463	0,4
1005,882	0,4
1006,301	0,4
1006,721	0,4
1007,14	0,4
1007,559	0,4
1007,978	0,41
1008,397	0,41
1008,816	0,41
1009,235	0,41
1009,655	0,41
1010,074	0,41
1010,492	0,41
1010,911	0,4
1011,33	0,4
1011,749	0,4
1012,168	0,4
1012,587	0,4
1013,006	0,4
1013,425	0,4
1013,843	0,4
1014,262	0,4
1014,681	0,4
1015,099	0,4
1015,518	0,4
1015,937	0,4
1016,355	0,39
1016,774	0,39
1017,192	0,39
1017,611	0,39
1018,029	0,39
1018,448	0,39
1018,866	0,39
1019,285	0,39
1019,703	0,39
1020,121	0,39
1020,54	0,39
1020,958	0,39
1021,376	0,39
1021,794	0,39
1022,213	0,39
1022,631	0,39
1023,049	0,39
1023,467	0,39
1023,885	0,39
1024,303	0,39
1024,721	0,39
1025,139	0,39
1025,557	0,39
1025,975	0,39
1026,393	0,38
1026,811	0,38
1027,229	0,38
1027,647	0,38
1028,065	0,38
1028,482	0,38
1028,9	0,38
1029,318	0,38
1029,735	0,38
1030,153	0,38
1030,571	0,38
1030,988	0,38
1031,406	0,38
1031,823	0,38
1032,241	0,38
1032,659	0,38
1033,076	0,38
1033,493	0,38
1033,911	0,38
1034,328	0,38
1034,746	0,38
1035,163	0,38
1035,58	0,38
1035,997	0,38
1036,415	0,38
1036,832	0,38
1037,249	0,38
1037,666	0,38
1038,083	0,38
1038,501	0,38
1038,918	0,38
1039,335	0,38
1039,752	0,38
1040,169	0,38
1040,586	0,38
1041,003	0,38
1041,419	0,38
1041,836	0,38
1042,253	0,38
1042,67	0,38
1043,087	0,38
1043,504	0,38
1043,92	0,38
1044,337	0,38
1044,754	0,38
1045,17	0,38
1045,587	0,38
1046,004	0,38
1046,42	0,38
1046,837	0,38
1047,253	0,38
1047,67	0,38
1048,086	0,38
1048,503	0,38
1048,919	0,38
1049,335	0,38
1049,752	0,38
1050,168	0,38
1050,584	0,38
1051,001	0,38
1051,417	0,38
1051,833	0,38
1052,249	0,38
1052,665	0,38
1053,081	0,38
1053,497	0,38
1053,914	0,38
1054,33	0,39
1054,746	0,39
1055,162	0,39
1055,578	0,39
1055,993	0,39
1056,409	0,39
1056,825	0,39
1057,241	0,39
1057,657	0,39
1058,073	0,39
1058,488	0,39
1058,904	0,39
1059,32	0,39
1059,736	0,39
1060,151	0,39
1060,567	0,39
1060,982	0,39
1061,398	0,39
1061,813	0,39
1062,229	0,39
1062,644	0,39
1063,06	0,39
1063,475	0,39
1063,891	0,38
1064,306	0,38
1064,721	0,38
1065,137	0,38
1065,552	0,38
1065,967	0,38
1066,382	0,38
1066,798	0,38
1067,213	0,38
1067,628	0,38
1068,043	0,38
1068,458	0,38
1068,873	0,38
1069,288	0,38
1069,703	0,38
1070,118	0,38
1070,533	0,38
1070,948	0,38
1071,363	0,38
1071,778	0,38
1072,193	0,38
1072,607	0,38
1073,022	0,38
1073,437	0,38
1073,852	0,38
1074,266	0,38
1074,681	0,38
1075,096	0,38
1075,51	0,38
1075,925	0,38
1076,339	0,38
1076,754	0,38
1077,168	0,38
1077,583	0,38
1077,997	0,38
1078,412	0,38
1078,826	0,38
1079,24	0,38
1079,655	0,38
1080,069	0,38
1080,483	0,38
1080,897	0,38
1081,312	0,38
1081,726	0,38
1082,14	0,38
1082,554	0,38
1082,968	0,38
1083,382	0,38
1083,796	0,37
1084,21	0,38
1084,624	0,37
1085,038	0,37
1085,452	0,37
1085,866	0,37
1086,28	0,37
1086,694	0,37
1087,108	0,37
1087,521	0,36
1087,935	0,36
1088,349	0,36
1088,763	0,35
1089,176	0,35
1089,59	0,35
1090,004	0,34
1090,417	0,34
1090,831	0,34
1091,244	0,33
1091,658	0,33
1092,071	0,33
1092,485	0,33
1092,898	0,32
1093,312	0,32
1093,725	0,32
1094,138	0,32
1094,552	0,32
1094,965	0,32
1095,378	0,32
1095,791	0,32
1096,205	0,32
1096,618	0,32
1097,031	0,31
1097,444	0,31
1097,857	0,3
1098,27	0,3
1098,683	0,3
1099,096	0,29
1099,509	0,29
1099,922	0,28
1100,335	0,27
1100,748	0,27
1101,161	0,27
1101,574	0,26
1101,986	0,26
1102,399	0,26
1102,812	0,26
1103,225	0,25
1103,637	0,25
1104,05	0,25
1104,463	0,25
1104,875	0,24
1105,288	0,24
1105,7	0,24
1106,113	0,23
1106,525	0,23
1106,938	0,23
1107,35	0,22
1107,763	0,22
1108,175	0,21
1108,588	0,21
1109	0,21
1109,412	0,2
1109,824	0,2
1110,237	0,21
1110,649	0,21
1111,061	0,2
