Data from 18C-808nm-8A-cont_Absorbance__290__01719.txt Node

Date: Mon Jul 17 17:28:40 CEST 2023
User: Laser008
Spectrometer: MAYP115816
Trigger mode: 0
Integration Time (sec): 2,500000E-1
Scans to average: 10
Electric dark correction enabled: true
Nonlinearity correction enabled: true
Boxcar width: 5
XAxis mode: Wavelengths
Number of Pixels in Spectrum: 2068
>>>>>Begin Spectral Data<<<<<
198,914	-0,67
199,384	-0,45
199,855	-0,33
200,325	-0,26
200,796	-0,23
201,266	-0,17
201,737	-0,17
202,207	-0,16
202,677	-0,15
203,147	-0,13
203,618	-0,11
204,088	-0,08
204,558	-0,07
205,028	-0,06
205,498	-0,06
205,968	-0,06
206,439	-0,08
206,909	-0,06
207,379	-0,07
207,849	-0,07
208,319	-0,08
208,789	-0,08
209,258	-0,08
209,728	-0,09
210,198	-0,09
210,668	-0,09
211,138	-0,1
211,608	-0,1
212,077	-0,1
212,547	-0,1
213,017	-0,1
213,486	-0,11
213,956	-0,12
214,426	-0,12
214,895	-0,12
215,365	-0,13
215,834	-0,13
216,304	-0,14
216,773	-0,15
217,243	-0,16
217,712	-0,16
218,181	-0,16
218,651	-0,16
219,12	-0,15
219,589	-0,15
220,058	-0,13
220,528	-0,13
220,997	-0,14
221,466	-0,15
221,935	-0,15
222,404	-0,16
222,873	-0,15
223,342	-0,15
223,812	-0,15
224,281	-0,15
224,749	-0,16
225,218	-0,18
225,687	-0,18
226,156	-0,17
226,625	-0,15
227,094	-0,15
227,563	-0,15
228,031	-0,16
228,5	-0,16
228,969	-0,16
229,438	-0,15
229,906	-0,14
230,375	-0,12
230,844	-0,12
231,312	-0,12
231,781	-0,14
232,249	-0,13
232,718	-0,13
233,186	-0,12
233,655	-0,12
234,123	-0,11
234,591	-0,13
235,06	-0,13
235,528	-0,14
235,996	-0,13
236,465	-0,13
236,933	-0,12
237,401	-0,12
237,869	-0,12
238,337	-0,11
238,805	-0,1
239,274	-0,1
239,742	-0,1
240,21	-0,09
240,678	-0,08
241,146	-0,08
241,614	-0,07
242,081	-0,07
242,549	-0,07
243,017	-0,08
243,485	-0,09
243,953	-0,09
244,421	-0,08
244,888	-0,08
245,356	-0,08
245,824	-0,08
246,291	-0,08
246,759	-0,1
247,227	-0,1
247,694	-0,09
248,162	-0,08
248,629	-0,07
249,097	-0,08
249,564	-0,1
250,032	-0,11
250,499	-0,11
250,967	-0,12
251,434	-0,13
251,901	-0,12
252,369	-0,12
252,836	-0,13
253,303	-0,15
253,77	-0,17
254,237	-0,17
254,705	-0,17
255,172	-0,15
255,639	-0,16
256,106	-0,17
256,573	-0,18
257,04	-0,18
257,507	-0,18
257,974	-0,18
258,441	-0,16
258,908	-0,16
259,375	-0,17
259,841	-0,17
260,308	-0,17
260,775	-0,18
261,242	-0,17
261,709	-0,17
262,175	-0,19
262,642	-0,18
263,109	-0,18
263,575	-0,19
264,042	-0,18
264,508	-0,17
264,975	-0,18
265,441	-0,19
265,908	-0,19
266,374	-0,19
266,841	-0,19
267,307	-0,19
267,773	-0,18
268,24	-0,18
268,706	-0,18
269,172	-0,19
269,639	-0,21
270,105	-0,19
270,571	-0,2
271,037	-0,19
271,503	-0,21
271,969	-0,2
272,435	-0,2
272,902	-0,22
273,368	-0,23
273,834	-0,22
274,3	-0,22
274,765	-0,23
275,231	-0,23
275,697	-0,22
276,163	-0,22
276,629	-0,21
277,095	-0,21
277,56	-0,2
278,026	-0,2
278,492	-0,19
278,958	-0,19
279,423	-0,19
279,889	-0,18
280,354	-0,19
280,82	-0,18
281,286	-0,19
281,751	-0,19
282,217	-0,19
282,682	-0,19
283,147	-0,19
283,613	-0,2
284,078	-0,2
284,544	-0,22
285,009	-0,23
285,474	-0,22
285,939	-0,24
286,405	-0,23
286,87	-0,23
287,335	-0,23
287,8	-0,22
288,265	-0,21
288,73	-0,22
289,195	-0,24
289,66	-0,24
290,125	-0,22
290,59	-0,22
291,055	-0,22
291,52	-0,22
291,985	-0,22
292,45	-0,22
292,915	-0,21
293,38	-0,21
293,844	-0,2
294,309	-0,17
294,774	-0,16
295,239	-0,17
295,703	-0,18
296,168	-0,16
296,632	-0,16
297,097	-0,14
297,562	-0,13
298,026	-0,15
298,491	-0,15
298,955	-0,14
299,419	-0,14
299,884	-0,14
300,348	-0,12
300,813	-0,12
301,277	-0,14
301,741	-0,15
302,205	-0,15
302,67	-0,14
303,134	-0,14
303,598	-0,14
304,062	-0,14
304,526	-0,14
304,99	-0,15
305,454	-0,15
305,919	-0,14
306,383	-0,13
306,847	-0,12
307,31	-0,13
307,774	-0,14
308,238	-0,14
308,702	-0,13
309,166	-0,14
309,63	-0,13
310,094	-0,12
310,557	-0,12
311,021	-0,11
311,485	-0,11
311,948	-0,11
312,412	-0,09
312,876	-0,08
313,339	-0,09
313,803	-0,09
314,266	-0,09
314,73	-0,09
315,193	-0,09
315,657	-0,07
316,12	-0,07
316,584	-0,06
317,047	-0,06
317,51	-0,05
317,973	-0,05
318,437	-0,03
318,9	-0,03
319,363	-0,02
319,826	-0,02
320,29	-0,03
320,753	-0,03
321,216	-0,04
321,679	-0,04
322,142	-0,03
322,605	-0,04
323,068	-0,05
323,531	-0,05
323,994	-0,04
324,457	-0,04
324,92	-0,03
325,382	-0,02
325,845	-0,01
326,308	-0,01
326,771	-0,01
327,233	0
327,696	0,01
328,159	0,02
328,622	0,03
329,084	0,02
329,547	0,03
330,009	0,04
330,472	0,05
330,934	0,05
331,397	0,05
331,859	0,05
332,322	0,06
332,784	0,06
333,246	0,07
333,709	0,07
334,171	0,08
334,633	0,07
335,096	0,07
335,558	0,08
336,02	0,08
336,482	0,09
336,944	0,1
337,406	0,11
337,868	0,11
338,331	0,11
338,793	0,12
339,255	0,12
339,717	0,13
340,178	0,13
340,64	0,13
341,102	0,13
341,564	0,15
342,026	0,16
342,488	0,17
342,949	0,18
343,411	0,21
343,873	0,23
344,335	0,26
344,796	0,29
345,258	0,33
345,719	0,38
346,181	0,43
346,643	0,47
347,104	0,5
347,566	0,53
348,027	0,56
348,488	0,58
348,95	0,61
349,411	0,63
349,873	0,65
350,334	0,67
350,795	0,68
351,256	0,7
351,718	0,7
352,179	0,71
352,64	0,71
353,101	0,71
353,562	0,72
354,023	0,72
354,484	0,72
354,945	0,72
355,406	0,72
355,867	0,73
356,328	0,73
356,789	0,73
357,25	0,73
357,711	0,73
358,172	0,74
358,633	0,74
359,093	0,74
359,554	0,74
360,015	0,74
360,476	0,74
360,936	0,74
361,397	0,75
361,858	0,75
362,318	0,75
362,779	0,75
363,239	0,75
363,7	0,75
364,16	0,75
364,621	0,75
365,081	0,75
365,541	0,75
366,002	0,75
366,462	0,75
366,922	0,75
367,383	0,75
367,843	0,75
368,303	0,75
368,763	0,75
369,223	0,75
369,684	0,75
370,144	0,75
370,604	0,75
371,064	0,75
371,524	0,75
371,984	0,75
372,444	0,75
372,904	0,75
373,363	0,75
373,823	0,75
374,283	0,75
374,743	0,75
375,203	0,75
375,663	0,75
376,122	0,75
376,582	0,75
377,042	0,75
377,501	0,75
377,961	0,74
378,42	0,74
378,88	0,74
379,34	0,74
379,799	0,74
380,259	0,74
380,718	0,74
381,177	0,74
381,637	0,74
382,096	0,74
382,555	0,74
383,015	0,74
383,474	0,74
383,933	0,74
384,393	0,74
384,852	0,74
385,311	0,74
385,77	0,74
386,229	0,74
386,688	0,74
387,147	0,74
387,606	0,74
388,065	0,74
388,524	0,74
388,983	0,74
389,442	0,74
389,901	0,74
390,36	0,73
390,819	0,73
391,277	0,73
391,736	0,73
392,195	0,73
392,654	0,73
393,112	0,73
393,571	0,73
394,03	0,73
394,488	0,73
394,947	0,73
395,405	0,73
395,864	0,73
396,322	0,73
396,781	0,73
397,239	0,73
397,698	0,73
398,156	0,73
398,614	0,73
399,073	0,73
399,531	0,73
399,989	0,73
400,447	0,73
400,905	0,73
401,364	0,73
401,822	0,73
402,28	0,73
402,738	0,73
403,196	0,73
403,654	0,72
404,112	0,72
404,57	0,72
405,028	0,72
405,486	0,72
405,944	0,72
406,402	0,72
406,859	0,72
407,317	0,72
407,775	0,72
408,233	0,72
408,691	0,72
409,148	0,72
409,606	0,72
410,064	0,72
410,521	0,72
410,979	0,72
411,436	0,72
411,894	0,72
412,351	0,72
412,809	0,72
413,266	0,72
413,724	0,72
414,181	0,72
414,638	0,72
415,096	0,72
415,553	0,72
416,01	0,72
416,467	0,72
416,925	0,72
417,382	0,72
417,839	0,72
418,296	0,72
418,753	0,72
419,21	0,72
419,667	0,72
420,124	0,72
420,581	0,72
421,038	0,72
421,495	0,72
421,952	0,72
422,409	0,72
422,866	0,72
423,322	0,72
423,779	0,72
424,236	0,72
424,693	0,72
425,149	0,72
425,606	0,72
426,063	0,72
426,519	0,72
426,976	0,72
427,433	0,72
427,889	0,72
428,346	0,72
428,802	0,72
429,258	0,72
429,715	0,72
430,171	0,72
430,628	0,72
431,084	0,72
431,54	0,72
431,997	0,72
432,453	0,72
432,909	0,71
433,365	0,71
433,821	0,71
434,277	0,71
434,734	0,71
435,19	0,71
435,646	0,71
436,102	0,71
436,558	0,71
437,014	0,71
437,47	0,71
437,925	0,71
438,381	0,71
438,837	0,71
439,293	0,71
439,749	0,71
440,205	0,71
440,66	0,71
441,116	0,71
441,572	0,72
442,027	0,72
442,483	0,72
442,939	0,72
443,394	0,72
443,85	0,72
444,305	0,72
444,761	0,72
445,216	0,72
445,672	0,72
446,127	0,72
446,582	0,72
447,038	0,72
447,493	0,72
447,948	0,72
448,403	0,72
448,859	0,72
449,314	0,72
449,769	0,72
450,224	0,72
450,679	0,72
451,134	0,72
451,589	0,72
452,044	0,72
452,499	0,72
452,954	0,72
453,409	0,72
453,864	0,72
454,319	0,72
454,774	0,72
455,229	0,72
455,684	0,72
456,138	0,72
456,593	0,72
457,048	0,72
457,503	0,72
457,957	0,72
458,412	0,72
458,866	0,72
459,321	0,72
459,776	0,72
460,23	0,73
460,685	0,73
461,139	0,73
461,593	0,73
462,048	0,73
462,502	0,73
462,957	0,73
463,411	0,73
463,865	0,73
464,319	0,73
464,774	0,73
465,228	0,73
465,682	0,73
466,136	0,74
466,59	0,74
467,044	0,74
467,499	0,74
467,953	0,74
468,407	0,74
468,861	0,74
469,315	0,74
469,768	0,74
470,222	0,74
470,676	0,74
471,13	0,74
471,584	0,74
472,038	0,74
472,491	0,75
472,945	0,75
473,399	0,75
473,852	0,75
474,306	0,75
474,76	0,75
475,213	0,75
475,667	0,75
476,12	0,75
476,574	0,76
477,027	0,76
477,481	0,76
477,934	0,76
478,388	0,76
478,841	0,76
479,294	0,77
479,748	0,77
480,201	0,77
480,654	0,77
481,107	0,77
481,561	0,77
482,014	0,78
482,467	0,78
482,92	0,78
483,373	0,78
483,826	0,78
484,279	0,78
484,732	0,79
485,185	0,79
485,638	0,79
486,091	0,79
486,544	0,79
486,997	0,79
487,449	0,8
487,902	0,8
488,355	0,8
488,808	0,8
489,26	0,81
489,713	0,81
490,166	0,81
490,618	0,81
491,071	0,82
491,523	0,82
491,976	0,82
492,429	0,82
492,881	0,83
493,333	0,83
493,786	0,83
494,238	0,84
494,691	0,84
495,143	0,84
495,595	0,85
496,048	0,85
496,5	0,85
496,952	0,86
497,404	0,86
497,856	0,86
498,309	0,87
498,761	0,87
499,213	0,87
499,665	0,88
500,117	0,88
500,569	0,89
501,021	0,89
501,473	0,89
501,925	0,9
502,377	0,9
502,828	0,91
503,28	0,91
503,732	0,91
504,184	0,92
504,636	0,92
505,087	0,92
505,539	0,93
505,991	0,93
506,442	0,93
506,894	0,94
507,345	0,94
507,797	0,95
508,249	0,95
508,7	0,95
509,151	0,96
509,603	0,96
510,054	0,96
510,506	0,97
510,957	0,97
511,408	0,97
511,86	0,98
512,311	0,98
512,762	0,98
513,213	0,99
513,665	0,99
514,116	0,99
514,567	1
515,018	1
515,469	1
515,92	1,01
516,371	1,01
516,822	1,01
517,273	1,02
517,724	1,02
518,175	1,02
518,626	1,02
519,076	1,03
519,527	1,03
519,978	1,03
520,429	1,03
520,88	1,03
521,33	1,04
521,781	1,04
522,232	1,04
522,682	1,04
523,133	1,04
523,583	1,05
524,034	1,05
524,484	1,05
524,935	1,05
525,385	1,05
525,836	1,05
526,286	1,05
526,736	1,05
527,187	1,05
527,637	1,05
528,087	1,05
528,538	1,05
528,988	1,05
529,438	1,05
529,888	1,05
530,338	1,04
530,788	1,04
531,238	1,04
531,688	1,04
532,139	1,04
532,589	1,04
533,038	1,04
533,488	1,04
533,938	1,03
534,388	1,03
534,838	1,03
535,288	1,03
535,738	1,02
536,187	1,02
536,637	1,02
537,087	1,01
537,537	1,01
537,986	1
538,436	1
538,885	1
539,335	0,99
539,785	0,99
540,234	0,98
540,684	0,98
541,133	0,97
541,582	0,97
542,032	0,97
542,481	0,96
542,931	0,96
543,38	0,95
543,829	0,95
544,278	0,94
544,728	0,94
545,177	0,94
545,626	0,93
546,075	0,93
546,524	0,92
546,973	0,92
547,422	0,91
547,871	0,91
548,32	0,91
548,769	0,91
549,218	0,9
549,667	0,9
550,116	0,9
550,565	0,89
551,014	0,89
551,463	0,88
551,911	0,88
552,36	0,87
552,809	0,87
553,258	0,86
553,706	0,86
554,155	0,86
554,603	0,85
555,052	0,85
555,501	0,84
555,949	0,84
556,398	0,84
556,846	0,83
557,294	0,83
557,743	0,82
558,191	0,82
558,64	0,81
559,088	0,81
559,536	0,8
559,985	0,8
560,433	0,79
560,881	0,79
561,329	0,79
561,777	0,78
562,225	0,78
562,674	0,77
563,122	0,77
563,57	0,77
564,018	0,76
564,466	0,76
564,914	0,76
565,362	0,75
565,809	0,75
566,257	0,74
566,705	0,74
567,153	0,74
567,601	0,73
568,048	0,73
568,496	0,72
568,944	0,72
569,392	0,72
569,839	0,71
570,287	0,71
570,734	0,71
571,182	0,7
571,63	0,7
572,077	0,7
572,525	0,69
572,972	0,69
573,419	0,69
573,867	0,68
574,314	0,68
574,761	0,68
575,209	0,67
575,656	0,67
576,103	0,67
576,551	0,66
576,998	0,66
577,445	0,66
577,892	0,66
578,339	0,65
578,786	0,65
579,233	0,65
579,68	0,64
580,127	0,64
580,574	0,64
581,021	0,64
581,468	0,63
581,915	0,63
582,362	0,63
582,809	0,63
583,255	0,62
583,702	0,62
584,149	0,62
584,596	0,62
585,042	0,62
585,489	0,61
585,936	0,61
586,382	0,61
586,829	0,61
587,275	0,61
587,722	0,6
588,168	0,6
588,615	0,6
589,061	0,6
589,508	0,59
589,954	0,59
590,4	0,59
590,847	0,59
591,293	0,59
591,739	0,58
592,185	0,58
592,632	0,58
593,078	0,58
593,524	0,58
593,97	0,58
594,416	0,58
594,862	0,58
595,308	0,57
595,754	0,57
596,2	0,57
596,646	0,57
597,092	0,57
597,538	0,57
597,984	0,57
598,43	0,56
598,876	0,56
599,321	0,56
599,767	0,56
600,213	0,56
600,659	0,56
601,104	0,56
601,55	0,56
601,995	0,55
602,441	0,55
602,887	0,55
603,332	0,55
603,778	0,55
604,223	0,55
604,668	0,55
605,114	0,55
605,559	0,54
606,005	0,54
606,45	0,54
606,895	0,54
607,341	0,54
607,786	0,54
608,231	0,54
608,676	0,53
609,121	0,53
609,566	0,52
610,012	0,52
610,457	0,51
610,902	0,51
611,347	0,51
611,792	0,51
612,237	0,5
612,682	0,5
613,127	0,5
613,571	0,5
614,016	0,51
614,461	0,51
614,906	0,51
615,351	0,51
615,795	0,51
616,24	0,51
616,685	0,51
617,129	0,51
617,574	0,51
618,019	0,51
618,463	0,51
618,908	0,51
619,352	0,51
619,797	0,51
620,241	0,51
620,686	0,51
621,13	0,51
621,574	0,51
622,019	0,51
622,463	0,51
622,907	0,5
623,352	0,5
623,796	0,5
624,24	0,5
624,684	0,5
625,128	0,5
625,572	0,5
626,016	0,5
626,461	0,5
626,905	0,5
627,349	0,5
627,793	0,5
628,236	0,5
628,68	0,5
629,124	0,5
629,568	0,5
630,012	0,5
630,456	0,5
630,9	0,5
631,343	0,5
631,787	0,5
632,231	0,5
632,674	0,5
633,118	0,5
633,562	0,5
634,005	0,5
634,449	0,5
634,892	0,5
635,336	0,5
635,779	0,5
636,223	0,49
636,666	0,49
637,109	0,49
637,553	0,49
637,996	0,49
638,439	0,49
638,883	0,49
639,326	0,49
639,769	0,49
640,212	0,49
640,655	0,49
641,099	0,49
641,542	0,49
641,985	0,49
642,428	0,49
642,871	0,48
643,314	0,48
643,757	0,48
644,2	0,48
644,643	0,48
645,085	0,48
645,528	0,48
645,971	0,48
646,414	0,48
646,857	0,48
647,299	0,48
647,742	0,48
648,185	0,48
648,627	0,48
649,07	0,48
649,513	0,48
649,955	0,48
650,398	0,48
650,84	0,48
651,283	0,48
651,725	0,48
652,168	0,48
652,61	0,48
653,052	0,48
653,495	0,48
653,937	0,39
654,379	0,34
654,821	0,34
655,264	0,34
655,706	0,34
656,148	0,34
656,59	0,34
657,032	0,34
657,474	0,34
657,916	0,34
658,358	0,33
658,8	0,4
659,242	0,48
659,684	0,48
660,126	0,48
660,568	0,48
661,01	0,48
661,452	0,47
661,894	0,47
662,335	0,47
662,777	0,47
663,219	0,47
663,661	0,47
664,102	0,47
664,544	0,47
664,985	0,47
665,427	0,47
665,869	0,47
666,31	0,47
666,752	0,47
667,193	0,47
667,634	0,47
668,076	0,47
668,517	0,47
668,959	0,47
669,4	0,47
669,841	0,47
670,282	0,47
670,724	0,47
671,165	0,47
671,606	0,47
672,047	0,47
672,488	0,47
672,929	0,47
673,37	0,47
673,811	0,47
674,252	0,47
674,693	0,47
675,134	0,46
675,575	0,46
676,016	0,46
676,457	0,46
676,898	0,46
677,339	0,46
677,78	0,46
678,22	0,46
678,661	0,46
679,102	0,46
679,542	0,46
679,983	0,46
680,424	0,46
680,864	0,46
681,305	0,46
681,745	0,46
682,186	0,46
682,626	0,46
683,067	0,46
683,507	0,46
683,948	0,46
684,388	0,46
684,828	0,46
685,269	0,46
685,709	0,46
686,149	0,46
686,589	0,46
687,029	0,46
687,47	0,46
687,91	0,46
688,35	0,46
688,79	0,45
689,23	0,45
689,67	0,45
690,11	0,45
690,55	0,45
690,99	0,45
691,43	0,45
691,87	0,45
692,31	0,45
692,749	0,45
693,189	0,45
693,629	0,45
694,069	0,44
694,508	0,44
694,948	0,44
695,388	0,44
695,827	0,44
696,267	0,45
696,706	0,45
697,146	0,45
697,586	0,45
698,025	0,45
698,464	0,45
698,904	0,45
699,343	0,45
699,783	0,45
700,222	0,45
700,661	0,45
701,101	0,45
701,54	0,45
701,979	0,45
702,418	0,45
702,857	0,45
703,297	0,45
703,736	0,45
704,175	0,45
704,614	0,45
705,053	0,45
705,492	0,45
705,931	0,45
706,37	0,45
706,809	0,45
707,248	0,45
707,687	0,45
708,125	0,45
708,564	0,45
709,003	0,45
709,442	0,45
709,88	0,45
710,319	0,44
710,758	0,44
711,196	0,44
711,635	0,44
712,074	0,44
712,512	0,44
712,951	0,44
713,389	0,44
713,828	0,44
714,266	0,44
714,705	0,44
715,143	0,44
715,581	0,44
716,02	0,44
716,458	0,44
716,896	0,44
717,334	0,44
717,773	0,44
718,211	0,44
718,649	0,44
719,087	0,44
719,525	0,44
719,963	0,44
720,401	0,44
720,839	0,44
721,277	0,44
721,715	0,44
722,153	0,44
722,591	0,44
723,029	0,44
723,467	0,44
723,905	0,44
724,342	0,44
724,78	0,44
725,218	0,44
725,656	0,44
726,093	0,44
726,531	0,44
726,969	0,44
727,406	0,44
727,844	0,44
728,281	0,44
728,719	0,44
729,156	0,44
729,594	0,44
730,031	0,44
730,469	0,44
730,906	0,44
731,343	0,44
731,781	0,43
732,218	0,43
732,655	0,43
733,092	0,43
733,53	0,43
733,967	0,43
734,404	0,43
734,841	0,43
735,278	0,43
735,715	0,42
736,152	0,42
736,589	0,42
737,026	0,42
737,463	0,42
737,9	0,42
738,337	0,42
738,774	0,42
739,211	0,42
739,647	0,42
740,084	0,42
740,521	0,42
740,958	0,42
741,394	0,42
741,831	0,42
742,268	0,42
742,704	0,42
743,141	0,42
743,577	0,42
744,014	0,42
744,45	0,42
744,887	0,42
745,323	0,42
745,76	0,42
746,196	0,42
746,632	0,42
747,069	0,42
747,505	0,41
747,941	0,41
748,378	0,41
748,814	0,41
749,25	0,41
749,686	0,42
750,122	0,42
750,558	0,42
750,994	0,42
751,43	0,42
751,866	0,42
752,302	0,42
752,738	0,42
753,174	0,43
753,61	0,43
754,046	0,43
754,482	0,43
754,918	0,43
755,354	0,43
755,789	0,43
756,225	0,42
756,661	0,42
757,096	0,42
757,532	0,42
757,968	0,42
758,403	0,41
758,839	0,41
759,274	0,41
759,71	0,4
760,145	0,4
760,581	0,39
761,016	0,39
761,452	0,38
761,887	0,38
762,322	0,38
762,758	0,37
763,193	0,37
763,628	0,36
764,063	0,36
764,499	0,35
764,934	0,34
765,369	0,34
765,804	0,33
766,239	0,33
766,674	0,32
767,109	0,31
767,544	0,3
767,979	0,29
768,414	0,29
768,849	0,28
769,284	0,27
769,719	0,26
770,154	0,25
770,588	0,24
771,023	0,23
771,458	0,22
771,893	0,21
772,327	0,19
772,762	0,18
773,197	0,17
773,631	0,17
774,066	0,16
774,5	0,15
774,935	0,14
775,369	0,13
775,804	0,11
776,238	0,11
776,673	0,09
777,107	0,08
777,541	0,07
777,976	0,06
778,41	0,05
778,844	0,05
779,279	0,04
779,713	0,03
780,147	0,03
780,581	0,03
781,015	0,02
781,449	0,01
781,883	0
782,317	-0,01
782,751	-0,02
783,185	-0,03
783,619	-0,04
784,053	-0,05
784,487	-0,07
784,921	-0,07
785,355	-0,08
785,789	-0,09
786,223	-0,1
786,656	-0,12
787,09	-0,13
787,524	-0,13
787,957	-0,14
788,391	-0,16
788,825	-0,18
789,258	-0,19
789,692	-0,2
790,125	-0,22
790,559	-0,24
790,992	-0,26
791,426	-0,28
791,859	-0,29
792,293	-0,32
792,726	-0,34
793,159	-0,35
793,593	-0,37
794,026	-0,4
794,459	-0,43
794,892	-0,45
795,326	-0,48
795,759	-0,52
796,192	-0,56
796,625	-0,61
797,058	-0,63
797,491	-0,68
797,924	-0,71
798,357	-0,76
798,79	-0,8
799,223	-0,85
799,656	-0,9
800,089	-0,95
800,522	-0,99
800,955	-1,04
801,387	-1,09
801,82	-1,15
802,253	-1,21
802,686	-1,29
803,118	-1,35
803,551	-1,4
803,984	-1,44
804,416	-1,48
804,849	-1,52
805,281	-1,67
805,714	-2,04
806,146	-2,47
806,579	-2,72
807,011	-2,88
807,444	-2,97
807,876	-3,06
808,308	-3,09
808,741	-3,12
809,173	-3,17
809,605	-3,19
810,037	-3,27
810,47	-3,19
810,902	-2,99
811,334	-2,84
811,766	-2,68
812,198	-2,44
812,63	-2,02
813,062	-1,79
813,494	-1,69
813,926	-1,6
814,358	-1,55
814,79	-1,47
815,222	-1,41
815,654	-1,36
816,086	-1,3
816,518	-1,24
816,949	-1,19
817,381	-1,15
817,813	-1,13
818,245	-1,09
818,676	-1,05
819,108	-1,02
819,54	-1
819,971	-0,98
820,403	-0,93
820,834	-0,91
821,266	-0,87
821,697	-0,84
822,129	-0,83
822,56	-0,8
822,991	-0,78
823,423	-0,75
823,854	-0,75
824,286	-0,72
824,717	-0,71
825,148	-0,69
825,579	-0,69
826,01	-0,67
826,442	-0,66
826,873	-0,64
827,304	-0,6
827,735	-0,6
828,166	-0,6
828,597	-0,6
829,028	-0,59
829,459	-0,6
829,89	-0,59
830,321	-0,55
830,752	-0,57
831,183	-0,56
831,613	-0,55
832,044	-0,55
832,475	-0,54
832,906	-0,55
833,336	-0,55
833,767	-0,57
834,198	-0,55
834,628	-0,53
835,059	-0,56
835,49	-0,57
835,92	-0,55
836,351	-0,55
836,781	-0,55
837,212	-0,56
837,642	-0,56
838,072	-0,55
838,503	-0,55
838,933	-0,53
839,364	-0,54
839,794	-0,53
840,224	-0,51
840,654	-0,55
841,085	-0,55
841,515	-0,53
841,945	-0,53
842,375	-0,49
842,805	-0,47
843,235	-0,46
843,665	-0,48
844,095	-0,46
844,525	-0,48
844,955	-0,49
845,385	-0,46
845,815	-0,44
846,245	-0,46
846,675	-0,46
847,105	-0,48
847,534	-0,49
847,964	-0,48
848,394	-0,46
848,824	-0,48
849,253	-0,47
849,683	-0,48
850,112	-0,49
850,542	-0,52
850,972	-0,53
851,401	-0,51
851,831	-0,49
852,26	-0,5
852,69	-0,53
853,119	-0,52
853,548	-0,54
853,978	-0,54
854,407	-0,52
854,836	-0,51
855,266	-0,51
855,695	-0,52
856,124	-0,53
856,553	-0,54
856,983	-0,56
857,412	-0,55
857,841	-0,56
858,27	-0,55
858,699	-0,56
859,128	-0,59
859,557	-0,6
859,986	-0,62
860,415	-0,6
860,844	-0,57
861,273	-0,57
861,702	-0,58
862,13	-0,56
862,559	-0,58
862,988	-0,56
863,417	-0,55
863,845	-0,54
864,274	-0,54
864,703	-0,54
865,131	-0,54
865,56	-0,55
865,989	-0,58
866,417	-0,54
866,846	-0,56
867,274	-0,55
867,703	-0,58
868,131	-0,59
868,559	-0,59
868,988	-0,62
869,416	-0,61
869,844	-0,63
870,273	-0,66
870,701	-0,63
871,129	-0,66
871,557	-0,69
871,986	-0,69
872,414	-0,69
872,842	-0,66
873,27	-0,64
873,698	-0,6
874,126	-0,65
874,554	-0,62
874,982	-0,62
875,41	-0,65
875,838	-0,6
876,266	-0,57
876,694	-0,57
877,122	-0,56
877,549	-0,61
877,977	-0,59
878,405	-0,61
878,833	-0,58
879,26	-0,57
879,688	-0,57
880,116	-0,55
880,543	-0,54
880,971	-0,53
881,399	-0,55
881,826	-0,56
882,254	-0,54
882,681	-0,57
883,109	-0,53
883,536	-0,55
883,963	-0,57
884,391	-0,55
884,818	-0,53
885,245	-0,56
885,673	-0,58
886,1	-0,56
886,527	-0,55
886,954	-0,51
887,381	-0,53
887,809	-0,55
888,236	-0,55
888,663	-0,55
889,09	-0,58
889,517	-0,61
889,944	-0,61
890,371	-0,61
890,798	-0,61
891,225	-0,62
891,652	-0,65
892,078	-0,61
892,505	-0,65
892,932	-0,61
893,359	-0,62
893,786	-0,62
894,212	-0,59
894,639	-0,61
895,066	-0,63
895,492	-0,57
895,919	-0,58
896,346	-0,58
896,772	-0,58
897,199	-0,55
897,625	-0,59
898,052	-0,55
898,478	-0,53
898,904	-0,54
899,331	-0,54
899,757	-0,54
900,183	-0,56
900,61	-0,53
901,036	-0,54
901,462	-0,53
901,888	-0,52
902,315	-0,5
902,741	-0,55
903,167	-0,53
903,593	-0,56
904,019	-0,54
904,445	-0,52
904,871	-0,56
905,297	-0,57
905,723	-0,56
906,149	-0,55
906,575	-0,56
907,001	-0,57
907,427	-0,54
907,852	-0,55
908,278	-0,55
908,704	-0,53
909,13	-0,52
909,555	-0,51
909,981	-0,51
910,407	-0,51
910,832	-0,51
911,258	-0,51
911,684	-0,52
912,109	-0,53
912,535	-0,55
912,96	-0,5
913,386	-0,54
913,811	-0,54
914,236	-0,56
914,662	-0,53
915,087	-0,57
915,512	-0,57
915,938	-0,6
916,363	-0,59
916,788	-0,6
917,213	-0,57
917,639	-0,63
918,064	-0,6
918,489	-0,6
918,914	-0,6
919,339	-0,62
919,764	-0,59
920,189	-0,59
920,614	-0,6
921,039	-0,6
921,464	-0,56
921,889	-0,6
922,314	-0,6
922,738	-0,63
923,163	-0,64
923,588	-0,64
924,013	-0,64
924,437	-0,63
924,862	-0,64
925,287	-0,61
925,711	-0,61
926,136	-0,62
926,561	-0,61
926,985	-0,59
927,41	-0,56
927,834	-0,54
928,259	-0,5
928,683	-0,48
929,108	-0,45
929,532	-0,46
929,956	-0,46
930,381	-0,45
930,805	-0,45
931,229	-0,44
931,653	-0,43
932,078	-0,43
932,502	-0,44
932,926	-0,46
933,35	-0,46
933,774	-0,45
934,198	-0,43
934,622	-0,42
935,046	-0,43
935,47	-0,43
935,894	-0,43
936,318	-0,43
936,742	-0,43
937,166	-0,44
937,59	-0,43
938,014	-0,46
938,437	-0,47
938,861	-0,5
939,285	-0,5
939,709	-0,49
940,132	-0,49
940,556	-0,5
940,98	-0,5
941,403	-0,49
941,827	-0,49
942,25	-0,5
942,674	-0,49
943,097	-0,49
943,521	-0,49
943,944	-0,5
944,368	-0,49
944,791	-0,48
945,214	-0,5
945,638	-0,5
946,061	-0,53
946,484	-0,53
946,907	-0,52
947,331	-0,51
947,754	-0,55
948,177	-0,52
948,6	-0,51
949,023	-0,52
949,446	-0,52
949,869	-0,49
950,292	-0,5
950,715	-0,46
951,138	-0,45
951,561	-0,43
951,984	-0,43
952,407	-0,42
952,83	-0,41
953,252	-0,37
953,675	-0,37
954,098	-0,38
954,521	-0,37
954,943	-0,36
955,366	-0,37
955,789	-0,35
956,211	-0,37
956,634	-0,38
957,056	-0,35
957,479	-0,35
957,902	-0,37
958,324	-0,37
958,746	-0,35
959,169	-0,36
959,591	-0,36
960,014	-0,37
960,436	-0,36
960,858	-0,36
961,281	-0,36
961,703	-0,37
962,125	-0,37
962,547	-0,35
962,969	-0,35
963,391	-0,35
963,814	-0,36
964,236	-0,35
964,658	-0,33
965,08	-0,35
965,502	-0,34
965,924	-0,3
966,346	-0,3
966,768	-0,3
967,189	-0,33
967,611	-0,33
968,033	-0,32
968,455	-0,3
968,877	-0,31
969,298	-0,32
969,72	-0,34
970,142	-0,33
970,563	-0,34
970,985	-0,33
971,407	-0,32
971,828	-0,3
972,25	-0,29
972,671	-0,28
973,093	-0,27
973,514	-0,26
973,936	-0,23
974,357	-0,21
974,778	-0,21
975,2	-0,2
975,621	-0,2
976,042	-0,19
976,464	-0,18
976,885	-0,16
977,306	-0,16
977,727	-0,16
978,148	-0,15
978,57	-0,14
978,991	-0,12
979,412	-0,11
979,833	-0,11
980,254	-0,1
980,675	-0,09
981,096	-0,08
981,517	-0,06
981,937	-0,06
982,358	-0,05
982,779	-0,03
983,2	-0,03
983,621	-0,03
984,042	-0,01
984,462	-0
984,883	0,02
985,304	0,03
985,724	0,04
986,145	0,05
986,565	0,07
986,986	0,08
987,407	0,09
987,827	0,11
988,248	0,12
988,668	0,13
989,088	0,15
989,509	0,16
989,929	0,17
990,35	0,18
990,77	0,19
991,19	0,2
991,61	0,22
992,031	0,23
992,451	0,24
992,871	0,25
993,291	0,25
993,711	0,26
994,131	0,26
994,551	0,28
994,971	0,28
995,391	0,29
995,811	0,3
996,231	0,3
996,651	0,31
997,071	0,31
997,491	0,32
997,911	0,33
998,331	0,34
998,75	0,34
999,17	0,35
999,59	0,35
1000,009	0,35
1000,429	0,36
1000,849	0,37
1001,268	0,37
1001,688	0,38
1002,107	0,38
1002,527	0,38
1002,946	0,39
1003,366	0,39
1003,785	0,39
1004,205	0,4
1004,624	0,4
1005,044	0,4
1005,463	0,4
1005,882	0,4
1006,301	0,41
1006,721	0,41
1007,14	0,41
1007,559	0,41
1007,978	0,41
1008,397	0,41
1008,816	0,41
1009,235	0,41
1009,655	0,41
1010,074	0,41
1010,492	0,41
1010,911	0,41
1011,33	0,41
1011,749	0,41
1012,168	0,41
1012,587	0,41
1013,006	0,41
1013,425	0,41
1013,843	0,41
1014,262	0,4
1014,681	0,4
1015,099	0,4
1015,518	0,4
1015,937	0,4
1016,355	0,4
1016,774	0,4
1017,192	0,4
1017,611	0,4
1018,029	0,4
1018,448	0,4
1018,866	0,4
1019,285	0,4
1019,703	0,4
1020,121	0,4
1020,54	0,4
1020,958	0,4
1021,376	0,4
1021,794	0,4
1022,213	0,4
1022,631	0,4
1023,049	0,4
1023,467	0,39
1023,885	0,39
1024,303	0,39
1024,721	0,39
1025,139	0,39
1025,557	0,39
1025,975	0,39
1026,393	0,39
1026,811	0,39
1027,229	0,39
1027,647	0,39
1028,065	0,39
1028,482	0,39
1028,9	0,38
1029,318	0,38
1029,735	0,38
1030,153	0,38
1030,571	0,38
1030,988	0,38
1031,406	0,38
1031,823	0,38
1032,241	0,38
1032,659	0,39
1033,076	0,39
1033,493	0,39
1033,911	0,39
1034,328	0,39
1034,746	0,39
1035,163	0,39
1035,58	0,39
1035,997	0,39
1036,415	0,39
1036,832	0,39
1037,249	0,39
1037,666	0,39
1038,083	0,39
1038,501	0,39
1038,918	0,39
1039,335	0,39
1039,752	0,39
1040,169	0,39
1040,586	0,39
1041,003	0,39
1041,419	0,39
1041,836	0,39
1042,253	0,39
1042,67	0,39
1043,087	0,39
1043,504	0,39
1043,92	0,39
1044,337	0,39
1044,754	0,39
1045,17	0,39
1045,587	0,39
1046,004	0,39
1046,42	0,39
1046,837	0,39
1047,253	0,39
1047,67	0,39
1048,086	0,39
1048,503	0,39
1048,919	0,39
1049,335	0,39
1049,752	0,39
1050,168	0,39
1050,584	0,39
1051,001	0,39
1051,417	0,39
1051,833	0,39
1052,249	0,39
1052,665	0,39
1053,081	0,39
1053,497	0,39
1053,914	0,39
1054,33	0,4
1054,746	0,4
1055,162	0,4
1055,578	0,4
1055,993	0,4
1056,409	0,4
1056,825	0,4
1057,241	0,4
1057,657	0,4
1058,073	0,4
1058,488	0,4
1058,904	0,4
1059,32	0,4
1059,736	0,4
1060,151	0,4
1060,567	0,4
1060,982	0,4
1061,398	0,4
1061,813	0,39
1062,229	0,39
1062,644	0,39
1063,06	0,39
1063,475	0,39
1063,891	0,39
1064,306	0,39
1064,721	0,39
1065,137	0,39
1065,552	0,39
1065,967	0,39
1066,382	0,39
1066,798	0,39
1067,213	0,39
1067,628	0,39
1068,043	0,39
1068,458	0,39
1068,873	0,39
1069,288	0,39
1069,703	0,39
1070,118	0,39
1070,533	0,39
1070,948	0,39
1071,363	0,39
1071,778	0,39
1072,193	0,39
1072,607	0,39
1073,022	0,39
1073,437	0,39
1073,852	0,39
1074,266	0,39
1074,681	0,39
1075,096	0,39
1075,51	0,39
1075,925	0,39
1076,339	0,39
1076,754	0,39
1077,168	0,39
1077,583	0,39
1077,997	0,39
1078,412	0,39
1078,826	0,39
1079,24	0,39
1079,655	0,39
1080,069	0,39
1080,483	0,39
1080,897	0,39
1081,312	0,39
1081,726	0,39
1082,14	0,38
1082,554	0,38
1082,968	0,38
1083,382	0,38
1083,796	0,38
1084,21	0,38
1084,624	0,38
1085,038	0,38
1085,452	0,38
1085,866	0,38
1086,28	0,37
1086,694	0,37
1087,108	0,37
1087,521	0,37
1087,935	0,37
1088,349	0,36
1088,763	0,36
1089,176	0,36
1089,59	0,36
1090,004	0,35
1090,417	0,35
1090,831	0,35
1091,244	0,35
1091,658	0,34
1092,071	0,34
1092,485	0,34
1092,898	0,33
1093,312	0,33
1093,725	0,33
1094,138	0,33
1094,552	0,33
1094,965	0,32
1095,378	0,32
1095,791	0,32
1096,205	0,32
1096,618	0,32
1097,031	0,32
1097,444	0,31
1097,857	0,31
1098,27	0,31
1098,683	0,31
1099,096	0,3
1099,509	0,3
1099,922	0,29
1100,335	0,29
1100,748	0,29
1101,161	0,28
1101,574	0,28
1101,986	0,27
1102,399	0,27
1102,812	0,27
1103,225	0,26
1103,637	0,26
1104,05	0,25
1104,463	0,26
1104,875	0,26
1105,288	0,25
1105,7	0,24
1106,113	0,24
1106,525	0,23
1106,938	0,23
1107,35	0,22
1107,763	0,22
1108,175	0,22
1108,588	0,22
1109	0,21
1109,412	0,2
1109,824	0,21
1110,237	0,21
1110,649	0,22
1111,061	0,2
