Data from 18C-808nm-8A-cont_Absorbance__333__01762.txt Node

Date: Mon Jul 17 17:30:28 CEST 2023
User: Laser008
Spectrometer: MAYP115816
Trigger mode: 0
Integration Time (sec): 2,500000E-1
Scans to average: 10
Electric dark correction enabled: true
Nonlinearity correction enabled: true
Boxcar width: 5
XAxis mode: Wavelengths
Number of Pixels in Spectrum: 2068
>>>>>Begin Spectral Data<<<<<
198,914	-0,68
199,384	-0,46
199,855	-0,35
200,325	-0,26
200,796	-0,22
201,266	-0,19
201,737	-0,18
202,207	-0,17
202,677	-0,15
203,147	-0,14
203,618	-0,11
204,088	-0,1
204,558	-0,08
205,028	-0,07
205,498	-0,08
205,968	-0,08
206,439	-0,08
206,909	-0,07
207,379	-0,08
207,849	-0,09
208,319	-0,09
208,789	-0,1
209,258	-0,09
209,728	-0,11
210,198	-0,11
210,668	-0,11
211,138	-0,11
211,608	-0,12
212,077	-0,12
212,547	-0,11
213,017	-0,11
213,486	-0,12
213,956	-0,13
214,426	-0,14
214,895	-0,14
215,365	-0,14
215,834	-0,14
216,304	-0,15
216,773	-0,15
217,243	-0,16
217,712	-0,18
218,181	-0,17
218,651	-0,17
219,12	-0,16
219,589	-0,16
220,058	-0,14
220,528	-0,15
220,997	-0,17
221,466	-0,18
221,935	-0,18
222,404	-0,17
222,873	-0,15
223,342	-0,16
223,812	-0,16
224,281	-0,16
224,749	-0,17
225,218	-0,19
225,687	-0,19
226,156	-0,17
226,625	-0,15
227,094	-0,15
227,563	-0,15
228,031	-0,17
228,5	-0,17
228,969	-0,17
229,438	-0,17
229,906	-0,15
230,375	-0,14
230,844	-0,14
231,312	-0,14
231,781	-0,15
232,249	-0,13
232,718	-0,14
233,186	-0,12
233,655	-0,13
234,123	-0,12
234,591	-0,12
235,06	-0,13
235,528	-0,14
235,996	-0,13
236,465	-0,13
236,933	-0,12
237,401	-0,13
237,869	-0,12
238,337	-0,12
238,805	-0,11
239,274	-0,11
239,742	-0,1
240,21	-0,1
240,678	-0,09
241,146	-0,09
241,614	-0,09
242,081	-0,09
242,549	-0,08
243,017	-0,09
243,485	-0,09
243,953	-0,09
244,421	-0,09
244,888	-0,08
245,356	-0,08
245,824	-0,09
246,291	-0,09
246,759	-0,1
247,227	-0,1
247,694	-0,09
248,162	-0,08
248,629	-0,07
249,097	-0,08
249,564	-0,09
250,032	-0,1
250,499	-0,1
250,967	-0,11
251,434	-0,12
251,901	-0,11
252,369	-0,11
252,836	-0,13
253,303	-0,15
253,77	-0,17
254,237	-0,15
254,705	-0,15
255,172	-0,14
255,639	-0,14
256,106	-0,15
256,573	-0,14
257,04	-0,14
257,507	-0,15
257,974	-0,15
258,441	-0,12
258,908	-0,13
259,375	-0,15
259,841	-0,15
260,308	-0,16
260,775	-0,16
261,242	-0,15
261,709	-0,15
262,175	-0,17
262,642	-0,16
263,109	-0,16
263,575	-0,17
264,042	-0,16
264,508	-0,15
264,975	-0,17
265,441	-0,18
265,908	-0,19
266,374	-0,19
266,841	-0,19
267,307	-0,19
267,773	-0,19
268,24	-0,19
268,706	-0,2
269,172	-0,21
269,639	-0,22
270,105	-0,2
270,571	-0,21
271,037	-0,21
271,503	-0,22
271,969	-0,21
272,435	-0,22
272,902	-0,23
273,368	-0,24
273,834	-0,23
274,3	-0,23
274,765	-0,23
275,231	-0,22
275,697	-0,21
276,163	-0,2
276,629	-0,21
277,095	-0,21
277,56	-0,21
278,026	-0,21
278,492	-0,2
278,958	-0,2
279,423	-0,2
279,889	-0,2
280,354	-0,2
280,82	-0,21
281,286	-0,23
281,751	-0,22
282,217	-0,22
282,682	-0,22
283,147	-0,22
283,613	-0,23
284,078	-0,23
284,544	-0,24
285,009	-0,25
285,474	-0,24
285,939	-0,26
286,405	-0,24
286,87	-0,23
287,335	-0,22
287,8	-0,21
288,265	-0,19
288,73	-0,21
289,195	-0,22
289,66	-0,21
290,125	-0,2
290,59	-0,2
291,055	-0,19
291,52	-0,19
291,985	-0,2
292,45	-0,22
292,915	-0,21
293,38	-0,22
293,844	-0,2
294,309	-0,19
294,774	-0,19
295,239	-0,2
295,703	-0,21
296,168	-0,2
296,632	-0,19
297,097	-0,18
297,562	-0,16
298,026	-0,17
298,491	-0,17
298,955	-0,17
299,419	-0,17
299,884	-0,16
300,348	-0,14
300,813	-0,13
301,277	-0,15
301,741	-0,15
302,205	-0,15
302,67	-0,14
303,134	-0,13
303,598	-0,13
304,062	-0,12
304,526	-0,11
304,99	-0,13
305,454	-0,14
305,919	-0,14
306,383	-0,13
306,847	-0,12
307,31	-0,13
307,774	-0,14
308,238	-0,15
308,702	-0,14
309,166	-0,16
309,63	-0,16
310,094	-0,13
310,557	-0,12
311,021	-0,11
311,485	-0,12
311,948	-0,11
312,412	-0,1
312,876	-0,09
313,339	-0,1
313,803	-0,1
314,266	-0,09
314,73	-0,1
315,193	-0,11
315,657	-0,1
316,12	-0,1
316,584	-0,08
317,047	-0,08
317,51	-0,07
317,973	-0,07
318,437	-0,05
318,9	-0,05
319,363	-0,04
319,826	-0,03
320,29	-0,03
320,753	-0,03
321,216	-0,03
321,679	-0,03
322,142	-0,03
322,605	-0,05
323,068	-0,05
323,531	-0,06
323,994	-0,05
324,457	-0,05
324,92	-0,04
325,382	-0,04
325,845	-0,03
326,308	-0,03
326,771	-0,03
327,233	-0,02
327,696	0
328,159	0,01
328,622	0,02
329,084	0,01
329,547	0,02
330,009	0,02
330,472	0,03
330,934	0,04
331,397	0,05
331,859	0,05
332,322	0,05
332,784	0,05
333,246	0,05
333,709	0,05
334,171	0,06
334,633	0,07
335,096	0,07
335,558	0,07
336,02	0,07
336,482	0,07
336,944	0,08
337,406	0,1
337,868	0,1
338,331	0,1
338,793	0,12
339,255	0,13
339,717	0,13
340,178	0,13
340,64	0,14
341,102	0,14
341,564	0,15
342,026	0,16
342,488	0,17
342,949	0,19
343,411	0,21
343,873	0,24
344,335	0,27
344,796	0,31
345,258	0,36
345,719	0,4
346,181	0,45
346,643	0,5
347,104	0,53
347,566	0,57
348,027	0,6
348,488	0,62
348,95	0,64
349,411	0,67
349,873	0,7
350,334	0,72
350,795	0,73
351,256	0,74
351,718	0,75
352,179	0,76
352,64	0,76
353,101	0,76
353,562	0,77
354,023	0,77
354,484	0,77
354,945	0,78
355,406	0,78
355,867	0,78
356,328	0,79
356,789	0,79
357,25	0,79
357,711	0,79
358,172	0,79
358,633	0,8
359,093	0,8
359,554	0,8
360,015	0,8
360,476	0,8
360,936	0,8
361,397	0,81
361,858	0,81
362,318	0,81
362,779	0,81
363,239	0,81
363,7	0,81
364,16	0,81
364,621	0,81
365,081	0,81
365,541	0,81
366,002	0,81
366,462	0,81
366,922	0,81
367,383	0,81
367,843	0,81
368,303	0,81
368,763	0,81
369,223	0,81
369,684	0,81
370,144	0,81
370,604	0,81
371,064	0,81
371,524	0,81
371,984	0,81
372,444	0,81
372,904	0,81
373,363	0,81
373,823	0,81
374,283	0,81
374,743	0,81
375,203	0,81
375,663	0,81
376,122	0,81
376,582	0,81
377,042	0,81
377,501	0,81
377,961	0,81
378,42	0,81
378,88	0,81
379,34	0,81
379,799	0,81
380,259	0,81
380,718	0,8
381,177	0,8
381,637	0,8
382,096	0,8
382,555	0,8
383,015	0,8
383,474	0,8
383,933	0,8
384,393	0,8
384,852	0,8
385,311	0,8
385,77	0,8
386,229	0,8
386,688	0,8
387,147	0,8
387,606	0,8
388,065	0,8
388,524	0,8
388,983	0,8
389,442	0,8
389,901	0,8
390,36	0,8
390,819	0,8
391,277	0,8
391,736	0,8
392,195	0,8
392,654	0,8
393,112	0,8
393,571	0,8
394,03	0,8
394,488	0,79
394,947	0,79
395,405	0,79
395,864	0,79
396,322	0,79
396,781	0,79
397,239	0,79
397,698	0,79
398,156	0,79
398,614	0,79
399,073	0,79
399,531	0,79
399,989	0,79
400,447	0,79
400,905	0,79
401,364	0,79
401,822	0,79
402,28	0,79
402,738	0,79
403,196	0,79
403,654	0,79
404,112	0,79
404,57	0,79
405,028	0,79
405,486	0,79
405,944	0,79
406,402	0,79
406,859	0,79
407,317	0,79
407,775	0,79
408,233	0,79
408,691	0,79
409,148	0,79
409,606	0,79
410,064	0,79
410,521	0,79
410,979	0,79
411,436	0,79
411,894	0,79
412,351	0,79
412,809	0,79
413,266	0,78
413,724	0,78
414,181	0,78
414,638	0,78
415,096	0,78
415,553	0,78
416,01	0,78
416,467	0,78
416,925	0,78
417,382	0,78
417,839	0,78
418,296	0,78
418,753	0,78
419,21	0,78
419,667	0,78
420,124	0,78
420,581	0,78
421,038	0,78
421,495	0,78
421,952	0,78
422,409	0,78
422,866	0,78
423,322	0,78
423,779	0,78
424,236	0,78
424,693	0,78
425,149	0,78
425,606	0,78
426,063	0,78
426,519	0,78
426,976	0,78
427,433	0,78
427,889	0,78
428,346	0,78
428,802	0,78
429,258	0,78
429,715	0,78
430,171	0,78
430,628	0,78
431,084	0,78
431,54	0,78
431,997	0,78
432,453	0,78
432,909	0,78
433,365	0,78
433,821	0,78
434,277	0,78
434,734	0,78
435,19	0,78
435,646	0,78
436,102	0,78
436,558	0,78
437,014	0,78
437,47	0,78
437,925	0,78
438,381	0,78
438,837	0,78
439,293	0,78
439,749	0,78
440,205	0,78
440,66	0,78
441,116	0,78
441,572	0,78
442,027	0,78
442,483	0,78
442,939	0,78
443,394	0,78
443,85	0,78
444,305	0,78
444,761	0,78
445,216	0,78
445,672	0,78
446,127	0,78
446,582	0,78
447,038	0,78
447,493	0,78
447,948	0,78
448,403	0,78
448,859	0,78
449,314	0,78
449,769	0,78
450,224	0,78
450,679	0,78
451,134	0,79
451,589	0,79
452,044	0,79
452,499	0,79
452,954	0,79
453,409	0,79
453,864	0,79
454,319	0,79
454,774	0,79
455,229	0,79
455,684	0,79
456,138	0,79
456,593	0,79
457,048	0,79
457,503	0,79
457,957	0,79
458,412	0,79
458,866	0,79
459,321	0,79
459,776	0,79
460,23	0,79
460,685	0,79
461,139	0,79
461,593	0,79
462,048	0,79
462,502	0,8
462,957	0,8
463,411	0,8
463,865	0,8
464,319	0,8
464,774	0,8
465,228	0,8
465,682	0,8
466,136	0,8
466,59	0,8
467,044	0,8
467,499	0,81
467,953	0,81
468,407	0,81
468,861	0,81
469,315	0,81
469,768	0,81
470,222	0,81
470,676	0,81
471,13	0,81
471,584	0,81
472,038	0,81
472,491	0,81
472,945	0,81
473,399	0,82
473,852	0,82
474,306	0,82
474,76	0,82
475,213	0,82
475,667	0,82
476,12	0,82
476,574	0,82
477,027	0,83
477,481	0,83
477,934	0,83
478,388	0,83
478,841	0,83
479,294	0,83
479,748	0,84
480,201	0,84
480,654	0,84
481,107	0,84
481,561	0,84
482,014	0,84
482,467	0,85
482,92	0,85
483,373	0,85
483,826	0,85
484,279	0,85
484,732	0,85
485,185	0,86
485,638	0,86
486,091	0,86
486,544	0,86
486,997	0,86
487,449	0,87
487,902	0,87
488,355	0,87
488,808	0,87
489,26	0,88
489,713	0,88
490,166	0,88
490,618	0,89
491,071	0,89
491,523	0,89
491,976	0,89
492,429	0,9
492,881	0,9
493,333	0,9
493,786	0,91
494,238	0,91
494,691	0,91
495,143	0,92
495,595	0,92
496,048	0,92
496,5	0,93
496,952	0,93
497,404	0,93
497,856	0,94
498,309	0,94
498,761	0,94
499,213	0,95
499,665	0,95
500,117	0,96
500,569	0,96
501,021	0,96
501,473	0,97
501,925	0,97
502,377	0,98
502,828	0,98
503,28	0,99
503,732	0,99
504,184	0,99
504,636	1
505,087	1
505,539	1
505,991	1,01
506,442	1,01
506,894	1,02
507,345	1,02
507,797	1,02
508,249	1,03
508,7	1,03
509,151	1,04
509,603	1,04
510,054	1,04
510,506	1,05
510,957	1,05
511,408	1,05
511,86	1,06
512,311	1,06
512,762	1,06
513,213	1,07
513,665	1,07
514,116	1,07
514,567	1,08
515,018	1,08
515,469	1,08
515,92	1,09
516,371	1,09
516,822	1,09
517,273	1,09
517,724	1,1
518,175	1,1
518,626	1,1
519,076	1,1
519,527	1,11
519,978	1,11
520,429	1,11
520,88	1,11
521,33	1,12
521,781	1,12
522,232	1,12
522,682	1,12
523,133	1,13
523,583	1,13
524,034	1,13
524,484	1,13
524,935	1,13
525,385	1,13
525,836	1,13
526,286	1,13
526,736	1,13
527,187	1,13
527,637	1,13
528,087	1,13
528,538	1,13
528,988	1,13
529,438	1,13
529,888	1,13
530,338	1,13
530,788	1,12
531,238	1,12
531,688	1,12
532,139	1,12
532,589	1,12
533,038	1,12
533,488	1,12
533,938	1,11
534,388	1,11
534,838	1,11
535,288	1,1
535,738	1,1
536,187	1,1
536,637	1,09
537,087	1,09
537,537	1,09
537,986	1,08
538,436	1,08
538,885	1,07
539,335	1,07
539,785	1,06
540,234	1,06
540,684	1,06
541,133	1,05
541,582	1,05
542,032	1,04
542,481	1,04
542,931	1,03
543,38	1,03
543,829	1,02
544,278	1,02
544,728	1,01
545,177	1,01
545,626	1
546,075	1
546,524	1
546,973	0,99
547,422	0,99
547,871	0,98
548,32	0,98
548,769	0,98
549,218	0,97
549,667	0,97
550,116	0,97
550,565	0,96
551,014	0,96
551,463	0,95
551,911	0,95
552,36	0,94
552,809	0,94
553,258	0,94
553,706	0,93
554,155	0,93
554,603	0,92
555,052	0,92
555,501	0,91
555,949	0,91
556,398	0,91
556,846	0,9
557,294	0,9
557,743	0,89
558,191	0,89
558,64	0,88
559,088	0,88
559,536	0,87
559,985	0,87
560,433	0,86
560,881	0,86
561,329	0,85
561,777	0,85
562,225	0,84
562,674	0,84
563,122	0,84
563,57	0,83
564,018	0,83
564,466	0,82
564,914	0,82
565,362	0,81
565,809	0,81
566,257	0,81
566,705	0,8
567,153	0,8
567,601	0,79
568,048	0,79
568,496	0,79
568,944	0,78
569,392	0,78
569,839	0,78
570,287	0,77
570,734	0,77
571,182	0,77
571,63	0,76
572,077	0,76
572,525	0,76
572,972	0,75
573,419	0,75
573,867	0,74
574,314	0,74
574,761	0,74
575,209	0,73
575,656	0,73
576,103	0,73
576,551	0,72
576,998	0,72
577,445	0,72
577,892	0,71
578,339	0,71
578,786	0,71
579,233	0,7
579,68	0,7
580,127	0,7
580,574	0,7
581,021	0,69
581,468	0,69
581,915	0,69
582,362	0,69
582,809	0,68
583,255	0,68
583,702	0,68
584,149	0,68
584,596	0,68
585,042	0,67
585,489	0,67
585,936	0,67
586,382	0,67
586,829	0,66
587,275	0,66
587,722	0,66
588,168	0,66
588,615	0,65
589,061	0,65
589,508	0,65
589,954	0,65
590,4	0,65
590,847	0,64
591,293	0,64
591,739	0,64
592,185	0,64
592,632	0,64
593,078	0,64
593,524	0,63
593,97	0,63
594,416	0,63
594,862	0,63
595,308	0,63
595,754	0,63
596,2	0,63
596,646	0,62
597,092	0,62
597,538	0,62
597,984	0,62
598,43	0,62
598,876	0,62
599,321	0,62
599,767	0,61
600,213	0,61
600,659	0,61
601,104	0,61
601,55	0,61
601,995	0,61
602,441	0,61
602,887	0,6
603,332	0,6
603,778	0,6
604,223	0,6
604,668	0,6
605,114	0,6
605,559	0,6
606,005	0,6
606,45	0,6
606,895	0,59
607,341	0,59
607,786	0,59
608,231	0,59
608,676	0,58
609,121	0,58
609,566	0,57
610,012	0,57
610,457	0,56
610,902	0,56
611,347	0,56
611,792	0,56
612,237	0,55
612,682	0,55
613,127	0,55
613,571	0,55
614,016	0,56
614,461	0,56
614,906	0,56
615,351	0,56
615,795	0,56
616,24	0,56
616,685	0,56
617,129	0,56
617,574	0,57
618,019	0,57
618,463	0,56
618,908	0,56
619,352	0,56
619,797	0,56
620,241	0,56
620,686	0,56
621,13	0,56
621,574	0,56
622,019	0,56
622,463	0,56
622,907	0,55
623,352	0,55
623,796	0,55
624,24	0,55
624,684	0,55
625,128	0,55
625,572	0,55
626,016	0,55
626,461	0,55
626,905	0,55
627,349	0,55
627,793	0,55
628,236	0,55
628,68	0,55
629,124	0,55
629,568	0,55
630,012	0,55
630,456	0,55
630,9	0,55
631,343	0,55
631,787	0,55
632,231	0,55
632,674	0,55
633,118	0,55
633,562	0,55
634,005	0,55
634,449	0,55
634,892	0,55
635,336	0,55
635,779	0,55
636,223	0,55
636,666	0,54
637,109	0,54
637,553	0,54
637,996	0,54
638,439	0,54
638,883	0,54
639,326	0,54
639,769	0,54
640,212	0,54
640,655	0,54
641,099	0,54
641,542	0,54
641,985	0,54
642,428	0,53
642,871	0,53
643,314	0,53
643,757	0,53
644,2	0,53
644,643	0,53
645,085	0,53
645,528	0,53
645,971	0,53
646,414	0,53
646,857	0,53
647,299	0,53
647,742	0,53
648,185	0,53
648,627	0,53
649,07	0,53
649,513	0,53
649,955	0,53
650,398	0,53
650,84	0,53
651,283	0,53
651,725	0,53
652,168	0,53
652,61	0,53
653,052	0,53
653,495	0,53
653,937	0,44
654,379	0,39
654,821	0,39
655,264	0,39
655,706	0,39
656,148	0,39
656,59	0,39
657,032	0,39
657,474	0,39
657,916	0,39
658,358	0,39
658,8	0,45
659,242	0,53
659,684	0,53
660,126	0,53
660,568	0,53
661,01	0,53
661,452	0,53
661,894	0,52
662,335	0,52
662,777	0,52
663,219	0,52
663,661	0,52
664,102	0,52
664,544	0,52
664,985	0,52
665,427	0,52
665,869	0,52
666,31	0,52
666,752	0,52
667,193	0,52
667,634	0,52
668,076	0,52
668,517	0,52
668,959	0,52
669,4	0,52
669,841	0,52
670,282	0,52
670,724	0,52
671,165	0,52
671,606	0,52
672,047	0,52
672,488	0,52
672,929	0,52
673,37	0,52
673,811	0,52
674,252	0,52
674,693	0,51
675,134	0,51
675,575	0,51
676,016	0,51
676,457	0,51
676,898	0,51
677,339	0,51
677,78	0,51
678,22	0,51
678,661	0,51
679,102	0,51
679,542	0,51
679,983	0,51
680,424	0,51
680,864	0,51
681,305	0,51
681,745	0,51
682,186	0,51
682,626	0,51
683,067	0,51
683,507	0,51
683,948	0,51
684,388	0,51
684,828	0,51
685,269	0,51
685,709	0,51
686,149	0,51
686,589	0,51
687,029	0,51
687,47	0,51
687,91	0,51
688,35	0,51
688,79	0,51
689,23	0,51
689,67	0,51
690,11	0,5
690,55	0,5
690,99	0,5
691,43	0,5
691,87	0,5
692,31	0,5
692,749	0,5
693,189	0,5
693,629	0,5
694,069	0,49
694,508	0,49
694,948	0,49
695,388	0,49
695,827	0,49
696,267	0,49
696,706	0,5
697,146	0,5
697,586	0,5
698,025	0,5
698,464	0,5
698,904	0,5
699,343	0,5
699,783	0,5
700,222	0,5
700,661	0,5
701,101	0,5
701,54	0,5
701,979	0,5
702,418	0,5
702,857	0,5
703,297	0,5
703,736	0,5
704,175	0,5
704,614	0,5
705,053	0,5
705,492	0,5
705,931	0,5
706,37	0,5
706,809	0,5
707,248	0,5
707,687	0,49
708,125	0,49
708,564	0,49
709,003	0,49
709,442	0,49
709,88	0,49
710,319	0,49
710,758	0,49
711,196	0,49
711,635	0,49
712,074	0,49
712,512	0,49
712,951	0,49
713,389	0,49
713,828	0,49
714,266	0,49
714,705	0,48
715,143	0,48
715,581	0,49
716,02	0,49
716,458	0,49
716,896	0,49
717,334	0,49
717,773	0,49
718,211	0,49
718,649	0,49
719,087	0,49
719,525	0,49
719,963	0,49
720,401	0,49
720,839	0,49
721,277	0,49
721,715	0,49
722,153	0,49
722,591	0,49
723,029	0,49
723,467	0,49
723,905	0,49
724,342	0,49
724,78	0,49
725,218	0,49
725,656	0,49
726,093	0,49
726,531	0,49
726,969	0,49
727,406	0,49
727,844	0,49
728,281	0,49
728,719	0,49
729,156	0,49
729,594	0,49
730,031	0,49
730,469	0,49
730,906	0,48
731,343	0,48
731,781	0,48
732,218	0,48
732,655	0,48
733,092	0,48
733,53	0,48
733,967	0,48
734,404	0,48
734,841	0,47
735,278	0,47
735,715	0,47
736,152	0,47
736,589	0,47
737,026	0,47
737,463	0,47
737,9	0,47
738,337	0,47
738,774	0,47
739,211	0,47
739,647	0,47
740,084	0,47
740,521	0,47
740,958	0,47
741,394	0,47
741,831	0,47
742,268	0,47
742,704	0,47
743,141	0,47
743,577	0,47
744,014	0,47
744,45	0,47
744,887	0,47
745,323	0,47
745,76	0,47
746,196	0,46
746,632	0,46
747,069	0,46
747,505	0,46
747,941	0,46
748,378	0,46
748,814	0,46
749,25	0,46
749,686	0,46
750,122	0,46
750,558	0,46
750,994	0,47
751,43	0,47
751,866	0,47
752,302	0,47
752,738	0,47
753,174	0,47
753,61	0,47
754,046	0,47
754,482	0,47
754,918	0,47
755,354	0,47
755,789	0,47
756,225	0,47
756,661	0,47
757,096	0,46
757,532	0,46
757,968	0,46
758,403	0,46
758,839	0,45
759,274	0,45
759,71	0,45
760,145	0,44
760,581	0,43
761,016	0,43
761,452	0,42
761,887	0,42
762,322	0,41
762,758	0,41
763,193	0,41
763,628	0,4
764,063	0,39
764,499	0,39
764,934	0,38
765,369	0,37
765,804	0,37
766,239	0,36
766,674	0,35
767,109	0,34
767,544	0,33
767,979	0,32
768,414	0,31
768,849	0,3
769,284	0,29
769,719	0,28
770,154	0,27
770,588	0,26
771,023	0,25
771,458	0,24
771,893	0,22
772,327	0,21
772,762	0,2
773,197	0,19
773,631	0,18
774,066	0,17
774,5	0,16
774,935	0,16
775,369	0,15
775,804	0,14
776,238	0,13
776,673	0,12
777,107	0,11
777,541	0,09
777,976	0,09
778,41	0,08
778,844	0,07
779,279	0,06
779,713	0,05
780,147	0,04
780,581	0,03
781,015	0,02
781,449	0,01
781,883	0,01
782,317	-0,01
782,751	-0,02
783,185	-0,03
783,619	-0,04
784,053	-0,05
784,487	-0,06
784,921	-0,06
785,355	-0,07
785,789	-0,08
786,223	-0,09
786,656	-0,1
787,09	-0,11
787,524	-0,12
787,957	-0,13
788,391	-0,15
788,825	-0,17
789,258	-0,18
789,692	-0,2
790,125	-0,22
790,559	-0,23
790,992	-0,25
791,426	-0,28
791,859	-0,29
792,293	-0,33
792,726	-0,35
793,159	-0,37
793,593	-0,39
794,026	-0,41
794,459	-0,44
794,892	-0,47
795,326	-0,49
795,759	-0,53
796,192	-0,57
796,625	-0,62
797,058	-0,64
797,491	-0,68
797,924	-0,72
798,357	-0,77
798,79	-0,81
799,223	-0,86
799,656	-0,91
800,089	-0,96
800,522	-1
800,955	-1,05
801,387	-1,1
801,82	-1,16
802,253	-1,22
802,686	-1,3
803,118	-1,36
803,551	-1,41
803,984	-1,45
804,416	-1,49
804,849	-1,53
805,281	-1,66
805,714	-2,04
806,146	-2,47
806,579	-2,72
807,011	-2,88
807,444	-2,97
807,876	-3,05
808,308	-3,09
808,741	-3,11
809,173	-3,17
809,605	-3,19
810,037	-3,26
810,47	-3,18
810,902	-2,98
811,334	-2,82
811,766	-2,66
812,198	-2,41
812,63	-1,99
813,062	-1,79
813,494	-1,7
813,926	-1,61
814,358	-1,56
814,79	-1,48
815,222	-1,42
815,654	-1,37
816,086	-1,3
816,518	-1,25
816,949	-1,2
817,381	-1,15
817,813	-1,14
818,245	-1,09
818,676	-1,05
819,108	-1,02
819,54	-1,01
819,971	-0,99
820,403	-0,93
820,834	-0,92
821,266	-0,88
821,697	-0,85
822,129	-0,84
822,56	-0,81
822,991	-0,79
823,423	-0,76
823,854	-0,75
824,286	-0,72
824,717	-0,71
825,148	-0,7
825,579	-0,69
826,01	-0,68
826,442	-0,67
826,873	-0,66
827,304	-0,63
827,735	-0,62
828,166	-0,63
828,597	-0,62
829,028	-0,62
829,459	-0,62
829,89	-0,61
830,321	-0,57
830,752	-0,58
831,183	-0,57
831,613	-0,55
832,044	-0,55
832,475	-0,54
832,906	-0,55
833,336	-0,56
833,767	-0,56
834,198	-0,55
834,628	-0,53
835,059	-0,56
835,49	-0,57
835,92	-0,54
836,351	-0,54
836,781	-0,54
837,212	-0,55
837,642	-0,55
838,072	-0,53
838,503	-0,55
838,933	-0,53
839,364	-0,54
839,794	-0,53
840,224	-0,52
840,654	-0,56
841,085	-0,56
841,515	-0,54
841,945	-0,54
842,375	-0,5
842,805	-0,49
843,235	-0,47
843,665	-0,48
844,095	-0,46
844,525	-0,49
844,955	-0,49
845,385	-0,46
845,815	-0,46
846,245	-0,48
846,675	-0,49
847,105	-0,5
847,534	-0,5
847,964	-0,48
848,394	-0,47
848,824	-0,5
849,253	-0,49
849,683	-0,48
850,112	-0,5
850,542	-0,53
850,972	-0,54
851,401	-0,51
851,831	-0,5
852,26	-0,51
852,69	-0,55
853,119	-0,55
853,548	-0,55
853,978	-0,56
854,407	-0,55
854,836	-0,54
855,266	-0,53
855,695	-0,54
856,124	-0,56
856,553	-0,57
856,983	-0,59
857,412	-0,58
857,841	-0,59
858,27	-0,59
858,699	-0,59
859,128	-0,62
859,557	-0,63
859,986	-0,64
860,415	-0,61
860,844	-0,59
861,273	-0,59
861,702	-0,59
862,13	-0,57
862,559	-0,6
862,988	-0,57
863,417	-0,57
863,845	-0,57
864,274	-0,58
864,703	-0,57
865,131	-0,57
865,56	-0,57
865,989	-0,6
866,417	-0,57
866,846	-0,57
867,274	-0,57
867,703	-0,59
868,131	-0,59
868,559	-0,58
868,988	-0,61
869,416	-0,59
869,844	-0,61
870,273	-0,64
870,701	-0,62
871,129	-0,65
871,557	-0,67
871,986	-0,67
872,414	-0,67
872,842	-0,65
873,27	-0,63
873,698	-0,6
874,126	-0,66
874,554	-0,63
874,982	-0,63
875,41	-0,65
875,838	-0,6
876,266	-0,58
876,694	-0,59
877,122	-0,57
877,549	-0,63
877,977	-0,6
878,405	-0,63
878,833	-0,59
879,26	-0,58
879,688	-0,58
880,116	-0,56
880,543	-0,54
880,971	-0,52
881,399	-0,55
881,826	-0,56
882,254	-0,54
882,681	-0,58
883,109	-0,54
883,536	-0,55
883,963	-0,57
884,391	-0,56
884,818	-0,55
885,245	-0,6
885,673	-0,62
886,1	-0,58
886,527	-0,58
886,954	-0,54
887,381	-0,56
887,809	-0,56
888,236	-0,58
888,663	-0,59
889,09	-0,63
889,517	-0,65
889,944	-0,64
890,371	-0,63
890,798	-0,65
891,225	-0,65
891,652	-0,68
892,078	-0,66
892,505	-0,68
892,932	-0,64
893,359	-0,65
893,786	-0,64
894,212	-0,61
894,639	-0,62
895,066	-0,64
895,492	-0,58
895,919	-0,59
896,346	-0,59
896,772	-0,59
897,199	-0,57
897,625	-0,6
898,052	-0,56
898,478	-0,54
898,904	-0,56
899,331	-0,55
899,757	-0,58
900,183	-0,59
900,61	-0,57
901,036	-0,56
901,462	-0,56
901,888	-0,56
902,315	-0,54
902,741	-0,6
903,167	-0,58
903,593	-0,61
904,019	-0,6
904,445	-0,56
904,871	-0,59
905,297	-0,62
905,723	-0,61
906,149	-0,59
906,575	-0,6
907,001	-0,6
907,427	-0,56
907,852	-0,56
908,278	-0,57
908,704	-0,54
909,13	-0,54
909,555	-0,52
909,981	-0,52
910,407	-0,53
910,832	-0,53
911,258	-0,52
911,684	-0,52
912,109	-0,52
912,535	-0,53
912,96	-0,48
913,386	-0,52
913,811	-0,51
914,236	-0,53
914,662	-0,51
915,087	-0,53
915,512	-0,54
915,938	-0,56
916,363	-0,55
916,788	-0,57
917,213	-0,56
917,639	-0,61
918,064	-0,59
918,489	-0,6
918,914	-0,6
919,339	-0,61
919,764	-0,59
920,189	-0,59
920,614	-0,6
921,039	-0,62
921,464	-0,57
921,889	-0,61
922,314	-0,62
922,738	-0,65
923,163	-0,67
923,588	-0,66
924,013	-0,66
924,437	-0,65
924,862	-0,67
925,287	-0,64
925,711	-0,64
926,136	-0,66
926,561	-0,64
926,985	-0,62
927,41	-0,59
927,834	-0,57
928,259	-0,53
928,683	-0,52
929,108	-0,5
929,532	-0,51
929,956	-0,49
930,381	-0,48
930,805	-0,48
931,229	-0,47
931,653	-0,46
932,078	-0,46
932,502	-0,47
932,926	-0,48
933,35	-0,47
933,774	-0,47
934,198	-0,45
934,622	-0,44
935,046	-0,45
935,47	-0,45
935,894	-0,45
936,318	-0,44
936,742	-0,44
937,166	-0,45
937,59	-0,44
938,014	-0,46
938,437	-0,47
938,861	-0,48
939,285	-0,49
939,709	-0,48
940,132	-0,48
940,556	-0,49
940,98	-0,48
941,403	-0,47
941,827	-0,47
942,25	-0,49
942,674	-0,48
943,097	-0,46
943,521	-0,46
943,944	-0,48
944,368	-0,47
944,791	-0,46
945,214	-0,48
945,638	-0,49
946,061	-0,52
946,484	-0,52
946,907	-0,5
947,331	-0,5
947,754	-0,55
948,177	-0,53
948,6	-0,53
949,023	-0,52
949,446	-0,52
949,869	-0,49
950,292	-0,48
950,715	-0,44
951,138	-0,43
951,561	-0,41
951,984	-0,42
952,407	-0,4
952,83	-0,38
953,252	-0,34
953,675	-0,34
954,098	-0,35
954,521	-0,34
954,943	-0,34
955,366	-0,35
955,789	-0,33
956,211	-0,35
956,634	-0,36
957,056	-0,34
957,479	-0,35
957,902	-0,36
958,324	-0,36
958,746	-0,35
959,169	-0,37
959,591	-0,36
960,014	-0,36
960,436	-0,36
960,858	-0,36
961,281	-0,36
961,703	-0,37
962,125	-0,37
962,547	-0,36
962,969	-0,37
963,391	-0,37
963,814	-0,38
964,236	-0,38
964,658	-0,35
965,08	-0,36
965,502	-0,35
965,924	-0,32
966,346	-0,33
966,768	-0,32
967,189	-0,34
967,611	-0,34
968,033	-0,34
968,455	-0,32
968,877	-0,33
969,298	-0,34
969,72	-0,35
970,142	-0,34
970,563	-0,34
970,985	-0,32
971,407	-0,31
971,828	-0,28
972,25	-0,27
972,671	-0,25
973,093	-0,25
973,514	-0,23
973,936	-0,21
974,357	-0,19
974,778	-0,2
975,2	-0,2
975,621	-0,2
976,042	-0,18
976,464	-0,17
976,885	-0,16
977,306	-0,15
977,727	-0,14
978,148	-0,14
978,57	-0,13
978,991	-0,11
979,412	-0,1
979,833	-0,09
980,254	-0,08
980,675	-0,08
981,096	-0,07
981,517	-0,06
981,937	-0,06
982,358	-0,04
982,779	-0,02
983,2	-0,02
983,621	-0,02
984,042	0
984,462	0,01
984,883	0,02
985,304	0,04
985,724	0,05
986,145	0,06
986,565	0,08
986,986	0,09
987,407	0,1
987,827	0,12
988,248	0,14
988,668	0,14
989,088	0,16
989,509	0,17
989,929	0,18
990,35	0,2
990,77	0,22
991,19	0,22
991,61	0,24
992,031	0,25
992,451	0,26
992,871	0,27
993,291	0,28
993,711	0,29
994,131	0,3
994,551	0,31
994,971	0,31
995,391	0,32
995,811	0,33
996,231	0,34
996,651	0,34
997,071	0,36
997,491	0,36
997,911	0,37
998,331	0,38
998,75	0,38
999,17	0,39
999,59	0,4
1000,009	0,4
1000,429	0,41
1000,849	0,41
1001,268	0,42
1001,688	0,42
1002,107	0,42
1002,527	0,43
1002,946	0,43
1003,366	0,44
1003,785	0,44
1004,205	0,44
1004,624	0,45
1005,044	0,45
1005,463	0,45
1005,882	0,45
1006,301	0,46
1006,721	0,46
1007,14	0,46
1007,559	0,46
1007,978	0,46
1008,397	0,46
1008,816	0,46
1009,235	0,46
1009,655	0,46
1010,074	0,46
1010,492	0,46
1010,911	0,46
1011,33	0,46
1011,749	0,46
1012,168	0,46
1012,587	0,46
1013,006	0,46
1013,425	0,46
1013,843	0,46
1014,262	0,46
1014,681	0,46
1015,099	0,46
1015,518	0,45
1015,937	0,45
1016,355	0,45
1016,774	0,45
1017,192	0,45
1017,611	0,45
1018,029	0,45
1018,448	0,45
1018,866	0,45
1019,285	0,45
1019,703	0,45
1020,121	0,45
1020,54	0,45
1020,958	0,45
1021,376	0,45
1021,794	0,45
1022,213	0,45
1022,631	0,45
1023,049	0,44
1023,467	0,44
1023,885	0,44
1024,303	0,44
1024,721	0,44
1025,139	0,44
1025,557	0,44
1025,975	0,44
1026,393	0,44
1026,811	0,43
1027,229	0,43
1027,647	0,43
1028,065	0,43
1028,482	0,43
1028,9	0,43
1029,318	0,43
1029,735	0,43
1030,153	0,43
1030,571	0,43
1030,988	0,43
1031,406	0,43
1031,823	0,43
1032,241	0,43
1032,659	0,43
1033,076	0,43
1033,493	0,44
1033,911	0,44
1034,328	0,44
1034,746	0,44
1035,163	0,44
1035,58	0,44
1035,997	0,44
1036,415	0,44
1036,832	0,44
1037,249	0,44
1037,666	0,44
1038,083	0,44
1038,501	0,44
1038,918	0,44
1039,335	0,44
1039,752	0,44
1040,169	0,44
1040,586	0,44
1041,003	0,44
1041,419	0,44
1041,836	0,44
1042,253	0,44
1042,67	0,44
1043,087	0,44
1043,504	0,44
1043,92	0,44
1044,337	0,44
1044,754	0,44
1045,17	0,44
1045,587	0,44
1046,004	0,44
1046,42	0,44
1046,837	0,44
1047,253	0,44
1047,67	0,44
1048,086	0,44
1048,503	0,44
1048,919	0,44
1049,335	0,44
1049,752	0,44
1050,168	0,44
1050,584	0,44
1051,001	0,44
1051,417	0,44
1051,833	0,44
1052,249	0,44
1052,665	0,44
1053,081	0,44
1053,497	0,44
1053,914	0,44
1054,33	0,45
1054,746	0,45
1055,162	0,45
1055,578	0,45
1055,993	0,45
1056,409	0,45
1056,825	0,45
1057,241	0,45
1057,657	0,45
1058,073	0,45
1058,488	0,45
1058,904	0,45
1059,32	0,45
1059,736	0,45
1060,151	0,45
1060,567	0,45
1060,982	0,45
1061,398	0,45
1061,813	0,45
1062,229	0,45
1062,644	0,45
1063,06	0,44
1063,475	0,44
1063,891	0,44
1064,306	0,44
1064,721	0,44
1065,137	0,44
1065,552	0,44
1065,967	0,44
1066,382	0,44
1066,798	0,44
1067,213	0,44
1067,628	0,44
1068,043	0,44
1068,458	0,44
1068,873	0,44
1069,288	0,44
1069,703	0,44
1070,118	0,44
1070,533	0,44
1070,948	0,44
1071,363	0,44
1071,778	0,44
1072,193	0,44
1072,607	0,44
1073,022	0,44
1073,437	0,44
1073,852	0,44
1074,266	0,44
1074,681	0,44
1075,096	0,44
1075,51	0,44
1075,925	0,44
1076,339	0,44
1076,754	0,44
1077,168	0,44
1077,583	0,43
1077,997	0,43
1078,412	0,43
1078,826	0,43
1079,24	0,43
1079,655	0,43
1080,069	0,43
1080,483	0,43
1080,897	0,43
1081,312	0,43
1081,726	0,43
1082,14	0,43
1082,554	0,43
1082,968	0,43
1083,382	0,43
1083,796	0,43
1084,21	0,43
1084,624	0,43
1085,038	0,42
1085,452	0,42
1085,866	0,42
1086,28	0,42
1086,694	0,42
1087,108	0,42
1087,521	0,42
1087,935	0,41
1088,349	0,41
1088,763	0,41
1089,176	0,41
1089,59	0,4
1090,004	0,4
1090,417	0,39
1090,831	0,39
1091,244	0,39
1091,658	0,39
1092,071	0,38
1092,485	0,38
1092,898	0,38
1093,312	0,37
1093,725	0,37
1094,138	0,37
1094,552	0,37
1094,965	0,37
1095,378	0,36
1095,791	0,36
1096,205	0,36
1096,618	0,35
1097,031	0,35
1097,444	0,35
1097,857	0,35
1098,27	0,34
1098,683	0,34
1099,096	0,33
1099,509	0,33
1099,922	0,33
1100,335	0,32
1100,748	0,32
1101,161	0,31
1101,574	0,31
1101,986	0,3
1102,399	0,3
1102,812	0,3
1103,225	0,29
1103,637	0,29
1104,05	0,28
1104,463	0,29
1104,875	0,28
1105,288	0,28
1105,7	0,28
1106,113	0,27
1106,525	0,27
1106,938	0,26
1107,35	0,26
1107,763	0,26
1108,175	0,26
1108,588	0,25
1109	0,24
1109,412	0,24
1109,824	0,23
1110,237	0,23
1110,649	0,24
1111,061	0,23
