Data from 18C-808nm-8A-cont_Absorbance__717__02146.txt Node

Date: Mon Jul 17 17:46:28 CEST 2023
User: Laser008
Spectrometer: MAYP115816
Trigger mode: 0
Integration Time (sec): 2,500000E-1
Scans to average: 10
Electric dark correction enabled: true
Nonlinearity correction enabled: true
Boxcar width: 5
XAxis mode: Wavelengths
Number of Pixels in Spectrum: 2068
>>>>>Begin Spectral Data<<<<<
198,914	-0,7
199,384	-0,47
199,855	-0,35
200,325	-0,25
200,796	-0,22
201,266	-0,18
201,737	-0,16
202,207	-0,15
202,677	-0,14
203,147	-0,12
203,618	-0,08
204,088	-0,06
204,558	-0,05
205,028	-0,04
205,498	-0,05
205,968	-0,05
206,439	-0,07
206,909	-0,06
207,379	-0,07
207,849	-0,07
208,319	-0,09
208,789	-0,1
209,258	-0,1
209,728	-0,11
210,198	-0,11
210,668	-0,11
211,138	-0,1
211,608	-0,1
212,077	-0,11
212,547	-0,1
213,017	-0,1
213,486	-0,1
213,956	-0,12
214,426	-0,13
214,895	-0,12
215,365	-0,13
215,834	-0,13
216,304	-0,14
216,773	-0,15
217,243	-0,16
217,712	-0,17
218,181	-0,17
218,651	-0,17
219,12	-0,16
219,589	-0,15
220,058	-0,14
220,528	-0,15
220,997	-0,16
221,466	-0,17
221,935	-0,18
222,404	-0,18
222,873	-0,17
223,342	-0,17
223,812	-0,17
224,281	-0,18
224,749	-0,18
225,218	-0,19
225,687	-0,2
226,156	-0,19
226,625	-0,17
227,094	-0,16
227,563	-0,16
228,031	-0,17
228,5	-0,16
228,969	-0,16
229,438	-0,16
229,906	-0,15
230,375	-0,14
230,844	-0,13
231,312	-0,13
231,781	-0,14
232,249	-0,13
232,718	-0,13
233,186	-0,12
233,655	-0,12
234,123	-0,12
234,591	-0,13
235,06	-0,13
235,528	-0,14
235,996	-0,13
236,465	-0,13
236,933	-0,11
237,401	-0,11
237,869	-0,1
238,337	-0,1
238,805	-0,09
239,274	-0,08
239,742	-0,07
240,21	-0,07
240,678	-0,05
241,146	-0,04
241,614	-0,04
242,081	-0,04
242,549	-0,04
243,017	-0,04
243,485	-0,04
243,953	-0,05
244,421	-0,05
244,888	-0,05
245,356	-0,06
245,824	-0,06
246,291	-0,07
246,759	-0,08
247,227	-0,09
247,694	-0,08
248,162	-0,08
248,629	-0,07
249,097	-0,07
249,564	-0,08
250,032	-0,09
250,499	-0,08
250,967	-0,09
251,434	-0,09
251,901	-0,08
252,369	-0,08
252,836	-0,09
253,303	-0,1
253,77	-0,12
254,237	-0,11
254,705	-0,12
255,172	-0,11
255,639	-0,11
256,106	-0,12
256,573	-0,13
257,04	-0,13
257,507	-0,14
257,974	-0,15
258,441	-0,13
258,908	-0,14
259,375	-0,16
259,841	-0,16
260,308	-0,17
260,775	-0,17
261,242	-0,15
261,709	-0,16
262,175	-0,17
262,642	-0,16
263,109	-0,15
263,575	-0,17
264,042	-0,14
264,508	-0,14
264,975	-0,15
265,441	-0,16
265,908	-0,17
266,374	-0,16
266,841	-0,17
267,307	-0,16
267,773	-0,15
268,24	-0,15
268,706	-0,15
269,172	-0,17
269,639	-0,18
270,105	-0,16
270,571	-0,16
271,037	-0,16
271,503	-0,17
271,969	-0,16
272,435	-0,17
272,902	-0,19
273,368	-0,21
273,834	-0,2
274,3	-0,2
274,765	-0,2
275,231	-0,2
275,697	-0,19
276,163	-0,19
276,629	-0,2
277,095	-0,2
277,56	-0,19
278,026	-0,19
278,492	-0,17
278,958	-0,17
279,423	-0,18
279,889	-0,17
280,354	-0,17
280,82	-0,17
281,286	-0,18
281,751	-0,18
282,217	-0,17
282,682	-0,18
283,147	-0,18
283,613	-0,19
284,078	-0,19
284,544	-0,2
285,009	-0,22
285,474	-0,22
285,939	-0,23
286,405	-0,22
286,87	-0,22
287,335	-0,21
287,8	-0,21
288,265	-0,2
288,73	-0,21
289,195	-0,23
289,66	-0,22
290,125	-0,2
290,59	-0,2
291,055	-0,2
291,52	-0,2
291,985	-0,2
292,45	-0,21
292,915	-0,21
293,38	-0,21
293,844	-0,2
294,309	-0,19
294,774	-0,18
295,239	-0,19
295,703	-0,2
296,168	-0,18
296,632	-0,18
297,097	-0,16
297,562	-0,15
298,026	-0,15
298,491	-0,15
298,955	-0,15
299,419	-0,14
299,884	-0,15
300,348	-0,13
300,813	-0,12
301,277	-0,13
301,741	-0,13
302,205	-0,13
302,67	-0,12
303,134	-0,12
303,598	-0,12
304,062	-0,11
304,526	-0,1
304,99	-0,11
305,454	-0,11
305,919	-0,11
306,383	-0,11
306,847	-0,1
307,31	-0,11
307,774	-0,12
308,238	-0,11
308,702	-0,1
309,166	-0,11
309,63	-0,11
310,094	-0,08
310,557	-0,08
311,021	-0,07
311,485	-0,07
311,948	-0,07
312,412	-0,07
312,876	-0,06
313,339	-0,07
313,803	-0,08
314,266	-0,08
314,73	-0,08
315,193	-0,09
315,657	-0,08
316,12	-0,08
316,584	-0,07
317,047	-0,07
317,51	-0,06
317,973	-0,06
318,437	-0,04
318,9	-0,03
319,363	-0,02
319,826	-0,01
320,29	-0,02
320,753	-0,02
321,216	-0,02
321,679	-0,02
322,142	-0,01
322,605	-0,03
323,068	-0,03
323,531	-0,03
323,994	-0,03
324,457	-0,03
324,92	-0,02
325,382	-0,01
325,845	-0,01
326,308	-0,01
326,771	-0,01
327,233	0
327,696	0,01
328,159	0,02
328,622	0,03
329,084	0,03
329,547	0,04
330,009	0,03
330,472	0,04
330,934	0,05
331,397	0,05
331,859	0,06
332,322	0,07
332,784	0,07
333,246	0,09
333,709	0,08
334,171	0,09
334,633	0,1
335,096	0,09
335,558	0,1
336,02	0,1
336,482	0,11
336,944	0,11
337,406	0,12
337,868	0,13
338,331	0,12
338,793	0,13
339,255	0,13
339,717	0,14
340,178	0,15
340,64	0,16
341,102	0,16
341,564	0,17
342,026	0,18
342,488	0,19
342,949	0,19
343,411	0,22
343,873	0,26
344,335	0,3
344,796	0,34
345,258	0,39
345,719	0,44
346,181	0,5
346,643	0,55
347,104	0,59
347,566	0,63
348,027	0,66
348,488	0,69
348,95	0,71
349,411	0,74
349,873	0,77
350,334	0,79
350,795	0,81
351,256	0,83
351,718	0,84
352,179	0,84
352,64	0,85
353,101	0,85
353,562	0,86
354,023	0,86
354,484	0,86
354,945	0,87
355,406	0,87
355,867	0,87
356,328	0,88
356,789	0,89
357,25	0,89
357,711	0,89
358,172	0,89
358,633	0,9
359,093	0,9
359,554	0,9
360,015	0,9
360,476	0,9
360,936	0,9
361,397	0,9
361,858	0,9
362,318	0,9
362,779	0,9
363,239	0,9
363,7	0,9
364,16	0,9
364,621	0,91
365,081	0,91
365,541	0,91
366,002	0,9
366,462	0,9
366,922	0,9
367,383	0,9
367,843	0,9
368,303	0,9
368,763	0,9
369,223	0,91
369,684	0,91
370,144	0,91
370,604	0,91
371,064	0,91
371,524	0,91
371,984	0,91
372,444	0,91
372,904	0,9
373,363	0,9
373,823	0,9
374,283	0,9
374,743	0,9
375,203	0,9
375,663	0,9
376,122	0,9
376,582	0,9
377,042	0,9
377,501	0,9
377,961	0,9
378,42	0,9
378,88	0,9
379,34	0,9
379,799	0,9
380,259	0,9
380,718	0,9
381,177	0,9
381,637	0,9
382,096	0,9
382,555	0,9
383,015	0,9
383,474	0,9
383,933	0,9
384,393	0,9
384,852	0,89
385,311	0,9
385,77	0,89
386,229	0,89
386,688	0,89
387,147	0,89
387,606	0,89
388,065	0,89
388,524	0,89
388,983	0,89
389,442	0,89
389,901	0,89
390,36	0,89
390,819	0,89
391,277	0,89
391,736	0,89
392,195	0,89
392,654	0,89
393,112	0,89
393,571	0,89
394,03	0,89
394,488	0,89
394,947	0,89
395,405	0,89
395,864	0,89
396,322	0,89
396,781	0,89
397,239	0,89
397,698	0,89
398,156	0,89
398,614	0,89
399,073	0,89
399,531	0,89
399,989	0,89
400,447	0,89
400,905	0,88
401,364	0,88
401,822	0,88
402,28	0,88
402,738	0,88
403,196	0,88
403,654	0,88
404,112	0,88
404,57	0,88
405,028	0,88
405,486	0,88
405,944	0,88
406,402	0,88
406,859	0,88
407,317	0,88
407,775	0,88
408,233	0,88
408,691	0,88
409,148	0,88
409,606	0,88
410,064	0,88
410,521	0,88
410,979	0,88
411,436	0,88
411,894	0,88
412,351	0,88
412,809	0,88
413,266	0,88
413,724	0,88
414,181	0,88
414,638	0,88
415,096	0,88
415,553	0,88
416,01	0,88
416,467	0,88
416,925	0,87
417,382	0,88
417,839	0,87
418,296	0,87
418,753	0,87
419,21	0,87
419,667	0,87
420,124	0,87
420,581	0,87
421,038	0,87
421,495	0,87
421,952	0,87
422,409	0,87
422,866	0,87
423,322	0,87
423,779	0,87
424,236	0,87
424,693	0,87
425,149	0,87
425,606	0,87
426,063	0,88
426,519	0,87
426,976	0,87
427,433	0,87
427,889	0,87
428,346	0,87
428,802	0,87
429,258	0,87
429,715	0,87
430,171	0,87
430,628	0,87
431,084	0,87
431,54	0,87
431,997	0,87
432,453	0,87
432,909	0,87
433,365	0,87
433,821	0,87
434,277	0,87
434,734	0,87
435,19	0,87
435,646	0,87
436,102	0,87
436,558	0,87
437,014	0,87
437,47	0,87
437,925	0,87
438,381	0,87
438,837	0,87
439,293	0,87
439,749	0,87
440,205	0,87
440,66	0,87
441,116	0,87
441,572	0,87
442,027	0,87
442,483	0,87
442,939	0,87
443,394	0,87
443,85	0,87
444,305	0,87
444,761	0,87
445,216	0,87
445,672	0,87
446,127	0,87
446,582	0,87
447,038	0,88
447,493	0,88
447,948	0,88
448,403	0,88
448,859	0,88
449,314	0,88
449,769	0,88
450,224	0,88
450,679	0,88
451,134	0,88
451,589	0,88
452,044	0,88
452,499	0,88
452,954	0,88
453,409	0,88
453,864	0,88
454,319	0,88
454,774	0,88
455,229	0,88
455,684	0,88
456,138	0,88
456,593	0,88
457,048	0,88
457,503	0,88
457,957	0,88
458,412	0,88
458,866	0,88
459,321	0,88
459,776	0,89
460,23	0,89
460,685	0,89
461,139	0,89
461,593	0,89
462,048	0,89
462,502	0,89
462,957	0,89
463,411	0,89
463,865	0,89
464,319	0,9
464,774	0,9
465,228	0,9
465,682	0,9
466,136	0,9
466,59	0,9
467,044	0,9
467,499	0,9
467,953	0,9
468,407	0,9
468,861	0,9
469,315	0,9
469,768	0,91
470,222	0,91
470,676	0,91
471,13	0,91
471,584	0,91
472,038	0,91
472,491	0,91
472,945	0,91
473,399	0,91
473,852	0,92
474,306	0,92
474,76	0,92
475,213	0,92
475,667	0,92
476,12	0,92
476,574	0,92
477,027	0,93
477,481	0,93
477,934	0,93
478,388	0,93
478,841	0,93
479,294	0,94
479,748	0,94
480,201	0,94
480,654	0,94
481,107	0,94
481,561	0,94
482,014	0,95
482,467	0,95
482,92	0,95
483,373	0,95
483,826	0,95
484,279	0,96
484,732	0,96
485,185	0,96
485,638	0,96
486,091	0,97
486,544	0,97
486,997	0,97
487,449	0,97
487,902	0,98
488,355	0,98
488,808	0,98
489,26	0,98
489,713	0,99
490,166	0,99
490,618	0,99
491,071	1
491,523	1
491,976	1
492,429	1,01
492,881	1,01
493,333	1,01
493,786	1,02
494,238	1,02
494,691	1,03
495,143	1,03
495,595	1,03
496,048	1,04
496,5	1,04
496,952	1,05
497,404	1,05
497,856	1,05
498,309	1,06
498,761	1,06
499,213	1,07
499,665	1,07
500,117	1,07
500,569	1,08
501,021	1,08
501,473	1,09
501,925	1,09
502,377	1,1
502,828	1,1
503,28	1,11
503,732	1,11
504,184	1,11
504,636	1,12
505,087	1,12
505,539	1,13
505,991	1,13
506,442	1,14
506,894	1,14
507,345	1,15
507,797	1,15
508,249	1,16
508,7	1,16
509,151	1,17
509,603	1,17
510,054	1,17
510,506	1,18
510,957	1,18
511,408	1,19
511,86	1,19
512,311	1,19
512,762	1,2
513,213	1,2
513,665	1,2
514,116	1,21
514,567	1,21
515,018	1,22
515,469	1,22
515,92	1,22
516,371	1,23
516,822	1,23
517,273	1,23
517,724	1,24
518,175	1,24
518,626	1,24
519,076	1,24
519,527	1,25
519,978	1,25
520,429	1,25
520,88	1,25
521,33	1,26
521,781	1,26
522,232	1,26
522,682	1,26
523,133	1,26
523,583	1,27
524,034	1,27
524,484	1,27
524,935	1,27
525,385	1,27
525,836	1,27
526,286	1,27
526,736	1,27
527,187	1,27
527,637	1,27
528,087	1,27
528,538	1,27
528,988	1,27
529,438	1,27
529,888	1,26
530,338	1,26
530,788	1,26
531,238	1,26
531,688	1,26
532,139	1,25
532,589	1,25
533,038	1,25
533,488	1,25
533,938	1,25
534,388	1,24
534,838	1,24
535,288	1,24
535,738	1,23
536,187	1,23
536,637	1,22
537,087	1,22
537,537	1,22
537,986	1,21
538,436	1,21
538,885	1,2
539,335	1,19
539,785	1,19
540,234	1,18
540,684	1,18
541,133	1,17
541,582	1,17
542,032	1,16
542,481	1,16
542,931	1,15
543,38	1,14
543,829	1,14
544,278	1,13
544,728	1,12
545,177	1,12
545,626	1,11
546,075	1,11
546,524	1,1
546,973	1,1
547,422	1,09
547,871	1,09
548,32	1,08
548,769	1,08
549,218	1,08
549,667	1,08
550,116	1,07
550,565	1,07
551,014	1,06
551,463	1,06
551,911	1,05
552,36	1,05
552,809	1,04
553,258	1,04
553,706	1,03
554,155	1,03
554,603	1,02
555,052	1,02
555,501	1,01
555,949	1,01
556,398	1
556,846	0,99
557,294	0,99
557,743	0,98
558,191	0,98
558,64	0,97
559,088	0,97
559,536	0,96
559,985	0,96
560,433	0,95
560,881	0,95
561,329	0,94
561,777	0,94
562,225	0,93
562,674	0,93
563,122	0,92
563,57	0,92
564,018	0,91
564,466	0,91
564,914	0,9
565,362	0,9
565,809	0,89
566,257	0,89
566,705	0,88
567,153	0,88
567,601	0,87
568,048	0,87
568,496	0,86
568,944	0,86
569,392	0,85
569,839	0,85
570,287	0,84
570,734	0,84
571,182	0,84
571,63	0,83
572,077	0,83
572,525	0,82
572,972	0,82
573,419	0,81
573,867	0,81
574,314	0,81
574,761	0,8
575,209	0,8
575,656	0,79
576,103	0,79
576,551	0,79
576,998	0,78
577,445	0,78
577,892	0,78
578,339	0,77
578,786	0,77
579,233	0,76
579,68	0,76
580,127	0,76
580,574	0,75
581,021	0,75
581,468	0,75
581,915	0,74
582,362	0,74
582,809	0,74
583,255	0,73
583,702	0,73
584,149	0,73
584,596	0,73
585,042	0,72
585,489	0,72
585,936	0,71
586,382	0,71
586,829	0,71
587,275	0,71
587,722	0,71
588,168	0,7
588,615	0,7
589,061	0,7
589,508	0,69
589,954	0,69
590,4	0,69
590,847	0,69
591,293	0,69
591,739	0,68
592,185	0,68
592,632	0,68
593,078	0,68
593,524	0,68
593,97	0,68
594,416	0,67
594,862	0,67
595,308	0,67
595,754	0,67
596,2	0,67
596,646	0,66
597,092	0,66
597,538	0,66
597,984	0,66
598,43	0,66
598,876	0,65
599,321	0,65
599,767	0,65
600,213	0,65
600,659	0,65
601,104	0,65
601,55	0,64
601,995	0,64
602,441	0,64
602,887	0,64
603,332	0,64
603,778	0,64
604,223	0,64
604,668	0,63
605,114	0,63
605,559	0,63
606,005	0,63
606,45	0,63
606,895	0,63
607,341	0,63
607,786	0,63
608,231	0,62
608,676	0,62
609,121	0,61
609,566	0,6
610,012	0,6
610,457	0,59
610,902	0,59
611,347	0,58
611,792	0,58
612,237	0,58
612,682	0,58
613,127	0,58
613,571	0,58
614,016	0,58
614,461	0,59
614,906	0,59
615,351	0,59
615,795	0,59
616,24	0,59
616,685	0,59
617,129	0,59
617,574	0,59
618,019	0,59
618,463	0,59
618,908	0,59
619,352	0,59
619,797	0,59
620,241	0,59
620,686	0,59
621,13	0,59
621,574	0,59
622,019	0,59
622,463	0,59
622,907	0,58
623,352	0,58
623,796	0,58
624,24	0,58
624,684	0,58
625,128	0,58
625,572	0,58
626,016	0,58
626,461	0,58
626,905	0,58
627,349	0,58
627,793	0,58
628,236	0,58
628,68	0,58
629,124	0,57
629,568	0,57
630,012	0,57
630,456	0,57
630,9	0,57
631,343	0,57
631,787	0,57
632,231	0,57
632,674	0,57
633,118	0,57
633,562	0,57
634,005	0,57
634,449	0,57
634,892	0,57
635,336	0,57
635,779	0,57
636,223	0,57
636,666	0,57
637,109	0,57
637,553	0,57
637,996	0,57
638,439	0,57
638,883	0,56
639,326	0,56
639,769	0,56
640,212	0,56
640,655	0,56
641,099	0,56
641,542	0,56
641,985	0,56
642,428	0,56
642,871	0,56
643,314	0,56
643,757	0,56
644,2	0,56
644,643	0,56
645,085	0,56
645,528	0,56
645,971	0,56
646,414	0,56
646,857	0,55
647,299	0,55
647,742	0,55
648,185	0,55
648,627	0,55
649,07	0,55
649,513	0,55
649,955	0,55
650,398	0,55
650,84	0,55
651,283	0,55
651,725	0,55
652,168	0,55
652,61	0,55
653,052	0,55
653,495	0,54
653,937	0,46
654,379	0,4
654,821	0,41
655,264	0,41
655,706	0,41
656,148	0,41
656,59	0,41
657,032	0,41
657,474	0,41
657,916	0,41
658,358	0,4
658,8	0,46
659,242	0,55
659,684	0,55
660,126	0,55
660,568	0,55
661,01	0,55
661,452	0,55
661,894	0,54
662,335	0,54
662,777	0,54
663,219	0,54
663,661	0,54
664,102	0,54
664,544	0,54
664,985	0,54
665,427	0,54
665,869	0,54
666,31	0,54
666,752	0,54
667,193	0,54
667,634	0,54
668,076	0,54
668,517	0,54
668,959	0,54
669,4	0,54
669,841	0,54
670,282	0,54
670,724	0,54
671,165	0,54
671,606	0,54
672,047	0,54
672,488	0,54
672,929	0,54
673,37	0,54
673,811	0,54
674,252	0,53
674,693	0,53
675,134	0,53
675,575	0,53
676,016	0,53
676,457	0,53
676,898	0,53
677,339	0,53
677,78	0,53
678,22	0,53
678,661	0,53
679,102	0,53
679,542	0,54
679,983	0,54
680,424	0,54
680,864	0,54
681,305	0,54
681,745	0,54
682,186	0,54
682,626	0,54
683,067	0,54
683,507	0,54
683,948	0,54
684,388	0,54
684,828	0,54
685,269	0,54
685,709	0,53
686,149	0,53
686,589	0,53
687,029	0,53
687,47	0,53
687,91	0,53
688,35	0,53
688,79	0,53
689,23	0,53
689,67	0,53
690,11	0,53
690,55	0,53
690,99	0,53
691,43	0,53
691,87	0,52
692,31	0,52
692,749	0,52
693,189	0,52
693,629	0,52
694,069	0,52
694,508	0,52
694,948	0,52
695,388	0,52
695,827	0,52
696,267	0,52
696,706	0,52
697,146	0,52
697,586	0,52
698,025	0,53
698,464	0,53
698,904	0,53
699,343	0,53
699,783	0,53
700,222	0,53
700,661	0,53
701,101	0,53
701,54	0,53
701,979	0,53
702,418	0,53
702,857	0,53
703,297	0,53
703,736	0,53
704,175	0,53
704,614	0,53
705,053	0,53
705,492	0,53
705,931	0,53
706,37	0,52
706,809	0,52
707,248	0,52
707,687	0,52
708,125	0,52
708,564	0,52
709,003	0,52
709,442	0,52
709,88	0,52
710,319	0,51
710,758	0,51
711,196	0,51
711,635	0,51
712,074	0,51
712,512	0,52
712,951	0,52
713,389	0,52
713,828	0,51
714,266	0,51
714,705	0,51
715,143	0,51
715,581	0,51
716,02	0,51
716,458	0,51
716,896	0,51
717,334	0,51
717,773	0,51
718,211	0,51
718,649	0,51
719,087	0,52
719,525	0,52
719,963	0,52
720,401	0,52
720,839	0,52
721,277	0,51
721,715	0,51
722,153	0,51
722,591	0,51
723,029	0,51
723,467	0,51
723,905	0,51
724,342	0,51
724,78	0,51
725,218	0,51
725,656	0,51
726,093	0,51
726,531	0,51
726,969	0,51
727,406	0,51
727,844	0,51
728,281	0,51
728,719	0,51
729,156	0,51
729,594	0,51
730,031	0,51
730,469	0,51
730,906	0,51
731,343	0,51
731,781	0,5
732,218	0,5
732,655	0,5
733,092	0,5
733,53	0,5
733,967	0,5
734,404	0,5
734,841	0,5
735,278	0,5
735,715	0,5
736,152	0,5
736,589	0,5
737,026	0,5
737,463	0,5
737,9	0,5
738,337	0,5
738,774	0,5
739,211	0,5
739,647	0,5
740,084	0,5
740,521	0,5
740,958	0,5
741,394	0,5
741,831	0,5
742,268	0,5
742,704	0,5
743,141	0,5
743,577	0,5
744,014	0,5
744,45	0,5
744,887	0,5
745,323	0,5
745,76	0,5
746,196	0,5
746,632	0,5
747,069	0,5
747,505	0,49
747,941	0,49
748,378	0,5
748,814	0,5
749,25	0,5
749,686	0,5
750,122	0,5
750,558	0,5
750,994	0,5
751,43	0,5
751,866	0,5
752,302	0,5
752,738	0,5
753,174	0,5
753,61	0,5
754,046	0,49
754,482	0,49
754,918	0,49
755,354	0,49
755,789	0,49
756,225	0,49
756,661	0,49
757,096	0,49
757,532	0,48
757,968	0,48
758,403	0,48
758,839	0,48
759,274	0,47
759,71	0,47
760,145	0,46
760,581	0,46
761,016	0,45
761,452	0,45
761,887	0,44
762,322	0,44
762,758	0,43
763,193	0,43
763,628	0,42
764,063	0,42
764,499	0,41
764,934	0,4
765,369	0,39
765,804	0,39
766,239	0,38
766,674	0,37
767,109	0,36
767,544	0,35
767,979	0,34
768,414	0,33
768,849	0,32
769,284	0,32
769,719	0,31
770,154	0,3
770,588	0,29
771,023	0,28
771,458	0,26
771,893	0,25
772,327	0,23
772,762	0,22
773,197	0,21
773,631	0,2
774,066	0,18
774,5	0,18
774,935	0,16
775,369	0,15
775,804	0,14
776,238	0,13
776,673	0,13
777,107	0,12
777,541	0,11
777,976	0,1
778,41	0,09
778,844	0,08
779,279	0,07
779,713	0,06
780,147	0,05
780,581	0,04
781,015	0,03
781,449	0,02
781,883	0,02
782,317	-0,01
782,751	-0,02
783,185	-0,02
783,619	-0,03
784,053	-0,04
784,487	-0,05
784,921	-0,05
785,355	-0,06
785,789	-0,07
786,223	-0,08
786,656	-0,09
787,09	-0,09
787,524	-0,1
787,957	-0,11
788,391	-0,14
788,825	-0,15
789,258	-0,17
789,692	-0,19
790,125	-0,21
790,559	-0,23
790,992	-0,25
791,426	-0,27
791,859	-0,29
792,293	-0,31
792,726	-0,33
793,159	-0,35
793,593	-0,37
794,026	-0,39
794,459	-0,42
794,892	-0,45
795,326	-0,47
795,759	-0,51
796,192	-0,55
796,625	-0,6
797,058	-0,62
797,491	-0,67
797,924	-0,7
798,357	-0,75
798,79	-0,79
799,223	-0,83
799,656	-0,89
800,089	-0,93
800,522	-0,97
800,955	-1,02
801,387	-1,07
801,82	-1,13
802,253	-1,19
802,686	-1,27
803,118	-1,33
803,551	-1,38
803,984	-1,42
804,416	-1,46
804,849	-1,49
805,281	-1,59
805,714	-1,94
806,146	-2,41
806,579	-2,68
807,011	-2,85
807,444	-2,95
807,876	-3,05
808,308	-3,09
808,741	-3,12
809,173	-3,17
809,605	-3,19
810,037	-3,27
810,47	-3,19
810,902	-3
811,334	-2,86
811,766	-2,71
812,198	-2,49
812,63	-2,04
813,062	-1,8
813,494	-1,69
813,926	-1,6
814,358	-1,55
814,79	-1,47
815,222	-1,41
815,654	-1,36
816,086	-1,3
816,518	-1,24
816,949	-1,19
817,381	-1,15
817,813	-1,13
818,245	-1,09
818,676	-1,05
819,108	-1,01
819,54	-1
819,971	-0,97
820,403	-0,92
820,834	-0,91
821,266	-0,87
821,697	-0,84
822,129	-0,83
822,56	-0,8
822,991	-0,78
823,423	-0,76
823,854	-0,75
824,286	-0,72
824,717	-0,71
825,148	-0,69
825,579	-0,69
826,01	-0,67
826,442	-0,66
826,873	-0,64
827,304	-0,61
827,735	-0,6
828,166	-0,6
828,597	-0,6
829,028	-0,6
829,459	-0,6
829,89	-0,6
830,321	-0,55
830,752	-0,57
831,183	-0,56
831,613	-0,56
832,044	-0,56
832,475	-0,54
832,906	-0,56
833,336	-0,56
833,767	-0,57
834,198	-0,56
834,628	-0,54
835,059	-0,57
835,49	-0,58
835,92	-0,55
836,351	-0,55
836,781	-0,55
837,212	-0,56
837,642	-0,56
838,072	-0,54
838,503	-0,54
838,933	-0,51
839,364	-0,52
839,794	-0,5
840,224	-0,48
840,654	-0,52
841,085	-0,53
841,515	-0,51
841,945	-0,52
842,375	-0,48
842,805	-0,47
843,235	-0,46
843,665	-0,47
844,095	-0,46
844,525	-0,48
844,955	-0,49
845,385	-0,47
845,815	-0,44
846,245	-0,46
846,675	-0,47
847,105	-0,48
847,534	-0,48
847,964	-0,46
848,394	-0,45
848,824	-0,49
849,253	-0,48
849,683	-0,48
850,112	-0,49
850,542	-0,52
850,972	-0,52
851,401	-0,5
851,831	-0,47
852,26	-0,48
852,69	-0,53
853,119	-0,51
853,548	-0,52
853,978	-0,52
854,407	-0,51
854,836	-0,51
855,266	-0,51
855,695	-0,53
856,124	-0,54
856,553	-0,55
856,983	-0,57
857,412	-0,56
857,841	-0,57
858,27	-0,57
858,699	-0,58
859,128	-0,61
859,557	-0,61
859,986	-0,62
860,415	-0,6
860,844	-0,58
861,273	-0,58
861,702	-0,6
862,13	-0,58
862,559	-0,6
862,988	-0,57
863,417	-0,55
863,845	-0,56
864,274	-0,56
864,703	-0,56
865,131	-0,57
865,56	-0,58
865,989	-0,61
866,417	-0,57
866,846	-0,57
867,274	-0,56
867,703	-0,58
868,131	-0,6
868,559	-0,6
868,988	-0,62
869,416	-0,61
869,844	-0,62
870,273	-0,64
870,701	-0,62
871,129	-0,64
871,557	-0,68
871,986	-0,68
872,414	-0,69
872,842	-0,66
873,27	-0,65
873,698	-0,61
874,126	-0,65
874,554	-0,63
874,982	-0,63
875,41	-0,65
875,838	-0,61
876,266	-0,58
876,694	-0,59
877,122	-0,57
877,549	-0,63
877,977	-0,6
878,405	-0,63
878,833	-0,6
879,26	-0,59
879,688	-0,59
880,116	-0,57
880,543	-0,54
880,971	-0,54
881,399	-0,56
881,826	-0,58
882,254	-0,55
882,681	-0,58
883,109	-0,53
883,536	-0,54
883,963	-0,56
884,391	-0,55
884,818	-0,53
885,245	-0,56
885,673	-0,58
886,1	-0,55
886,527	-0,53
886,954	-0,5
887,381	-0,51
887,809	-0,53
888,236	-0,54
888,663	-0,55
889,09	-0,59
889,517	-0,62
889,944	-0,62
890,371	-0,6
890,798	-0,62
891,225	-0,62
891,652	-0,65
892,078	-0,64
892,505	-0,66
892,932	-0,62
893,359	-0,63
893,786	-0,62
894,212	-0,6
894,639	-0,61
895,066	-0,63
895,492	-0,57
895,919	-0,58
896,346	-0,58
896,772	-0,58
897,199	-0,55
897,625	-0,58
898,052	-0,55
898,478	-0,53
898,904	-0,54
899,331	-0,53
899,757	-0,55
900,183	-0,57
900,61	-0,56
901,036	-0,55
901,462	-0,55
901,888	-0,54
902,315	-0,52
902,741	-0,58
903,167	-0,56
903,593	-0,59
904,019	-0,58
904,445	-0,56
904,871	-0,59
905,297	-0,6
905,723	-0,6
906,149	-0,59
906,575	-0,6
907,001	-0,6
907,427	-0,57
907,852	-0,56
908,278	-0,56
908,704	-0,54
909,13	-0,52
909,555	-0,51
909,981	-0,51
910,407	-0,51
910,832	-0,51
911,258	-0,51
911,684	-0,51
912,109	-0,52
912,535	-0,55
912,96	-0,51
913,386	-0,55
913,811	-0,55
914,236	-0,57
914,662	-0,55
915,087	-0,58
915,512	-0,58
915,938	-0,61
916,363	-0,6
916,788	-0,61
917,213	-0,59
917,639	-0,64
918,064	-0,6
918,489	-0,61
918,914	-0,61
919,339	-0,62
919,764	-0,59
920,189	-0,59
920,614	-0,6
921,039	-0,6
921,464	-0,56
921,889	-0,58
922,314	-0,59
922,738	-0,62
923,163	-0,63
923,588	-0,63
924,013	-0,62
924,437	-0,62
924,862	-0,64
925,287	-0,6
925,711	-0,61
926,136	-0,62
926,561	-0,61
926,985	-0,6
927,41	-0,57
927,834	-0,54
928,259	-0,51
928,683	-0,49
929,108	-0,47
929,532	-0,47
929,956	-0,47
930,381	-0,47
930,805	-0,46
931,229	-0,45
931,653	-0,43
932,078	-0,44
932,502	-0,45
932,926	-0,46
933,35	-0,47
933,774	-0,46
934,198	-0,43
934,622	-0,42
935,046	-0,41
935,47	-0,41
935,894	-0,41
936,318	-0,41
936,742	-0,41
937,166	-0,42
937,59	-0,4
938,014	-0,42
938,437	-0,42
938,861	-0,44
939,285	-0,45
939,709	-0,44
940,132	-0,45
940,556	-0,45
940,98	-0,46
941,403	-0,44
941,827	-0,45
942,25	-0,46
942,674	-0,45
943,097	-0,44
943,521	-0,45
943,944	-0,48
944,368	-0,47
944,791	-0,46
945,214	-0,48
945,638	-0,48
946,061	-0,51
946,484	-0,53
946,907	-0,52
947,331	-0,51
947,754	-0,55
948,177	-0,52
948,6	-0,52
949,023	-0,51
949,446	-0,52
949,869	-0,5
950,292	-0,49
950,715	-0,46
951,138	-0,44
951,561	-0,42
951,984	-0,43
952,407	-0,41
952,83	-0,4
953,252	-0,36
953,675	-0,36
954,098	-0,37
954,521	-0,35
954,943	-0,35
955,366	-0,35
955,789	-0,33
956,211	-0,35
956,634	-0,36
957,056	-0,33
957,479	-0,33
957,902	-0,36
958,324	-0,36
958,746	-0,34
959,169	-0,35
959,591	-0,35
960,014	-0,37
960,436	-0,37
960,858	-0,36
961,281	-0,36
961,703	-0,37
962,125	-0,37
962,547	-0,35
962,969	-0,35
963,391	-0,36
963,814	-0,37
964,236	-0,36
964,658	-0,33
965,08	-0,34
965,502	-0,33
965,924	-0,3
966,346	-0,3
966,768	-0,29
967,189	-0,32
967,611	-0,31
968,033	-0,31
968,455	-0,29
968,877	-0,29
969,298	-0,31
969,72	-0,31
970,142	-0,31
970,563	-0,32
970,985	-0,31
971,407	-0,3
971,828	-0,27
972,25	-0,26
972,671	-0,25
973,093	-0,25
973,514	-0,23
973,936	-0,21
974,357	-0,2
974,778	-0,2
975,2	-0,19
975,621	-0,18
976,042	-0,17
976,464	-0,16
976,885	-0,15
977,306	-0,15
977,727	-0,14
978,148	-0,14
978,57	-0,12
978,991	-0,11
979,412	-0,09
979,833	-0,08
980,254	-0,08
980,675	-0,08
981,096	-0,07
981,517	-0,05
981,937	-0,05
982,358	-0,03
982,779	-0,01
983,2	-0,01
983,621	-0
984,042	0,01
984,462	0,03
984,883	0,05
985,304	0,07
985,724	0,08
986,145	0,09
986,565	0,11
986,986	0,12
987,407	0,14
987,827	0,15
988,248	0,17
988,668	0,18
989,088	0,19
989,509	0,2
989,929	0,21
990,35	0,22
990,77	0,24
991,19	0,25
991,61	0,26
992,031	0,27
992,451	0,29
992,871	0,3
993,291	0,31
993,711	0,32
994,131	0,33
994,551	0,34
994,971	0,35
995,391	0,36
995,811	0,36
996,231	0,37
996,651	0,38
997,071	0,39
997,491	0,39
997,911	0,4
998,331	0,41
998,75	0,42
999,17	0,43
999,59	0,43
1000,009	0,44
1000,429	0,44
1000,849	0,45
1001,268	0,46
1001,688	0,46
1002,107	0,46
1002,527	0,47
1002,946	0,47
1003,366	0,47
1003,785	0,48
1004,205	0,48
1004,624	0,48
1005,044	0,49
1005,463	0,49
1005,882	0,49
1006,301	0,49
1006,721	0,5
1007,14	0,5
1007,559	0,5
1007,978	0,5
1008,397	0,5
1008,816	0,5
1009,235	0,5
1009,655	0,5
1010,074	0,5
1010,492	0,5
1010,911	0,5
1011,33	0,5
1011,749	0,5
1012,168	0,5
1012,587	0,5
1013,006	0,5
1013,425	0,5
1013,843	0,5
1014,262	0,49
1014,681	0,49
1015,099	0,49
1015,518	0,49
1015,937	0,49
1016,355	0,49
1016,774	0,49
1017,192	0,49
1017,611	0,49
1018,029	0,49
1018,448	0,49
1018,866	0,49
1019,285	0,49
1019,703	0,49
1020,121	0,49
1020,54	0,49
1020,958	0,49
1021,376	0,49
1021,794	0,49
1022,213	0,49
1022,631	0,49
1023,049	0,49
1023,467	0,49
1023,885	0,49
1024,303	0,49
1024,721	0,49
1025,139	0,48
1025,557	0,48
1025,975	0,48
1026,393	0,48
1026,811	0,48
1027,229	0,48
1027,647	0,48
1028,065	0,48
1028,482	0,48
1028,9	0,48
1029,318	0,48
1029,735	0,47
1030,153	0,47
1030,571	0,47
1030,988	0,47
1031,406	0,47
1031,823	0,47
1032,241	0,47
1032,659	0,47
1033,076	0,48
1033,493	0,48
1033,911	0,48
1034,328	0,48
1034,746	0,48
1035,163	0,48
1035,58	0,48
1035,997	0,48
1036,415	0,48
1036,832	0,48
1037,249	0,48
1037,666	0,47
1038,083	0,47
1038,501	0,47
1038,918	0,47
1039,335	0,47
1039,752	0,47
1040,169	0,47
1040,586	0,47
1041,003	0,47
1041,419	0,47
1041,836	0,47
1042,253	0,47
1042,67	0,47
1043,087	0,47
1043,504	0,48
1043,92	0,47
1044,337	0,47
1044,754	0,47
1045,17	0,47
1045,587	0,47
1046,004	0,47
1046,42	0,47
1046,837	0,47
1047,253	0,47
1047,67	0,47
1048,086	0,47
1048,503	0,47
1048,919	0,47
1049,335	0,47
1049,752	0,47
1050,168	0,47
1050,584	0,47
1051,001	0,47
1051,417	0,47
1051,833	0,48
1052,249	0,48
1052,665	0,48
1053,081	0,48
1053,497	0,48
1053,914	0,48
1054,33	0,48
1054,746	0,48
1055,162	0,49
1055,578	0,49
1055,993	0,49
1056,409	0,49
1056,825	0,49
1057,241	0,49
1057,657	0,49
1058,073	0,49
1058,488	0,49
1058,904	0,49
1059,32	0,49
1059,736	0,49
1060,151	0,49
1060,567	0,49
1060,982	0,49
1061,398	0,49
1061,813	0,49
1062,229	0,49
1062,644	0,49
1063,06	0,49
1063,475	0,49
1063,891	0,49
1064,306	0,49
1064,721	0,49
1065,137	0,49
1065,552	0,48
1065,967	0,48
1066,382	0,48
1066,798	0,48
1067,213	0,48
1067,628	0,48
1068,043	0,48
1068,458	0,48
1068,873	0,48
1069,288	0,48
1069,703	0,48
1070,118	0,48
1070,533	0,48
1070,948	0,48
1071,363	0,48
1071,778	0,49
1072,193	0,49
1072,607	0,49
1073,022	0,49
1073,437	0,49
1073,852	0,49
1074,266	0,49
1074,681	0,49
1075,096	0,49
1075,51	0,48
1075,925	0,48
1076,339	0,48
1076,754	0,48
1077,168	0,48
1077,583	0,48
1077,997	0,48
1078,412	0,48
1078,826	0,48
1079,24	0,48
1079,655	0,48
1080,069	0,48
1080,483	0,48
1080,897	0,47
1081,312	0,47
1081,726	0,47
1082,14	0,47
1082,554	0,47
1082,968	0,47
1083,382	0,47
1083,796	0,47
1084,21	0,47
1084,624	0,46
1085,038	0,46
1085,452	0,46
1085,866	0,46
1086,28	0,46
1086,694	0,46
1087,108	0,46
1087,521	0,45
1087,935	0,45
1088,349	0,45
1088,763	0,45
1089,176	0,44
1089,59	0,44
1090,004	0,44
1090,417	0,43
1090,831	0,43
1091,244	0,43
1091,658	0,42
1092,071	0,42
1092,485	0,42
1092,898	0,41
1093,312	0,41
1093,725	0,41
1094,138	0,41
1094,552	0,4
1094,965	0,4
1095,378	0,4
1095,791	0,4
1096,205	0,39
1096,618	0,39
1097,031	0,39
1097,444	0,38
1097,857	0,38
1098,27	0,38
1098,683	0,37
1099,096	0,37
1099,509	0,36
1099,922	0,36
1100,335	0,36
1100,748	0,35
1101,161	0,34
1101,574	0,34
1101,986	0,34
1102,399	0,33
1102,812	0,33
1103,225	0,32
1103,637	0,32
1104,05	0,32
1104,463	0,32
1104,875	0,31
1105,288	0,31
1105,7	0,3
1106,113	0,3
1106,525	0,3
1106,938	0,29
1107,35	0,28
1107,763	0,28
1108,175	0,28
1108,588	0,27
1109	0,27
1109,412	0,26
1109,824	0,26
1110,237	0,26
1110,649	0,26
1111,061	0,26
