Data from 18C-808nm-8A-cont_Absorbance__523__01952.txt Node

Date: Mon Jul 17 17:38:23 CEST 2023
User: Laser008
Spectrometer: MAYP115816
Trigger mode: 0
Integration Time (sec): 2,500000E-1
Scans to average: 10
Electric dark correction enabled: true
Nonlinearity correction enabled: true
Boxcar width: 5
XAxis mode: Wavelengths
Number of Pixels in Spectrum: 2068
>>>>>Begin Spectral Data<<<<<
198,914	-0,69
199,384	-0,5
199,855	-0,36
200,325	-0,27
200,796	-0,24
201,266	-0,19
201,737	-0,17
202,207	-0,16
202,677	-0,16
203,147	-0,15
203,618	-0,12
204,088	-0,1
204,558	-0,08
205,028	-0,08
205,498	-0,08
205,968	-0,08
206,439	-0,1
206,909	-0,09
207,379	-0,1
207,849	-0,11
208,319	-0,11
208,789	-0,11
209,258	-0,11
209,728	-0,13
210,198	-0,13
210,668	-0,14
211,138	-0,13
211,608	-0,13
212,077	-0,13
212,547	-0,12
213,017	-0,12
213,486	-0,12
213,956	-0,13
214,426	-0,13
214,895	-0,13
215,365	-0,13
215,834	-0,13
216,304	-0,14
216,773	-0,15
217,243	-0,16
217,712	-0,18
218,181	-0,18
218,651	-0,18
219,12	-0,19
219,589	-0,19
220,058	-0,19
220,528	-0,19
220,997	-0,2
221,466	-0,21
221,935	-0,21
222,404	-0,2
222,873	-0,19
223,342	-0,18
223,812	-0,18
224,281	-0,18
224,749	-0,18
225,218	-0,19
225,687	-0,19
226,156	-0,18
226,625	-0,16
227,094	-0,16
227,563	-0,16
228,031	-0,18
228,5	-0,19
228,969	-0,19
229,438	-0,18
229,906	-0,16
230,375	-0,16
230,844	-0,16
231,312	-0,16
231,781	-0,17
232,249	-0,16
232,718	-0,16
233,186	-0,14
233,655	-0,14
234,123	-0,14
234,591	-0,14
235,06	-0,14
235,528	-0,15
235,996	-0,14
236,465	-0,14
236,933	-0,14
237,401	-0,13
237,869	-0,13
238,337	-0,12
238,805	-0,11
239,274	-0,11
239,742	-0,1
240,21	-0,1
240,678	-0,1
241,146	-0,09
241,614	-0,08
242,081	-0,08
242,549	-0,08
243,017	-0,08
243,485	-0,08
243,953	-0,1
244,421	-0,09
244,888	-0,09
245,356	-0,1
245,824	-0,09
246,291	-0,1
246,759	-0,11
247,227	-0,11
247,694	-0,1
248,162	-0,1
248,629	-0,09
249,097	-0,09
249,564	-0,11
250,032	-0,11
250,499	-0,11
250,967	-0,12
251,434	-0,12
251,901	-0,12
252,369	-0,13
252,836	-0,14
253,303	-0,15
253,77	-0,16
254,237	-0,16
254,705	-0,15
255,172	-0,15
255,639	-0,15
256,106	-0,16
256,573	-0,16
257,04	-0,16
257,507	-0,16
257,974	-0,16
258,441	-0,15
258,908	-0,15
259,375	-0,16
259,841	-0,16
260,308	-0,16
260,775	-0,16
261,242	-0,15
261,709	-0,15
262,175	-0,17
262,642	-0,16
263,109	-0,17
263,575	-0,18
264,042	-0,16
264,508	-0,17
264,975	-0,19
265,441	-0,2
265,908	-0,2
266,374	-0,2
266,841	-0,2
267,307	-0,2
267,773	-0,19
268,24	-0,19
268,706	-0,19
269,172	-0,2
269,639	-0,21
270,105	-0,2
270,571	-0,2
271,037	-0,21
271,503	-0,21
271,969	-0,21
272,435	-0,21
272,902	-0,23
273,368	-0,25
273,834	-0,24
274,3	-0,25
274,765	-0,25
275,231	-0,24
275,697	-0,24
276,163	-0,23
276,629	-0,23
277,095	-0,24
277,56	-0,24
278,026	-0,24
278,492	-0,21
278,958	-0,22
279,423	-0,22
279,889	-0,21
280,354	-0,22
280,82	-0,22
281,286	-0,24
281,751	-0,24
282,217	-0,23
282,682	-0,22
283,147	-0,22
283,613	-0,24
284,078	-0,24
284,544	-0,26
285,009	-0,25
285,474	-0,24
285,939	-0,25
286,405	-0,23
286,87	-0,22
287,335	-0,22
287,8	-0,22
288,265	-0,21
288,73	-0,21
289,195	-0,22
289,66	-0,22
290,125	-0,21
290,59	-0,22
291,055	-0,2
291,52	-0,21
291,985	-0,22
292,45	-0,23
292,915	-0,23
293,38	-0,22
293,844	-0,21
294,309	-0,2
294,774	-0,18
295,239	-0,19
295,703	-0,2
296,168	-0,19
296,632	-0,19
297,097	-0,17
297,562	-0,16
298,026	-0,16
298,491	-0,17
298,955	-0,17
299,419	-0,17
299,884	-0,18
300,348	-0,17
300,813	-0,15
301,277	-0,16
301,741	-0,16
302,205	-0,16
302,67	-0,15
303,134	-0,16
303,598	-0,15
304,062	-0,13
304,526	-0,12
304,99	-0,13
305,454	-0,13
305,919	-0,13
306,383	-0,13
306,847	-0,13
307,31	-0,15
307,774	-0,15
308,238	-0,15
308,702	-0,14
309,166	-0,16
309,63	-0,16
310,094	-0,13
310,557	-0,13
311,021	-0,13
311,485	-0,12
311,948	-0,11
312,412	-0,1
312,876	-0,09
313,339	-0,1
313,803	-0,1
314,266	-0,09
314,73	-0,1
315,193	-0,11
315,657	-0,1
316,12	-0,09
316,584	-0,08
317,047	-0,08
317,51	-0,06
317,973	-0,07
318,437	-0,06
318,9	-0,04
319,363	-0,03
319,826	-0,02
320,29	-0,03
320,753	-0,03
321,216	-0,03
321,679	-0,02
322,142	-0,02
322,605	-0,04
323,068	-0,03
323,531	-0,04
323,994	-0,04
324,457	-0,04
324,92	-0,03
325,382	-0,02
325,845	-0,02
326,308	-0,02
326,771	-0,02
327,233	-0,01
327,696	0
328,159	0
328,622	0,01
329,084	0
329,547	0,02
330,009	0,02
330,472	0,03
330,934	0,04
331,397	0,04
331,859	0,05
332,322	0,05
332,784	0,05
333,246	0,06
333,709	0,06
334,171	0,08
334,633	0,07
335,096	0,07
335,558	0,07
336,02	0,07
336,482	0,08
336,944	0,09
337,406	0,1
337,868	0,11
338,331	0,1
338,793	0,12
339,255	0,12
339,717	0,13
340,178	0,13
340,64	0,14
341,102	0,15
341,564	0,15
342,026	0,17
342,488	0,17
342,949	0,19
343,411	0,22
343,873	0,25
344,335	0,29
344,796	0,33
345,258	0,38
345,719	0,43
346,181	0,48
346,643	0,53
347,104	0,56
347,566	0,6
348,027	0,63
348,488	0,66
348,95	0,68
349,411	0,7
349,873	0,73
350,334	0,76
350,795	0,78
351,256	0,79
351,718	0,8
352,179	0,81
352,64	0,82
353,101	0,82
353,562	0,82
354,023	0,83
354,484	0,83
354,945	0,83
355,406	0,84
355,867	0,84
356,328	0,84
356,789	0,84
357,25	0,85
357,711	0,85
358,172	0,85
358,633	0,85
359,093	0,86
359,554	0,86
360,015	0,86
360,476	0,86
360,936	0,86
361,397	0,86
361,858	0,87
362,318	0,87
362,779	0,87
363,239	0,87
363,7	0,87
364,16	0,87
364,621	0,87
365,081	0,87
365,541	0,87
366,002	0,87
366,462	0,87
366,922	0,87
367,383	0,87
367,843	0,87
368,303	0,87
368,763	0,87
369,223	0,87
369,684	0,87
370,144	0,87
370,604	0,87
371,064	0,87
371,524	0,87
371,984	0,87
372,444	0,87
372,904	0,87
373,363	0,87
373,823	0,87
374,283	0,87
374,743	0,87
375,203	0,87
375,663	0,87
376,122	0,87
376,582	0,87
377,042	0,87
377,501	0,87
377,961	0,87
378,42	0,87
378,88	0,87
379,34	0,87
379,799	0,87
380,259	0,86
380,718	0,86
381,177	0,86
381,637	0,86
382,096	0,86
382,555	0,86
383,015	0,86
383,474	0,86
383,933	0,86
384,393	0,86
384,852	0,86
385,311	0,86
385,77	0,86
386,229	0,86
386,688	0,86
387,147	0,86
387,606	0,86
388,065	0,86
388,524	0,86
388,983	0,86
389,442	0,86
389,901	0,86
390,36	0,86
390,819	0,85
391,277	0,85
391,736	0,86
392,195	0,85
392,654	0,85
393,112	0,85
393,571	0,85
394,03	0,85
394,488	0,85
394,947	0,85
395,405	0,85
395,864	0,85
396,322	0,85
396,781	0,85
397,239	0,85
397,698	0,85
398,156	0,85
398,614	0,85
399,073	0,85
399,531	0,85
399,989	0,85
400,447	0,85
400,905	0,85
401,364	0,85
401,822	0,85
402,28	0,85
402,738	0,85
403,196	0,85
403,654	0,85
404,112	0,84
404,57	0,84
405,028	0,84
405,486	0,84
405,944	0,84
406,402	0,84
406,859	0,84
407,317	0,84
407,775	0,84
408,233	0,84
408,691	0,84
409,148	0,84
409,606	0,84
410,064	0,84
410,521	0,84
410,979	0,84
411,436	0,84
411,894	0,84
412,351	0,84
412,809	0,84
413,266	0,84
413,724	0,84
414,181	0,84
414,638	0,84
415,096	0,84
415,553	0,84
416,01	0,84
416,467	0,84
416,925	0,84
417,382	0,84
417,839	0,84
418,296	0,84
418,753	0,84
419,21	0,84
419,667	0,84
420,124	0,84
420,581	0,84
421,038	0,84
421,495	0,84
421,952	0,84
422,409	0,84
422,866	0,84
423,322	0,84
423,779	0,84
424,236	0,84
424,693	0,84
425,149	0,84
425,606	0,84
426,063	0,84
426,519	0,84
426,976	0,84
427,433	0,84
427,889	0,84
428,346	0,84
428,802	0,84
429,258	0,84
429,715	0,84
430,171	0,84
430,628	0,84
431,084	0,84
431,54	0,84
431,997	0,84
432,453	0,84
432,909	0,84
433,365	0,83
433,821	0,83
434,277	0,83
434,734	0,83
435,19	0,83
435,646	0,83
436,102	0,83
436,558	0,83
437,014	0,83
437,47	0,83
437,925	0,83
438,381	0,83
438,837	0,84
439,293	0,84
439,749	0,84
440,205	0,84
440,66	0,84
441,116	0,84
441,572	0,84
442,027	0,84
442,483	0,84
442,939	0,84
443,394	0,84
443,85	0,84
444,305	0,84
444,761	0,84
445,216	0,84
445,672	0,84
446,127	0,84
446,582	0,84
447,038	0,84
447,493	0,84
447,948	0,84
448,403	0,84
448,859	0,84
449,314	0,84
449,769	0,84
450,224	0,84
450,679	0,84
451,134	0,84
451,589	0,84
452,044	0,84
452,499	0,84
452,954	0,84
453,409	0,84
453,864	0,84
454,319	0,85
454,774	0,85
455,229	0,85
455,684	0,85
456,138	0,85
456,593	0,85
457,048	0,85
457,503	0,85
457,957	0,85
458,412	0,85
458,866	0,85
459,321	0,85
459,776	0,85
460,23	0,85
460,685	0,85
461,139	0,85
461,593	0,85
462,048	0,85
462,502	0,85
462,957	0,85
463,411	0,86
463,865	0,86
464,319	0,86
464,774	0,86
465,228	0,86
465,682	0,86
466,136	0,86
466,59	0,86
467,044	0,86
467,499	0,86
467,953	0,87
468,407	0,87
468,861	0,87
469,315	0,87
469,768	0,87
470,222	0,87
470,676	0,87
471,13	0,87
471,584	0,87
472,038	0,87
472,491	0,87
472,945	0,88
473,399	0,88
473,852	0,88
474,306	0,88
474,76	0,88
475,213	0,88
475,667	0,88
476,12	0,88
476,574	0,89
477,027	0,89
477,481	0,89
477,934	0,89
478,388	0,89
478,841	0,89
479,294	0,9
479,748	0,9
480,201	0,9
480,654	0,9
481,107	0,91
481,561	0,91
482,014	0,91
482,467	0,91
482,92	0,91
483,373	0,91
483,826	0,92
484,279	0,92
484,732	0,92
485,185	0,92
485,638	0,93
486,091	0,93
486,544	0,93
486,997	0,93
487,449	0,94
487,902	0,94
488,355	0,94
488,808	0,94
489,26	0,95
489,713	0,95
490,166	0,95
490,618	0,95
491,071	0,96
491,523	0,96
491,976	0,96
492,429	0,97
492,881	0,97
493,333	0,97
493,786	0,98
494,238	0,98
494,691	0,99
495,143	0,99
495,595	0,99
496,048	1
496,5	1
496,952	1
497,404	1,01
497,856	1,01
498,309	1,02
498,761	1,02
499,213	1,02
499,665	1,03
500,117	1,03
500,569	1,04
501,021	1,04
501,473	1,05
501,925	1,05
502,377	1,06
502,828	1,06
503,28	1,06
503,732	1,07
504,184	1,07
504,636	1,08
505,087	1,08
505,539	1,08
505,991	1,09
506,442	1,09
506,894	1,1
507,345	1,1
507,797	1,11
508,249	1,11
508,7	1,12
509,151	1,12
509,603	1,12
510,054	1,13
510,506	1,13
510,957	1,14
511,408	1,14
511,86	1,15
512,311	1,15
512,762	1,15
513,213	1,16
513,665	1,16
514,116	1,16
514,567	1,17
515,018	1,17
515,469	1,17
515,92	1,18
516,371	1,18
516,822	1,18
517,273	1,19
517,724	1,19
518,175	1,19
518,626	1,2
519,076	1,2
519,527	1,2
519,978	1,2
520,429	1,21
520,88	1,21
521,33	1,21
521,781	1,21
522,232	1,21
522,682	1,22
523,133	1,22
523,583	1,22
524,034	1,22
524,484	1,22
524,935	1,22
525,385	1,22
525,836	1,22
526,286	1,22
526,736	1,23
527,187	1,22
527,637	1,22
528,087	1,22
528,538	1,22
528,988	1,22
529,438	1,22
529,888	1,22
530,338	1,22
530,788	1,22
531,238	1,22
531,688	1,21
532,139	1,21
532,589	1,21
533,038	1,21
533,488	1,21
533,938	1,21
534,388	1,2
534,838	1,2
535,288	1,2
535,738	1,19
536,187	1,19
536,637	1,18
537,087	1,18
537,537	1,17
537,986	1,17
538,436	1,16
538,885	1,16
539,335	1,15
539,785	1,15
540,234	1,14
540,684	1,14
541,133	1,13
541,582	1,13
542,032	1,12
542,481	1,12
542,931	1,11
543,38	1,1
543,829	1,1
544,278	1,09
544,728	1,09
545,177	1,08
545,626	1,08
546,075	1,07
546,524	1,07
546,973	1,06
547,422	1,06
547,871	1,05
548,32	1,05
548,769	1,05
549,218	1,04
549,667	1,04
550,116	1,04
550,565	1,03
551,014	1,03
551,463	1,02
551,911	1,02
552,36	1,01
552,809	1,01
553,258	1
553,706	1
554,155	0,99
554,603	0,99
555,052	0,98
555,501	0,98
555,949	0,97
556,398	0,96
556,846	0,96
557,294	0,95
557,743	0,95
558,191	0,94
558,64	0,94
559,088	0,93
559,536	0,92
559,985	0,92
560,433	0,91
560,881	0,91
561,329	0,9
561,777	0,9
562,225	0,89
562,674	0,89
563,122	0,89
563,57	0,88
564,018	0,88
564,466	0,87
564,914	0,87
565,362	0,86
565,809	0,86
566,257	0,85
566,705	0,85
567,153	0,84
567,601	0,84
568,048	0,83
568,496	0,83
568,944	0,83
569,392	0,82
569,839	0,82
570,287	0,81
570,734	0,81
571,182	0,81
571,63	0,8
572,077	0,8
572,525	0,79
572,972	0,79
573,419	0,79
573,867	0,78
574,314	0,78
574,761	0,77
575,209	0,77
575,656	0,76
576,103	0,76
576,551	0,76
576,998	0,76
577,445	0,75
577,892	0,75
578,339	0,74
578,786	0,74
579,233	0,74
579,68	0,73
580,127	0,73
580,574	0,73
581,021	0,72
581,468	0,72
581,915	0,72
582,362	0,71
582,809	0,71
583,255	0,71
583,702	0,71
584,149	0,71
584,596	0,7
585,042	0,7
585,489	0,69
585,936	0,69
586,382	0,69
586,829	0,69
587,275	0,69
587,722	0,68
588,168	0,68
588,615	0,68
589,061	0,67
589,508	0,67
589,954	0,67
590,4	0,67
590,847	0,66
591,293	0,66
591,739	0,66
592,185	0,66
592,632	0,66
593,078	0,66
593,524	0,65
593,97	0,65
594,416	0,65
594,862	0,65
595,308	0,65
595,754	0,65
596,2	0,64
596,646	0,64
597,092	0,64
597,538	0,64
597,984	0,64
598,43	0,63
598,876	0,63
599,321	0,63
599,767	0,63
600,213	0,63
600,659	0,63
601,104	0,62
601,55	0,62
601,995	0,62
602,441	0,62
602,887	0,62
603,332	0,62
603,778	0,62
604,223	0,61
604,668	0,61
605,114	0,61
605,559	0,61
606,005	0,61
606,45	0,61
606,895	0,61
607,341	0,61
607,786	0,6
608,231	0,6
608,676	0,6
609,121	0,59
609,566	0,58
610,012	0,58
610,457	0,57
610,902	0,57
611,347	0,57
611,792	0,56
612,237	0,56
612,682	0,56
613,127	0,56
613,571	0,56
614,016	0,56
614,461	0,57
614,906	0,57
615,351	0,57
615,795	0,57
616,24	0,57
616,685	0,57
617,129	0,57
617,574	0,57
618,019	0,57
618,463	0,57
618,908	0,57
619,352	0,57
619,797	0,57
620,241	0,57
620,686	0,57
621,13	0,57
621,574	0,57
622,019	0,57
622,463	0,56
622,907	0,56
623,352	0,56
623,796	0,56
624,24	0,56
624,684	0,56
625,128	0,56
625,572	0,56
626,016	0,56
626,461	0,56
626,905	0,56
627,349	0,56
627,793	0,56
628,236	0,56
628,68	0,56
629,124	0,56
629,568	0,56
630,012	0,56
630,456	0,55
630,9	0,55
631,343	0,55
631,787	0,55
632,231	0,55
632,674	0,55
633,118	0,55
633,562	0,55
634,005	0,55
634,449	0,55
634,892	0,55
635,336	0,55
635,779	0,55
636,223	0,55
636,666	0,55
637,109	0,55
637,553	0,55
637,996	0,55
638,439	0,55
638,883	0,55
639,326	0,55
639,769	0,55
640,212	0,54
640,655	0,54
641,099	0,54
641,542	0,54
641,985	0,54
642,428	0,54
642,871	0,54
643,314	0,54
643,757	0,54
644,2	0,54
644,643	0,54
645,085	0,54
645,528	0,54
645,971	0,54
646,414	0,53
646,857	0,53
647,299	0,53
647,742	0,53
648,185	0,53
648,627	0,53
649,07	0,53
649,513	0,53
649,955	0,53
650,398	0,53
650,84	0,53
651,283	0,53
651,725	0,53
652,168	0,53
652,61	0,53
653,052	0,53
653,495	0,53
653,937	0,44
654,379	0,39
654,821	0,39
655,264	0,39
655,706	0,39
656,148	0,39
656,59	0,39
657,032	0,39
657,474	0,39
657,916	0,39
658,358	0,38
658,8	0,45
659,242	0,53
659,684	0,53
660,126	0,53
660,568	0,53
661,01	0,53
661,452	0,53
661,894	0,52
662,335	0,52
662,777	0,52
663,219	0,52
663,661	0,52
664,102	0,52
664,544	0,52
664,985	0,52
665,427	0,52
665,869	0,52
666,31	0,52
666,752	0,52
667,193	0,52
667,634	0,52
668,076	0,52
668,517	0,52
668,959	0,52
669,4	0,52
669,841	0,52
670,282	0,52
670,724	0,52
671,165	0,52
671,606	0,52
672,047	0,52
672,488	0,52
672,929	0,52
673,37	0,52
673,811	0,52
674,252	0,52
674,693	0,52
675,134	0,52
675,575	0,51
676,016	0,51
676,457	0,51
676,898	0,51
677,339	0,51
677,78	0,51
678,22	0,51
678,661	0,51
679,102	0,51
679,542	0,51
679,983	0,51
680,424	0,51
680,864	0,52
681,305	0,52
681,745	0,52
682,186	0,52
682,626	0,52
683,067	0,52
683,507	0,52
683,948	0,52
684,388	0,52
684,828	0,52
685,269	0,51
685,709	0,51
686,149	0,51
686,589	0,51
687,029	0,51
687,47	0,51
687,91	0,51
688,35	0,51
688,79	0,51
689,23	0,51
689,67	0,51
690,11	0,51
690,55	0,51
690,99	0,51
691,43	0,5
691,87	0,5
692,31	0,5
692,749	0,5
693,189	0,5
693,629	0,5
694,069	0,5
694,508	0,5
694,948	0,5
695,388	0,5
695,827	0,5
696,267	0,5
696,706	0,5
697,146	0,5
697,586	0,5
698,025	0,5
698,464	0,5
698,904	0,5
699,343	0,5
699,783	0,5
700,222	0,5
700,661	0,5
701,101	0,5
701,54	0,5
701,979	0,5
702,418	0,5
702,857	0,5
703,297	0,5
703,736	0,5
704,175	0,5
704,614	0,5
705,053	0,5
705,492	0,5
705,931	0,5
706,37	0,5
706,809	0,5
707,248	0,5
707,687	0,5
708,125	0,5
708,564	0,5
709,003	0,5
709,442	0,5
709,88	0,5
710,319	0,5
710,758	0,5
711,196	0,49
711,635	0,49
712,074	0,49
712,512	0,49
712,951	0,49
713,389	0,49
713,828	0,49
714,266	0,49
714,705	0,49
715,143	0,49
715,581	0,49
716,02	0,49
716,458	0,49
716,896	0,49
717,334	0,49
717,773	0,49
718,211	0,49
718,649	0,49
719,087	0,49
719,525	0,49
719,963	0,49
720,401	0,49
720,839	0,49
721,277	0,49
721,715	0,49
722,153	0,49
722,591	0,49
723,029	0,49
723,467	0,49
723,905	0,49
724,342	0,49
724,78	0,49
725,218	0,49
725,656	0,49
726,093	0,49
726,531	0,49
726,969	0,49
727,406	0,49
727,844	0,49
728,281	0,49
728,719	0,49
729,156	0,49
729,594	0,49
730,031	0,49
730,469	0,49
730,906	0,49
731,343	0,48
731,781	0,48
732,218	0,48
732,655	0,48
733,092	0,48
733,53	0,48
733,967	0,48
734,404	0,48
734,841	0,48
735,278	0,48
735,715	0,48
736,152	0,48
736,589	0,48
737,026	0,48
737,463	0,48
737,9	0,48
738,337	0,48
738,774	0,48
739,211	0,48
739,647	0,48
740,084	0,48
740,521	0,48
740,958	0,48
741,394	0,48
741,831	0,48
742,268	0,48
742,704	0,48
743,141	0,48
743,577	0,48
744,014	0,48
744,45	0,48
744,887	0,48
745,323	0,48
745,76	0,48
746,196	0,47
746,632	0,47
747,069	0,47
747,505	0,47
747,941	0,47
748,378	0,47
748,814	0,47
749,25	0,47
749,686	0,47
750,122	0,47
750,558	0,48
750,994	0,48
751,43	0,48
751,866	0,48
752,302	0,48
752,738	0,48
753,174	0,48
753,61	0,48
754,046	0,48
754,482	0,48
754,918	0,48
755,354	0,48
755,789	0,47
756,225	0,47
756,661	0,47
757,096	0,47
757,532	0,47
757,968	0,47
758,403	0,46
758,839	0,46
759,274	0,46
759,71	0,45
760,145	0,45
760,581	0,44
761,016	0,44
761,452	0,43
761,887	0,43
762,322	0,42
762,758	0,42
763,193	0,41
763,628	0,41
764,063	0,4
764,499	0,39
764,934	0,39
765,369	0,38
765,804	0,37
766,239	0,36
766,674	0,36
767,109	0,35
767,544	0,34
767,979	0,33
768,414	0,32
768,849	0,31
769,284	0,3
769,719	0,29
770,154	0,28
770,588	0,27
771,023	0,26
771,458	0,25
771,893	0,24
772,327	0,22
772,762	0,21
773,197	0,2
773,631	0,19
774,066	0,18
774,5	0,17
774,935	0,16
775,369	0,15
775,804	0,14
776,238	0,13
776,673	0,12
777,107	0,11
777,541	0,1
777,976	0,09
778,41	0,08
778,844	0,06
779,279	0,06
779,713	0,05
780,147	0,04
780,581	0,03
781,015	0,01
781,449	0
781,883	-0,01
782,317	-0,03
782,751	-0,03
783,185	-0,04
783,619	-0,05
784,053	-0,06
784,487	-0,07
784,921	-0,07
785,355	-0,07
785,789	-0,09
786,223	-0,09
786,656	-0,1
787,09	-0,11
787,524	-0,12
787,957	-0,13
788,391	-0,15
788,825	-0,17
789,258	-0,18
789,692	-0,2
790,125	-0,22
790,559	-0,23
790,992	-0,26
791,426	-0,28
791,859	-0,29
792,293	-0,32
792,726	-0,33
793,159	-0,35
793,593	-0,37
794,026	-0,39
794,459	-0,42
794,892	-0,45
795,326	-0,47
795,759	-0,51
796,192	-0,55
796,625	-0,6
797,058	-0,63
797,491	-0,67
797,924	-0,71
798,357	-0,76
798,79	-0,8
799,223	-0,84
799,656	-0,89
800,089	-0,94
800,522	-0,98
800,955	-1,02
801,387	-1,08
801,82	-1,13
802,253	-1,19
802,686	-1,27
803,118	-1,33
803,551	-1,38
803,984	-1,42
804,416	-1,46
804,849	-1,49
805,281	-1,57
805,714	-1,91
806,146	-2,42
806,579	-2,69
807,011	-2,86
807,444	-2,95
807,876	-3,04
808,308	-3,07
808,741	-3,1
809,173	-3,15
809,605	-3,17
810,037	-3,25
810,47	-3,17
810,902	-2,97
811,334	-2,82
811,766	-2,66
812,198	-2,4
812,63	-1,97
813,062	-1,77
813,494	-1,67
813,926	-1,59
814,358	-1,54
814,79	-1,46
815,222	-1,4
815,654	-1,35
816,086	-1,29
816,518	-1,23
816,949	-1,18
817,381	-1,14
817,813	-1,12
818,245	-1,08
818,676	-1,04
819,108	-1
819,54	-0,99
819,971	-0,97
820,403	-0,92
820,834	-0,9
821,266	-0,86
821,697	-0,84
822,129	-0,82
822,56	-0,8
822,991	-0,78
823,423	-0,75
823,854	-0,75
824,286	-0,72
824,717	-0,71
825,148	-0,7
825,579	-0,69
826,01	-0,68
826,442	-0,67
826,873	-0,65
827,304	-0,62
827,735	-0,61
828,166	-0,62
828,597	-0,61
829,028	-0,6
829,459	-0,61
829,89	-0,61
830,321	-0,57
830,752	-0,59
831,183	-0,58
831,613	-0,57
832,044	-0,56
832,475	-0,55
832,906	-0,56
833,336	-0,57
833,767	-0,57
834,198	-0,56
834,628	-0,54
835,059	-0,56
835,49	-0,56
835,92	-0,54
836,351	-0,54
836,781	-0,55
837,212	-0,56
837,642	-0,56
838,072	-0,54
838,503	-0,55
838,933	-0,53
839,364	-0,54
839,794	-0,52
840,224	-0,52
840,654	-0,55
841,085	-0,56
841,515	-0,54
841,945	-0,54
842,375	-0,49
842,805	-0,49
843,235	-0,48
843,665	-0,49
844,095	-0,48
844,525	-0,5
844,955	-0,5
845,385	-0,49
845,815	-0,47
846,245	-0,49
846,675	-0,49
847,105	-0,51
847,534	-0,51
847,964	-0,49
848,394	-0,47
848,824	-0,51
849,253	-0,5
849,683	-0,5
850,112	-0,52
850,542	-0,55
850,972	-0,55
851,401	-0,54
851,831	-0,52
852,26	-0,52
852,69	-0,56
853,119	-0,56
853,548	-0,56
853,978	-0,56
854,407	-0,53
854,836	-0,53
855,266	-0,52
855,695	-0,53
856,124	-0,54
856,553	-0,56
856,983	-0,58
857,412	-0,57
857,841	-0,57
858,27	-0,58
858,699	-0,58
859,128	-0,62
859,557	-0,62
859,986	-0,63
860,415	-0,61
860,844	-0,58
861,273	-0,58
861,702	-0,59
862,13	-0,57
862,559	-0,6
862,988	-0,57
863,417	-0,56
863,845	-0,56
864,274	-0,57
864,703	-0,57
865,131	-0,57
865,56	-0,58
865,989	-0,61
866,417	-0,59
866,846	-0,6
867,274	-0,59
867,703	-0,61
868,131	-0,62
868,559	-0,62
868,988	-0,64
869,416	-0,62
869,844	-0,64
870,273	-0,66
870,701	-0,63
871,129	-0,66
871,557	-0,69
871,986	-0,68
872,414	-0,7
872,842	-0,66
873,27	-0,64
873,698	-0,6
874,126	-0,64
874,554	-0,62
874,982	-0,62
875,41	-0,65
875,838	-0,6
876,266	-0,58
876,694	-0,58
877,122	-0,58
877,549	-0,64
877,977	-0,61
878,405	-0,65
878,833	-0,61
879,26	-0,59
879,688	-0,59
880,116	-0,57
880,543	-0,55
880,971	-0,54
881,399	-0,57
881,826	-0,57
882,254	-0,55
882,681	-0,58
883,109	-0,55
883,536	-0,55
883,963	-0,57
884,391	-0,56
884,818	-0,55
885,245	-0,58
885,673	-0,59
886,1	-0,56
886,527	-0,56
886,954	-0,53
887,381	-0,55
887,809	-0,55
888,236	-0,57
888,663	-0,58
889,09	-0,62
889,517	-0,65
889,944	-0,65
890,371	-0,64
890,798	-0,65
891,225	-0,65
891,652	-0,67
892,078	-0,64
892,505	-0,68
892,932	-0,63
893,359	-0,64
893,786	-0,63
894,212	-0,6
894,639	-0,62
895,066	-0,65
895,492	-0,59
895,919	-0,59
896,346	-0,58
896,772	-0,6
897,199	-0,56
897,625	-0,59
898,052	-0,55
898,478	-0,54
898,904	-0,55
899,331	-0,55
899,757	-0,56
900,183	-0,58
900,61	-0,56
901,036	-0,57
901,462	-0,56
901,888	-0,56
902,315	-0,56
902,741	-0,61
903,167	-0,58
903,593	-0,61
904,019	-0,59
904,445	-0,57
904,871	-0,59
905,297	-0,61
905,723	-0,61
906,149	-0,6
906,575	-0,6
907,001	-0,59
907,427	-0,56
907,852	-0,57
908,278	-0,57
908,704	-0,56
909,13	-0,55
909,555	-0,54
909,981	-0,53
910,407	-0,54
910,832	-0,54
911,258	-0,55
911,684	-0,55
912,109	-0,55
912,535	-0,57
912,96	-0,53
913,386	-0,56
913,811	-0,55
914,236	-0,56
914,662	-0,54
915,087	-0,57
915,512	-0,58
915,938	-0,59
916,363	-0,59
916,788	-0,6
917,213	-0,58
917,639	-0,63
918,064	-0,61
918,489	-0,61
918,914	-0,61
919,339	-0,63
919,764	-0,6
920,189	-0,6
920,614	-0,61
921,039	-0,62
921,464	-0,57
921,889	-0,6
922,314	-0,6
922,738	-0,64
923,163	-0,66
923,588	-0,66
924,013	-0,65
924,437	-0,64
924,862	-0,66
925,287	-0,62
925,711	-0,63
926,136	-0,65
926,561	-0,63
926,985	-0,61
927,41	-0,58
927,834	-0,55
928,259	-0,53
928,683	-0,5
929,108	-0,48
929,532	-0,48
929,956	-0,48
930,381	-0,48
930,805	-0,47
931,229	-0,47
931,653	-0,46
932,078	-0,45
932,502	-0,47
932,926	-0,47
933,35	-0,48
933,774	-0,47
934,198	-0,45
934,622	-0,44
935,046	-0,44
935,47	-0,44
935,894	-0,44
936,318	-0,43
936,742	-0,43
937,166	-0,43
937,59	-0,43
938,014	-0,45
938,437	-0,46
938,861	-0,48
939,285	-0,49
939,709	-0,48
940,132	-0,48
940,556	-0,49
940,98	-0,49
941,403	-0,48
941,827	-0,48
942,25	-0,5
942,674	-0,48
943,097	-0,48
943,521	-0,47
943,944	-0,49
944,368	-0,48
944,791	-0,47
945,214	-0,49
945,638	-0,5
946,061	-0,53
946,484	-0,54
946,907	-0,53
947,331	-0,53
947,754	-0,57
948,177	-0,55
948,6	-0,54
949,023	-0,54
949,446	-0,53
949,869	-0,51
950,292	-0,5
950,715	-0,46
951,138	-0,45
951,561	-0,42
951,984	-0,42
952,407	-0,4
952,83	-0,38
953,252	-0,34
953,675	-0,34
954,098	-0,35
954,521	-0,34
954,943	-0,33
955,366	-0,34
955,789	-0,32
956,211	-0,35
956,634	-0,36
957,056	-0,33
957,479	-0,35
957,902	-0,37
958,324	-0,37
958,746	-0,35
959,169	-0,37
959,591	-0,37
960,014	-0,38
960,436	-0,38
960,858	-0,37
961,281	-0,37
961,703	-0,39
962,125	-0,38
962,547	-0,36
962,969	-0,37
963,391	-0,37
963,814	-0,39
964,236	-0,37
964,658	-0,34
965,08	-0,35
965,502	-0,34
965,924	-0,32
966,346	-0,32
966,768	-0,31
967,189	-0,34
967,611	-0,33
968,033	-0,33
968,455	-0,31
968,877	-0,32
969,298	-0,33
969,72	-0,34
970,142	-0,33
970,563	-0,34
970,985	-0,32
971,407	-0,32
971,828	-0,29
972,25	-0,29
972,671	-0,26
973,093	-0,26
973,514	-0,25
973,936	-0,23
974,357	-0,22
974,778	-0,22
975,2	-0,21
975,621	-0,2
976,042	-0,18
976,464	-0,18
976,885	-0,17
977,306	-0,16
977,727	-0,16
978,148	-0,14
978,57	-0,13
978,991	-0,12
979,412	-0,1
979,833	-0,09
980,254	-0,08
980,675	-0,09
981,096	-0,07
981,517	-0,06
981,937	-0,05
982,358	-0,04
982,779	-0,03
983,2	-0,02
983,621	-0,02
984,042	-0
984,462	0,01
984,883	0,03
985,304	0,05
985,724	0,07
986,145	0,08
986,565	0,1
986,986	0,11
987,407	0,13
987,827	0,14
988,248	0,16
988,668	0,17
989,088	0,18
989,509	0,19
989,929	0,2
990,35	0,21
990,77	0,22
991,19	0,23
991,61	0,24
992,031	0,25
992,451	0,26
992,871	0,27
993,291	0,28
993,711	0,29
994,131	0,3
994,551	0,31
994,971	0,32
995,391	0,33
995,811	0,34
996,231	0,34
996,651	0,34
997,071	0,35
997,491	0,36
997,911	0,37
998,331	0,38
998,75	0,39
999,17	0,4
999,59	0,4
1000,009	0,41
1000,429	0,41
1000,849	0,42
1001,268	0,43
1001,688	0,43
1002,107	0,43
1002,527	0,44
1002,946	0,44
1003,366	0,44
1003,785	0,45
1004,205	0,45
1004,624	0,46
1005,044	0,46
1005,463	0,46
1005,882	0,46
1006,301	0,47
1006,721	0,47
1007,14	0,47
1007,559	0,47
1007,978	0,47
1008,397	0,47
1008,816	0,47
1009,235	0,48
1009,655	0,48
1010,074	0,48
1010,492	0,47
1010,911	0,47
1011,33	0,47
1011,749	0,47
1012,168	0,47
1012,587	0,47
1013,006	0,47
1013,425	0,47
1013,843	0,47
1014,262	0,47
1014,681	0,47
1015,099	0,47
1015,518	0,47
1015,937	0,47
1016,355	0,47
1016,774	0,47
1017,192	0,47
1017,611	0,47
1018,029	0,47
1018,448	0,47
1018,866	0,46
1019,285	0,46
1019,703	0,46
1020,121	0,46
1020,54	0,46
1020,958	0,46
1021,376	0,46
1021,794	0,46
1022,213	0,46
1022,631	0,46
1023,049	0,46
1023,467	0,46
1023,885	0,46
1024,303	0,46
1024,721	0,46
1025,139	0,46
1025,557	0,46
1025,975	0,46
1026,393	0,45
1026,811	0,45
1027,229	0,45
1027,647	0,45
1028,065	0,45
1028,482	0,45
1028,9	0,45
1029,318	0,45
1029,735	0,45
1030,153	0,45
1030,571	0,45
1030,988	0,45
1031,406	0,45
1031,823	0,45
1032,241	0,45
1032,659	0,45
1033,076	0,45
1033,493	0,45
1033,911	0,45
1034,328	0,45
1034,746	0,45
1035,163	0,45
1035,58	0,45
1035,997	0,45
1036,415	0,45
1036,832	0,45
1037,249	0,45
1037,666	0,45
1038,083	0,45
1038,501	0,45
1038,918	0,45
1039,335	0,45
1039,752	0,45
1040,169	0,45
1040,586	0,45
1041,003	0,45
1041,419	0,45
1041,836	0,45
1042,253	0,45
1042,67	0,45
1043,087	0,45
1043,504	0,45
1043,92	0,45
1044,337	0,45
1044,754	0,45
1045,17	0,45
1045,587	0,45
1046,004	0,45
1046,42	0,44
1046,837	0,45
1047,253	0,44
1047,67	0,44
1048,086	0,44
1048,503	0,44
1048,919	0,44
1049,335	0,45
1049,752	0,45
1050,168	0,45
1050,584	0,45
1051,001	0,45
1051,417	0,45
1051,833	0,45
1052,249	0,45
1052,665	0,45
1053,081	0,45
1053,497	0,45
1053,914	0,45
1054,33	0,45
1054,746	0,46
1055,162	0,46
1055,578	0,46
1055,993	0,46
1056,409	0,46
1056,825	0,46
1057,241	0,46
1057,657	0,46
1058,073	0,46
1058,488	0,46
1058,904	0,46
1059,32	0,46
1059,736	0,46
1060,151	0,46
1060,567	0,46
1060,982	0,46
1061,398	0,46
1061,813	0,46
1062,229	0,46
1062,644	0,46
1063,06	0,46
1063,475	0,46
1063,891	0,46
1064,306	0,46
1064,721	0,46
1065,137	0,45
1065,552	0,45
1065,967	0,45
1066,382	0,45
1066,798	0,45
1067,213	0,45
1067,628	0,45
1068,043	0,45
1068,458	0,45
1068,873	0,45
1069,288	0,45
1069,703	0,45
1070,118	0,46
1070,533	0,46
1070,948	0,46
1071,363	0,46
1071,778	0,46
1072,193	0,46
1072,607	0,46
1073,022	0,46
1073,437	0,46
1073,852	0,46
1074,266	0,46
1074,681	0,46
1075,096	0,46
1075,51	0,46
1075,925	0,46
1076,339	0,45
1076,754	0,45
1077,168	0,45
1077,583	0,45
1077,997	0,45
1078,412	0,45
1078,826	0,45
1079,24	0,45
1079,655	0,45
1080,069	0,44
1080,483	0,44
1080,897	0,44
1081,312	0,44
1081,726	0,44
1082,14	0,44
1082,554	0,44
1082,968	0,44
1083,382	0,44
1083,796	0,44
1084,21	0,44
1084,624	0,44
1085,038	0,44
1085,452	0,44
1085,866	0,43
1086,28	0,43
1086,694	0,43
1087,108	0,43
1087,521	0,43
1087,935	0,42
1088,349	0,42
1088,763	0,42
1089,176	0,41
1089,59	0,41
1090,004	0,41
1090,417	0,4
1090,831	0,4
1091,244	0,4
1091,658	0,39
1092,071	0,39
1092,485	0,39
1092,898	0,39
1093,312	0,39
1093,725	0,39
1094,138	0,38
1094,552	0,38
1094,965	0,38
1095,378	0,38
1095,791	0,37
1096,205	0,37
1096,618	0,37
1097,031	0,36
1097,444	0,36
1097,857	0,35
1098,27	0,35
1098,683	0,35
1099,096	0,34
1099,509	0,34
1099,922	0,33
1100,335	0,33
1100,748	0,32
1101,161	0,32
1101,574	0,32
1101,986	0,31
1102,399	0,31
1102,812	0,3
1103,225	0,3
1103,637	0,3
1104,05	0,29
1104,463	0,3
1104,875	0,29
1105,288	0,29
1105,7	0,28
1106,113	0,28
1106,525	0,27
1106,938	0,26
1107,35	0,26
1107,763	0,26
1108,175	0,25
1108,588	0,25
1109	0,24
1109,412	0,23
1109,824	0,23
1110,237	0,24
1110,649	0,24
1111,061	0,23
