Data from 18C-808nm-8A-cont_Absorbance__608__02037.txt Node

Date: Mon Jul 17 17:41:55 CEST 2023
User: Laser008
Spectrometer: MAYP115816
Trigger mode: 0
Integration Time (sec): 2,500000E-1
Scans to average: 10
Electric dark correction enabled: true
Nonlinearity correction enabled: true
Boxcar width: 5
XAxis mode: Wavelengths
Number of Pixels in Spectrum: 2068
>>>>>Begin Spectral Data<<<<<
198,914	-0,7
199,384	-0,49
199,855	-0,36
200,325	-0,27
200,796	-0,23
201,266	-0,19
201,737	-0,16
202,207	-0,15
202,677	-0,15
203,147	-0,14
203,618	-0,11
204,088	-0,09
204,558	-0,07
205,028	-0,06
205,498	-0,07
205,968	-0,07
206,439	-0,09
206,909	-0,09
207,379	-0,1
207,849	-0,1
208,319	-0,1
208,789	-0,1
209,258	-0,11
209,728	-0,13
210,198	-0,13
210,668	-0,13
211,138	-0,12
211,608	-0,12
212,077	-0,12
212,547	-0,11
213,017	-0,12
213,486	-0,12
213,956	-0,12
214,426	-0,12
214,895	-0,11
215,365	-0,12
215,834	-0,13
216,304	-0,14
216,773	-0,15
217,243	-0,16
217,712	-0,18
218,181	-0,17
218,651	-0,18
219,12	-0,18
219,589	-0,18
220,058	-0,17
220,528	-0,18
220,997	-0,18
221,466	-0,19
221,935	-0,2
222,404	-0,2
222,873	-0,18
223,342	-0,18
223,812	-0,18
224,281	-0,18
224,749	-0,18
225,218	-0,2
225,687	-0,2
226,156	-0,19
226,625	-0,18
227,094	-0,18
227,563	-0,17
228,031	-0,19
228,5	-0,18
228,969	-0,19
229,438	-0,18
229,906	-0,17
230,375	-0,16
230,844	-0,16
231,312	-0,15
231,781	-0,15
232,249	-0,15
232,718	-0,15
233,186	-0,14
233,655	-0,14
234,123	-0,13
234,591	-0,13
235,06	-0,14
235,528	-0,14
235,996	-0,14
236,465	-0,15
236,933	-0,14
237,401	-0,14
237,869	-0,13
238,337	-0,13
238,805	-0,12
239,274	-0,13
239,742	-0,12
240,21	-0,12
240,678	-0,11
241,146	-0,1
241,614	-0,1
242,081	-0,1
242,549	-0,11
243,017	-0,11
243,485	-0,11
243,953	-0,11
244,421	-0,1
244,888	-0,1
245,356	-0,1
245,824	-0,11
246,291	-0,11
246,759	-0,1
247,227	-0,1
247,694	-0,08
248,162	-0,07
248,629	-0,06
249,097	-0,07
249,564	-0,07
250,032	-0,08
250,499	-0,08
250,967	-0,08
251,434	-0,09
251,901	-0,09
252,369	-0,1
252,836	-0,11
253,303	-0,14
253,77	-0,16
254,237	-0,15
254,705	-0,15
255,172	-0,14
255,639	-0,14
256,106	-0,16
256,573	-0,17
257,04	-0,17
257,507	-0,17
257,974	-0,18
258,441	-0,16
258,908	-0,15
259,375	-0,17
259,841	-0,18
260,308	-0,19
260,775	-0,18
261,242	-0,17
261,709	-0,17
262,175	-0,18
262,642	-0,17
263,109	-0,16
263,575	-0,18
264,042	-0,17
264,508	-0,16
264,975	-0,17
265,441	-0,19
265,908	-0,2
266,374	-0,19
266,841	-0,18
267,307	-0,18
267,773	-0,18
268,24	-0,18
268,706	-0,18
269,172	-0,19
269,639	-0,2
270,105	-0,19
270,571	-0,19
271,037	-0,19
271,503	-0,2
271,969	-0,2
272,435	-0,19
272,902	-0,21
273,368	-0,22
273,834	-0,22
274,3	-0,23
274,765	-0,22
275,231	-0,22
275,697	-0,21
276,163	-0,2
276,629	-0,2
277,095	-0,21
277,56	-0,21
278,026	-0,21
278,492	-0,19
278,958	-0,19
279,423	-0,2
279,889	-0,19
280,354	-0,19
280,82	-0,2
281,286	-0,21
281,751	-0,22
282,217	-0,21
282,682	-0,21
283,147	-0,22
283,613	-0,22
284,078	-0,22
284,544	-0,24
285,009	-0,24
285,474	-0,24
285,939	-0,25
286,405	-0,23
286,87	-0,23
287,335	-0,22
287,8	-0,21
288,265	-0,19
288,73	-0,2
289,195	-0,22
289,66	-0,21
290,125	-0,2
290,59	-0,21
291,055	-0,2
291,52	-0,2
291,985	-0,21
292,45	-0,22
292,915	-0,22
293,38	-0,23
293,844	-0,21
294,309	-0,19
294,774	-0,18
295,239	-0,19
295,703	-0,2
296,168	-0,18
296,632	-0,18
297,097	-0,16
297,562	-0,16
298,026	-0,16
298,491	-0,16
298,955	-0,16
299,419	-0,16
299,884	-0,16
300,348	-0,15
300,813	-0,14
301,277	-0,15
301,741	-0,15
302,205	-0,15
302,67	-0,13
303,134	-0,14
303,598	-0,15
304,062	-0,14
304,526	-0,13
304,99	-0,13
305,454	-0,12
305,919	-0,12
306,383	-0,12
306,847	-0,12
307,31	-0,13
307,774	-0,14
308,238	-0,14
308,702	-0,13
309,166	-0,15
309,63	-0,14
310,094	-0,13
310,557	-0,13
311,021	-0,13
311,485	-0,14
311,948	-0,13
312,412	-0,12
312,876	-0,11
313,339	-0,12
313,803	-0,12
314,266	-0,11
314,73	-0,12
315,193	-0,11
315,657	-0,1
316,12	-0,1
316,584	-0,09
317,047	-0,1
317,51	-0,08
317,973	-0,08
318,437	-0,07
318,9	-0,06
319,363	-0,04
319,826	-0,04
320,29	-0,04
320,753	-0,05
321,216	-0,04
321,679	-0,04
322,142	-0,04
322,605	-0,06
323,068	-0,05
323,531	-0,06
323,994	-0,05
324,457	-0,05
324,92	-0,03
325,382	-0,03
325,845	-0,02
326,308	-0,01
326,771	-0,01
327,233	0
327,696	0,02
328,159	0,02
328,622	0,03
329,084	0,03
329,547	0,03
330,009	0,03
330,472	0,04
330,934	0,04
331,397	0,05
331,859	0,06
332,322	0,07
332,784	0,06
333,246	0,07
333,709	0,07
334,171	0,07
334,633	0,08
335,096	0,08
335,558	0,08
336,02	0,08
336,482	0,08
336,944	0,09
337,406	0,1
337,868	0,1
338,331	0,09
338,793	0,11
339,255	0,12
339,717	0,13
340,178	0,13
340,64	0,13
341,102	0,14
341,564	0,15
342,026	0,16
342,488	0,17
342,949	0,18
343,411	0,21
343,873	0,24
344,335	0,28
344,796	0,31
345,258	0,36
345,719	0,41
346,181	0,46
346,643	0,5
347,104	0,54
347,566	0,57
348,027	0,61
348,488	0,63
348,95	0,65
349,411	0,68
349,873	0,7
350,334	0,73
350,795	0,75
351,256	0,76
351,718	0,77
352,179	0,78
352,64	0,78
353,101	0,79
353,562	0,79
354,023	0,79
354,484	0,8
354,945	0,8
355,406	0,8
355,867	0,8
356,328	0,81
356,789	0,82
357,25	0,82
357,711	0,82
358,172	0,83
358,633	0,83
359,093	0,83
359,554	0,83
360,015	0,83
360,476	0,83
360,936	0,83
361,397	0,83
361,858	0,83
362,318	0,83
362,779	0,83
363,239	0,83
363,7	0,83
364,16	0,83
364,621	0,83
365,081	0,83
365,541	0,83
366,002	0,83
366,462	0,83
366,922	0,83
367,383	0,83
367,843	0,83
368,303	0,83
368,763	0,83
369,223	0,83
369,684	0,83
370,144	0,83
370,604	0,83
371,064	0,83
371,524	0,83
371,984	0,83
372,444	0,83
372,904	0,83
373,363	0,83
373,823	0,83
374,283	0,83
374,743	0,83
375,203	0,83
375,663	0,83
376,122	0,83
376,582	0,83
377,042	0,83
377,501	0,83
377,961	0,83
378,42	0,83
378,88	0,83
379,34	0,83
379,799	0,83
380,259	0,83
380,718	0,83
381,177	0,82
381,637	0,82
382,096	0,82
382,555	0,82
383,015	0,82
383,474	0,82
383,933	0,82
384,393	0,82
384,852	0,82
385,311	0,82
385,77	0,82
386,229	0,82
386,688	0,82
387,147	0,82
387,606	0,82
388,065	0,82
388,524	0,82
388,983	0,82
389,442	0,82
389,901	0,82
390,36	0,82
390,819	0,82
391,277	0,82
391,736	0,82
392,195	0,82
392,654	0,81
393,112	0,81
393,571	0,81
394,03	0,81
394,488	0,81
394,947	0,81
395,405	0,81
395,864	0,81
396,322	0,81
396,781	0,81
397,239	0,81
397,698	0,81
398,156	0,81
398,614	0,81
399,073	0,81
399,531	0,81
399,989	0,81
400,447	0,81
400,905	0,81
401,364	0,81
401,822	0,81
402,28	0,81
402,738	0,81
403,196	0,81
403,654	0,81
404,112	0,8
404,57	0,8
405,028	0,8
405,486	0,8
405,944	0,8
406,402	0,8
406,859	0,8
407,317	0,8
407,775	0,8
408,233	0,8
408,691	0,8
409,148	0,8
409,606	0,8
410,064	0,8
410,521	0,8
410,979	0,8
411,436	0,8
411,894	0,8
412,351	0,8
412,809	0,8
413,266	0,8
413,724	0,8
414,181	0,8
414,638	0,8
415,096	0,8
415,553	0,8
416,01	0,8
416,467	0,8
416,925	0,8
417,382	0,8
417,839	0,8
418,296	0,8
418,753	0,8
419,21	0,8
419,667	0,8
420,124	0,8
420,581	0,8
421,038	0,8
421,495	0,8
421,952	0,8
422,409	0,8
422,866	0,8
423,322	0,8
423,779	0,8
424,236	0,8
424,693	0,8
425,149	0,8
425,606	0,8
426,063	0,8
426,519	0,8
426,976	0,8
427,433	0,8
427,889	0,8
428,346	0,8
428,802	0,8
429,258	0,8
429,715	0,8
430,171	0,8
430,628	0,8
431,084	0,8
431,54	0,8
431,997	0,8
432,453	0,8
432,909	0,8
433,365	0,79
433,821	0,79
434,277	0,79
434,734	0,79
435,19	0,79
435,646	0,79
436,102	0,79
436,558	0,79
437,014	0,79
437,47	0,79
437,925	0,79
438,381	0,79
438,837	0,79
439,293	0,79
439,749	0,79
440,205	0,79
440,66	0,79
441,116	0,79
441,572	0,79
442,027	0,79
442,483	0,79
442,939	0,79
443,394	0,79
443,85	0,79
444,305	0,79
444,761	0,8
445,216	0,8
445,672	0,8
446,127	0,8
446,582	0,8
447,038	0,8
447,493	0,8
447,948	0,8
448,403	0,8
448,859	0,8
449,314	0,8
449,769	0,8
450,224	0,8
450,679	0,8
451,134	0,8
451,589	0,8
452,044	0,8
452,499	0,8
452,954	0,8
453,409	0,8
453,864	0,8
454,319	0,8
454,774	0,8
455,229	0,8
455,684	0,8
456,138	0,8
456,593	0,8
457,048	0,8
457,503	0,8
457,957	0,8
458,412	0,8
458,866	0,8
459,321	0,81
459,776	0,81
460,23	0,81
460,685	0,81
461,139	0,81
461,593	0,81
462,048	0,81
462,502	0,81
462,957	0,81
463,411	0,82
463,865	0,82
464,319	0,82
464,774	0,82
465,228	0,82
465,682	0,82
466,136	0,82
466,59	0,82
467,044	0,82
467,499	0,82
467,953	0,82
468,407	0,82
468,861	0,82
469,315	0,83
469,768	0,83
470,222	0,83
470,676	0,83
471,13	0,83
471,584	0,83
472,038	0,83
472,491	0,83
472,945	0,83
473,399	0,83
473,852	0,84
474,306	0,84
474,76	0,84
475,213	0,84
475,667	0,84
476,12	0,84
476,574	0,84
477,027	0,85
477,481	0,85
477,934	0,85
478,388	0,85
478,841	0,85
479,294	0,86
479,748	0,86
480,201	0,86
480,654	0,86
481,107	0,86
481,561	0,87
482,014	0,87
482,467	0,87
482,92	0,87
483,373	0,87
483,826	0,87
484,279	0,88
484,732	0,88
485,185	0,88
485,638	0,88
486,091	0,89
486,544	0,89
486,997	0,89
487,449	0,89
487,902	0,9
488,355	0,9
488,808	0,9
489,26	0,9
489,713	0,91
490,166	0,91
490,618	0,91
491,071	0,92
491,523	0,92
491,976	0,92
492,429	0,93
492,881	0,93
493,333	0,93
493,786	0,94
494,238	0,94
494,691	0,94
495,143	0,95
495,595	0,95
496,048	0,96
496,5	0,96
496,952	0,96
497,404	0,97
497,856	0,97
498,309	0,98
498,761	0,98
499,213	0,98
499,665	0,99
500,117	0,99
500,569	1
501,021	1
501,473	1,01
501,925	1,01
502,377	1,02
502,828	1,02
503,28	1,02
503,732	1,03
504,184	1,03
504,636	1,04
505,087	1,04
505,539	1,04
505,991	1,05
506,442	1,05
506,894	1,06
507,345	1,06
507,797	1,07
508,249	1,07
508,7	1,08
509,151	1,08
509,603	1,09
510,054	1,09
510,506	1,1
510,957	1,1
511,408	1,1
511,86	1,11
512,311	1,11
512,762	1,11
513,213	1,12
513,665	1,12
514,116	1,13
514,567	1,13
515,018	1,13
515,469	1,14
515,92	1,14
516,371	1,14
516,822	1,15
517,273	1,15
517,724	1,15
518,175	1,16
518,626	1,16
519,076	1,16
519,527	1,16
519,978	1,17
520,429	1,17
520,88	1,17
521,33	1,17
521,781	1,17
522,232	1,18
522,682	1,18
523,133	1,18
523,583	1,18
524,034	1,18
524,484	1,18
524,935	1,18
525,385	1,19
525,836	1,19
526,286	1,19
526,736	1,19
527,187	1,19
527,637	1,19
528,087	1,19
528,538	1,18
528,988	1,18
529,438	1,18
529,888	1,18
530,338	1,18
530,788	1,18
531,238	1,18
531,688	1,17
532,139	1,17
532,589	1,17
533,038	1,17
533,488	1,17
533,938	1,16
534,388	1,16
534,838	1,16
535,288	1,15
535,738	1,15
536,187	1,15
536,637	1,14
537,087	1,14
537,537	1,13
537,986	1,13
538,436	1,13
538,885	1,12
539,335	1,11
539,785	1,11
540,234	1,1
540,684	1,1
541,133	1,09
541,582	1,09
542,032	1,08
542,481	1,08
542,931	1,07
543,38	1,07
543,829	1,06
544,278	1,05
544,728	1,05
545,177	1,04
545,626	1,04
546,075	1,03
546,524	1,03
546,973	1,02
547,422	1,02
547,871	1,01
548,32	1,01
548,769	1,01
549,218	1
549,667	1
550,116	0,99
550,565	0,99
551,014	0,98
551,463	0,98
551,911	0,97
552,36	0,97
552,809	0,96
553,258	0,96
553,706	0,95
554,155	0,95
554,603	0,94
555,052	0,94
555,501	0,93
555,949	0,93
556,398	0,92
556,846	0,91
557,294	0,91
557,743	0,9
558,191	0,9
558,64	0,89
559,088	0,88
559,536	0,88
559,985	0,87
560,433	0,87
560,881	0,86
561,329	0,86
561,777	0,85
562,225	0,85
562,674	0,84
563,122	0,84
563,57	0,84
564,018	0,83
564,466	0,83
564,914	0,82
565,362	0,82
565,809	0,81
566,257	0,81
566,705	0,8
567,153	0,8
567,601	0,79
568,048	0,79
568,496	0,78
568,944	0,78
569,392	0,77
569,839	0,77
570,287	0,76
570,734	0,76
571,182	0,76
571,63	0,75
572,077	0,75
572,525	0,74
572,972	0,74
573,419	0,74
573,867	0,73
574,314	0,73
574,761	0,72
575,209	0,72
575,656	0,71
576,103	0,71
576,551	0,71
576,998	0,7
577,445	0,7
577,892	0,7
578,339	0,69
578,786	0,69
579,233	0,69
579,68	0,68
580,127	0,68
580,574	0,68
581,021	0,67
581,468	0,67
581,915	0,67
582,362	0,66
582,809	0,66
583,255	0,66
583,702	0,66
584,149	0,65
584,596	0,65
585,042	0,65
585,489	0,64
585,936	0,64
586,382	0,64
586,829	0,64
587,275	0,63
587,722	0,63
588,168	0,63
588,615	0,62
589,061	0,62
589,508	0,62
589,954	0,62
590,4	0,62
590,847	0,61
591,293	0,61
591,739	0,61
592,185	0,61
592,632	0,61
593,078	0,6
593,524	0,6
593,97	0,6
594,416	0,6
594,862	0,6
595,308	0,6
595,754	0,6
596,2	0,59
596,646	0,59
597,092	0,59
597,538	0,59
597,984	0,58
598,43	0,58
598,876	0,58
599,321	0,58
599,767	0,58
600,213	0,58
600,659	0,57
601,104	0,57
601,55	0,57
601,995	0,57
602,441	0,57
602,887	0,57
603,332	0,56
603,778	0,56
604,223	0,56
604,668	0,56
605,114	0,56
605,559	0,56
606,005	0,56
606,45	0,56
606,895	0,56
607,341	0,55
607,786	0,55
608,231	0,55
608,676	0,55
609,121	0,54
609,566	0,53
610,012	0,53
610,457	0,52
610,902	0,52
611,347	0,52
611,792	0,51
612,237	0,51
612,682	0,51
613,127	0,51
613,571	0,51
614,016	0,51
614,461	0,52
614,906	0,52
615,351	0,52
615,795	0,52
616,24	0,52
616,685	0,52
617,129	0,52
617,574	0,52
618,019	0,52
618,463	0,52
618,908	0,52
619,352	0,52
619,797	0,52
620,241	0,52
620,686	0,52
621,13	0,52
621,574	0,51
622,019	0,51
622,463	0,51
622,907	0,51
623,352	0,51
623,796	0,51
624,24	0,51
624,684	0,51
625,128	0,51
625,572	0,51
626,016	0,51
626,461	0,51
626,905	0,5
627,349	0,5
627,793	0,5
628,236	0,5
628,68	0,5
629,124	0,5
629,568	0,5
630,012	0,5
630,456	0,5
630,9	0,5
631,343	0,5
631,787	0,5
632,231	0,5
632,674	0,5
633,118	0,5
633,562	0,5
634,005	0,5
634,449	0,5
634,892	0,5
635,336	0,5
635,779	0,49
636,223	0,49
636,666	0,49
637,109	0,49
637,553	0,49
637,996	0,49
638,439	0,49
638,883	0,49
639,326	0,49
639,769	0,49
640,212	0,49
640,655	0,49
641,099	0,49
641,542	0,49
641,985	0,49
642,428	0,49
642,871	0,49
643,314	0,48
643,757	0,48
644,2	0,48
644,643	0,48
645,085	0,48
645,528	0,48
645,971	0,48
646,414	0,48
646,857	0,48
647,299	0,48
647,742	0,48
648,185	0,48
648,627	0,48
649,07	0,48
649,513	0,48
649,955	0,48
650,398	0,48
650,84	0,48
651,283	0,48
651,725	0,48
652,168	0,48
652,61	0,48
653,052	0,48
653,495	0,47
653,937	0,39
654,379	0,33
654,821	0,33
655,264	0,34
655,706	0,34
656,148	0,34
656,59	0,34
657,032	0,34
657,474	0,34
657,916	0,34
658,358	0,33
658,8	0,39
659,242	0,47
659,684	0,47
660,126	0,47
660,568	0,47
661,01	0,47
661,452	0,47
661,894	0,47
662,335	0,47
662,777	0,47
663,219	0,47
663,661	0,47
664,102	0,47
664,544	0,47
664,985	0,47
665,427	0,47
665,869	0,47
666,31	0,47
666,752	0,47
667,193	0,47
667,634	0,47
668,076	0,47
668,517	0,47
668,959	0,47
669,4	0,47
669,841	0,47
670,282	0,47
670,724	0,47
671,165	0,47
671,606	0,47
672,047	0,46
672,488	0,46
672,929	0,46
673,37	0,46
673,811	0,46
674,252	0,46
674,693	0,46
675,134	0,46
675,575	0,46
676,016	0,46
676,457	0,46
676,898	0,46
677,339	0,46
677,78	0,46
678,22	0,46
678,661	0,46
679,102	0,46
679,542	0,46
679,983	0,46
680,424	0,46
680,864	0,46
681,305	0,46
681,745	0,46
682,186	0,46
682,626	0,46
683,067	0,46
683,507	0,46
683,948	0,46
684,388	0,46
684,828	0,46
685,269	0,46
685,709	0,46
686,149	0,46
686,589	0,46
687,029	0,45
687,47	0,45
687,91	0,45
688,35	0,45
688,79	0,45
689,23	0,45
689,67	0,45
690,11	0,45
690,55	0,45
690,99	0,45
691,43	0,45
691,87	0,45
692,31	0,45
692,749	0,45
693,189	0,44
693,629	0,44
694,069	0,44
694,508	0,44
694,948	0,44
695,388	0,44
695,827	0,44
696,267	0,44
696,706	0,44
697,146	0,45
697,586	0,45
698,025	0,45
698,464	0,45
698,904	0,45
699,343	0,45
699,783	0,45
700,222	0,45
700,661	0,45
701,101	0,45
701,54	0,45
701,979	0,45
702,418	0,45
702,857	0,45
703,297	0,45
703,736	0,45
704,175	0,45
704,614	0,45
705,053	0,45
705,492	0,45
705,931	0,45
706,37	0,45
706,809	0,45
707,248	0,45
707,687	0,44
708,125	0,44
708,564	0,44
709,003	0,44
709,442	0,44
709,88	0,44
710,319	0,44
710,758	0,44
711,196	0,44
711,635	0,44
712,074	0,44
712,512	0,44
712,951	0,44
713,389	0,44
713,828	0,44
714,266	0,44
714,705	0,44
715,143	0,44
715,581	0,44
716,02	0,44
716,458	0,44
716,896	0,44
717,334	0,44
717,773	0,44
718,211	0,44
718,649	0,44
719,087	0,44
719,525	0,44
719,963	0,44
720,401	0,44
720,839	0,44
721,277	0,44
721,715	0,44
722,153	0,44
722,591	0,44
723,029	0,44
723,467	0,44
723,905	0,44
724,342	0,44
724,78	0,44
725,218	0,44
725,656	0,44
726,093	0,44
726,531	0,44
726,969	0,44
727,406	0,44
727,844	0,44
728,281	0,43
728,719	0,43
729,156	0,43
729,594	0,43
730,031	0,43
730,469	0,43
730,906	0,43
731,343	0,43
731,781	0,43
732,218	0,43
732,655	0,43
733,092	0,43
733,53	0,43
733,967	0,43
734,404	0,43
734,841	0,43
735,278	0,43
735,715	0,43
736,152	0,43
736,589	0,43
737,026	0,43
737,463	0,43
737,9	0,43
738,337	0,43
738,774	0,43
739,211	0,43
739,647	0,43
740,084	0,43
740,521	0,43
740,958	0,43
741,394	0,43
741,831	0,43
742,268	0,43
742,704	0,43
743,141	0,43
743,577	0,43
744,014	0,43
744,45	0,43
744,887	0,42
745,323	0,42
745,76	0,42
746,196	0,42
746,632	0,42
747,069	0,42
747,505	0,42
747,941	0,42
748,378	0,42
748,814	0,42
749,25	0,42
749,686	0,42
750,122	0,42
750,558	0,42
750,994	0,43
751,43	0,43
751,866	0,43
752,302	0,43
752,738	0,43
753,174	0,43
753,61	0,43
754,046	0,43
754,482	0,43
754,918	0,42
755,354	0,42
755,789	0,42
756,225	0,42
756,661	0,42
757,096	0,42
757,532	0,42
757,968	0,42
758,403	0,42
758,839	0,41
759,274	0,41
759,71	0,41
760,145	0,4
760,581	0,4
761,016	0,39
761,452	0,39
761,887	0,38
762,322	0,38
762,758	0,37
763,193	0,37
763,628	0,36
764,063	0,36
764,499	0,35
764,934	0,35
765,369	0,34
765,804	0,33
766,239	0,33
766,674	0,32
767,109	0,31
767,544	0,3
767,979	0,29
768,414	0,29
768,849	0,28
769,284	0,27
769,719	0,26
770,154	0,25
770,588	0,24
771,023	0,23
771,458	0,22
771,893	0,21
772,327	0,2
772,762	0,19
773,197	0,17
773,631	0,17
774,066	0,16
774,5	0,15
774,935	0,14
775,369	0,13
775,804	0,12
776,238	0,1
776,673	0,1
777,107	0,09
777,541	0,08
777,976	0,07
778,41	0,06
778,844	0,05
779,279	0,04
779,713	0,04
780,147	0,03
780,581	0,02
781,015	0,01
781,449	0
781,883	-0,01
782,317	-0,02
782,751	-0,03
783,185	-0,03
783,619	-0,04
784,053	-0,06
784,487	-0,06
784,921	-0,07
785,355	-0,07
785,789	-0,08
786,223	-0,1
786,656	-0,11
787,09	-0,12
787,524	-0,12
787,957	-0,14
788,391	-0,16
788,825	-0,17
789,258	-0,19
789,692	-0,2
790,125	-0,22
790,559	-0,23
790,992	-0,25
791,426	-0,27
791,859	-0,29
792,293	-0,32
792,726	-0,33
793,159	-0,35
793,593	-0,37
794,026	-0,39
794,459	-0,42
794,892	-0,44
795,326	-0,47
795,759	-0,5
796,192	-0,54
796,625	-0,59
797,058	-0,61
797,491	-0,65
797,924	-0,69
798,357	-0,74
798,79	-0,78
799,223	-0,82
799,656	-0,87
800,089	-0,92
800,522	-0,96
800,955	-1
801,387	-1,06
801,82	-1,11
802,253	-1,18
802,686	-1,26
803,118	-1,31
803,551	-1,36
803,984	-1,4
804,416	-1,44
804,849	-1,47
805,281	-1,56
805,714	-1,88
806,146	-2,38
806,579	-2,67
807,011	-2,84
807,444	-2,94
807,876	-3,03
808,308	-3,06
808,741	-3,09
809,173	-3,14
809,605	-3,16
810,037	-3,24
810,47	-3,17
810,902	-2,98
811,334	-2,83
811,766	-2,67
812,198	-2,42
812,63	-1,98
813,062	-1,76
813,494	-1,67
813,926	-1,58
814,358	-1,53
814,79	-1,45
815,222	-1,39
815,654	-1,34
816,086	-1,28
816,518	-1,22
816,949	-1,17
817,381	-1,13
817,813	-1,11
818,245	-1,07
818,676	-1,03
819,108	-1
819,54	-0,99
819,971	-0,97
820,403	-0,91
820,834	-0,9
821,266	-0,86
821,697	-0,84
822,129	-0,82
822,56	-0,8
822,991	-0,78
823,423	-0,75
823,854	-0,74
824,286	-0,71
824,717	-0,7
825,148	-0,69
825,579	-0,68
826,01	-0,67
826,442	-0,66
826,873	-0,64
827,304	-0,6
827,735	-0,6
828,166	-0,6
828,597	-0,6
829,028	-0,6
829,459	-0,61
829,89	-0,61
830,321	-0,57
830,752	-0,57
831,183	-0,55
831,613	-0,55
832,044	-0,55
832,475	-0,54
832,906	-0,55
833,336	-0,56
833,767	-0,56
834,198	-0,55
834,628	-0,53
835,059	-0,56
835,49	-0,57
835,92	-0,55
836,351	-0,55
836,781	-0,55
837,212	-0,57
837,642	-0,56
838,072	-0,54
838,503	-0,54
838,933	-0,52
839,364	-0,52
839,794	-0,5
840,224	-0,49
840,654	-0,54
841,085	-0,54
841,515	-0,52
841,945	-0,52
842,375	-0,47
842,805	-0,46
843,235	-0,44
843,665	-0,46
844,095	-0,44
844,525	-0,46
844,955	-0,46
845,385	-0,43
845,815	-0,41
846,245	-0,44
846,675	-0,44
847,105	-0,47
847,534	-0,47
847,964	-0,46
848,394	-0,46
848,824	-0,49
849,253	-0,49
849,683	-0,49
850,112	-0,51
850,542	-0,54
850,972	-0,54
851,401	-0,52
851,831	-0,51
852,26	-0,51
852,69	-0,55
853,119	-0,54
853,548	-0,54
853,978	-0,55
854,407	-0,53
854,836	-0,53
855,266	-0,51
855,695	-0,53
856,124	-0,54
856,553	-0,55
856,983	-0,57
857,412	-0,56
857,841	-0,57
858,27	-0,58
858,699	-0,58
859,128	-0,61
859,557	-0,62
859,986	-0,63
860,415	-0,6
860,844	-0,58
861,273	-0,58
861,702	-0,58
862,13	-0,56
862,559	-0,58
862,988	-0,55
863,417	-0,55
863,845	-0,54
864,274	-0,55
864,703	-0,54
865,131	-0,55
865,56	-0,56
865,989	-0,59
866,417	-0,56
866,846	-0,57
867,274	-0,56
867,703	-0,58
868,131	-0,59
868,559	-0,59
868,988	-0,61
869,416	-0,6
869,844	-0,62
870,273	-0,64
870,701	-0,63
871,129	-0,65
871,557	-0,66
871,986	-0,67
872,414	-0,67
872,842	-0,64
873,27	-0,62
873,698	-0,59
874,126	-0,63
874,554	-0,62
874,982	-0,61
875,41	-0,64
875,838	-0,59
876,266	-0,57
876,694	-0,57
877,122	-0,56
877,549	-0,62
877,977	-0,59
878,405	-0,62
878,833	-0,6
879,26	-0,58
879,688	-0,58
880,116	-0,55
880,543	-0,54
880,971	-0,53
881,399	-0,56
881,826	-0,57
882,254	-0,55
882,681	-0,57
883,109	-0,52
883,536	-0,53
883,963	-0,55
884,391	-0,54
884,818	-0,52
885,245	-0,56
885,673	-0,58
886,1	-0,56
886,527	-0,56
886,954	-0,53
887,381	-0,55
887,809	-0,58
888,236	-0,59
888,663	-0,59
889,09	-0,63
889,517	-0,66
889,944	-0,66
890,371	-0,65
890,798	-0,64
891,225	-0,64
891,652	-0,68
892,078	-0,65
892,505	-0,68
892,932	-0,64
893,359	-0,64
893,786	-0,64
894,212	-0,6
894,639	-0,62
895,066	-0,64
895,492	-0,59
895,919	-0,59
896,346	-0,58
896,772	-0,58
897,199	-0,55
897,625	-0,57
898,052	-0,54
898,478	-0,52
898,904	-0,52
899,331	-0,52
899,757	-0,54
900,183	-0,55
900,61	-0,54
901,036	-0,55
901,462	-0,55
901,888	-0,55
902,315	-0,53
902,741	-0,58
903,167	-0,57
903,593	-0,61
904,019	-0,6
904,445	-0,57
904,871	-0,6
905,297	-0,62
905,723	-0,61
906,149	-0,6
906,575	-0,6
907,001	-0,61
907,427	-0,58
907,852	-0,58
908,278	-0,58
908,704	-0,56
909,13	-0,55
909,555	-0,54
909,981	-0,53
910,407	-0,54
910,832	-0,53
911,258	-0,54
911,684	-0,54
912,109	-0,53
912,535	-0,55
912,96	-0,52
913,386	-0,56
913,811	-0,55
914,236	-0,56
914,662	-0,54
915,087	-0,57
915,512	-0,58
915,938	-0,6
916,363	-0,58
916,788	-0,6
917,213	-0,58
917,639	-0,61
918,064	-0,58
918,489	-0,59
918,914	-0,59
919,339	-0,6
919,764	-0,57
920,189	-0,57
920,614	-0,59
921,039	-0,6
921,464	-0,55
921,889	-0,59
922,314	-0,6
922,738	-0,63
923,163	-0,65
923,588	-0,65
924,013	-0,65
924,437	-0,65
924,862	-0,66
925,287	-0,61
925,711	-0,62
926,136	-0,63
926,561	-0,62
926,985	-0,61
927,41	-0,57
927,834	-0,54
928,259	-0,51
928,683	-0,49
929,108	-0,46
929,532	-0,48
929,956	-0,47
930,381	-0,47
930,805	-0,46
931,229	-0,46
931,653	-0,44
932,078	-0,45
932,502	-0,46
932,926	-0,48
933,35	-0,49
933,774	-0,48
934,198	-0,46
934,622	-0,45
935,046	-0,46
935,47	-0,46
935,894	-0,46
936,318	-0,45
936,742	-0,45
937,166	-0,45
937,59	-0,45
938,014	-0,46
938,437	-0,48
938,861	-0,49
939,285	-0,5
939,709	-0,49
940,132	-0,49
940,556	-0,5
940,98	-0,5
941,403	-0,48
941,827	-0,48
942,25	-0,5
942,674	-0,49
943,097	-0,48
943,521	-0,48
943,944	-0,5
944,368	-0,49
944,791	-0,48
945,214	-0,5
945,638	-0,51
946,061	-0,55
946,484	-0,55
946,907	-0,53
947,331	-0,53
947,754	-0,57
948,177	-0,54
948,6	-0,54
949,023	-0,54
949,446	-0,54
949,869	-0,51
950,292	-0,51
950,715	-0,48
951,138	-0,47
951,561	-0,44
951,984	-0,44
952,407	-0,43
952,83	-0,42
953,252	-0,37
953,675	-0,37
954,098	-0,38
954,521	-0,37
954,943	-0,36
955,366	-0,37
955,789	-0,35
956,211	-0,37
956,634	-0,37
957,056	-0,35
957,479	-0,36
957,902	-0,38
958,324	-0,38
958,746	-0,37
959,169	-0,37
959,591	-0,38
960,014	-0,38
960,436	-0,39
960,858	-0,38
961,281	-0,38
961,703	-0,39
962,125	-0,38
962,547	-0,36
962,969	-0,37
963,391	-0,37
963,814	-0,38
964,236	-0,37
964,658	-0,34
965,08	-0,34
965,502	-0,34
965,924	-0,31
966,346	-0,32
966,768	-0,32
967,189	-0,34
967,611	-0,33
968,033	-0,33
968,455	-0,32
968,877	-0,32
969,298	-0,33
969,72	-0,34
970,142	-0,33
970,563	-0,34
970,985	-0,33
971,407	-0,31
971,828	-0,29
972,25	-0,28
972,671	-0,26
973,093	-0,26
973,514	-0,25
973,936	-0,23
974,357	-0,21
974,778	-0,22
975,2	-0,22
975,621	-0,21
976,042	-0,19
976,464	-0,18
976,885	-0,18
977,306	-0,18
977,727	-0,17
978,148	-0,16
978,57	-0,15
978,991	-0,13
979,412	-0,11
979,833	-0,1
980,254	-0,09
980,675	-0,09
981,096	-0,07
981,517	-0,06
981,937	-0,06
982,358	-0,05
982,779	-0,02
983,2	-0,03
983,621	-0,03
984,042	-0,01
984,462	0
984,883	0,01
985,304	0,02
985,724	0,03
986,145	0,05
986,565	0,07
986,986	0,08
987,407	0,09
987,827	0,11
988,248	0,12
988,668	0,13
989,088	0,14
989,509	0,16
989,929	0,17
990,35	0,18
990,77	0,19
991,19	0,2
991,61	0,22
992,031	0,22
992,451	0,24
992,871	0,25
993,291	0,26
993,711	0,27
994,131	0,28
994,551	0,29
994,971	0,3
995,391	0,3
995,811	0,31
996,231	0,32
996,651	0,32
997,071	0,33
997,491	0,34
997,911	0,34
998,331	0,35
998,75	0,36
999,17	0,36
999,59	0,37
1000,009	0,37
1000,429	0,37
1000,849	0,38
1001,268	0,39
1001,688	0,39
1002,107	0,39
1002,527	0,4
1002,946	0,4
1003,366	0,4
1003,785	0,41
1004,205	0,41
1004,624	0,41
1005,044	0,42
1005,463	0,42
1005,882	0,42
1006,301	0,42
1006,721	0,42
1007,14	0,42
1007,559	0,43
1007,978	0,43
1008,397	0,43
1008,816	0,43
1009,235	0,43
1009,655	0,43
1010,074	0,42
1010,492	0,42
1010,911	0,42
1011,33	0,42
1011,749	0,42
1012,168	0,42
1012,587	0,42
1013,006	0,42
1013,425	0,42
1013,843	0,42
1014,262	0,42
1014,681	0,42
1015,099	0,42
1015,518	0,42
1015,937	0,42
1016,355	0,42
1016,774	0,42
1017,192	0,42
1017,611	0,42
1018,029	0,42
1018,448	0,42
1018,866	0,41
1019,285	0,42
1019,703	0,42
1020,121	0,42
1020,54	0,42
1020,958	0,42
1021,376	0,42
1021,794	0,42
1022,213	0,42
1022,631	0,42
1023,049	0,42
1023,467	0,42
1023,885	0,41
1024,303	0,41
1024,721	0,41
1025,139	0,41
1025,557	0,41
1025,975	0,41
1026,393	0,41
1026,811	0,41
1027,229	0,41
1027,647	0,41
1028,065	0,41
1028,482	0,4
1028,9	0,4
1029,318	0,4
1029,735	0,4
1030,153	0,4
1030,571	0,4
1030,988	0,4
1031,406	0,4
1031,823	0,4
1032,241	0,4
1032,659	0,4
1033,076	0,4
1033,493	0,4
1033,911	0,4
1034,328	0,4
1034,746	0,4
1035,163	0,4
1035,58	0,4
1035,997	0,41
1036,415	0,41
1036,832	0,41
1037,249	0,4
1037,666	0,4
1038,083	0,4
1038,501	0,4
1038,918	0,4
1039,335	0,4
1039,752	0,4
1040,169	0,4
1040,586	0,4
1041,003	0,4
1041,419	0,4
1041,836	0,4
1042,253	0,4
1042,67	0,4
1043,087	0,4
1043,504	0,4
1043,92	0,4
1044,337	0,4
1044,754	0,4
1045,17	0,4
1045,587	0,4
1046,004	0,39
1046,42	0,4
1046,837	0,4
1047,253	0,4
1047,67	0,4
1048,086	0,4
1048,503	0,4
1048,919	0,4
1049,335	0,4
1049,752	0,4
1050,168	0,4
1050,584	0,4
1051,001	0,4
1051,417	0,4
1051,833	0,4
1052,249	0,4
1052,665	0,4
1053,081	0,4
1053,497	0,4
1053,914	0,41
1054,33	0,41
1054,746	0,41
1055,162	0,41
1055,578	0,41
1055,993	0,41
1056,409	0,41
1056,825	0,41
1057,241	0,41
1057,657	0,41
1058,073	0,41
1058,488	0,41
1058,904	0,41
1059,32	0,41
1059,736	0,41
1060,151	0,41
1060,567	0,41
1060,982	0,41
1061,398	0,41
1061,813	0,41
1062,229	0,41
1062,644	0,41
1063,06	0,41
1063,475	0,41
1063,891	0,41
1064,306	0,41
1064,721	0,41
1065,137	0,41
1065,552	0,41
1065,967	0,41
1066,382	0,41
1066,798	0,41
1067,213	0,41
1067,628	0,41
1068,043	0,41
1068,458	0,41
1068,873	0,41
1069,288	0,41
1069,703	0,41
1070,118	0,41
1070,533	0,41
1070,948	0,41
1071,363	0,41
1071,778	0,41
1072,193	0,41
1072,607	0,41
1073,022	0,41
1073,437	0,41
1073,852	0,41
1074,266	0,41
1074,681	0,41
1075,096	0,41
1075,51	0,41
1075,925	0,41
1076,339	0,41
1076,754	0,41
1077,168	0,41
1077,583	0,41
1077,997	0,41
1078,412	0,41
1078,826	0,41
1079,24	0,41
1079,655	0,4
1080,069	0,4
1080,483	0,4
1080,897	0,4
1081,312	0,4
1081,726	0,4
1082,14	0,4
1082,554	0,4
1082,968	0,4
1083,382	0,4
1083,796	0,39
1084,21	0,4
1084,624	0,39
1085,038	0,39
1085,452	0,39
1085,866	0,39
1086,28	0,39
1086,694	0,39
1087,108	0,39
1087,521	0,38
1087,935	0,38
1088,349	0,38
1088,763	0,38
1089,176	0,37
1089,59	0,37
1090,004	0,37
1090,417	0,37
1090,831	0,36
1091,244	0,36
1091,658	0,36
1092,071	0,35
1092,485	0,35
1092,898	0,35
1093,312	0,35
1093,725	0,34
1094,138	0,34
1094,552	0,34
1094,965	0,34
1095,378	0,34
1095,791	0,33
1096,205	0,33
1096,618	0,33
1097,031	0,33
1097,444	0,32
1097,857	0,32
1098,27	0,32
1098,683	0,31
1099,096	0,31
1099,509	0,31
1099,922	0,3
1100,335	0,3
1100,748	0,29
1101,161	0,28
1101,574	0,28
1101,986	0,28
1102,399	0,27
1102,812	0,27
1103,225	0,27
1103,637	0,27
1104,05	0,26
1104,463	0,26
1104,875	0,26
1105,288	0,25
1105,7	0,25
1106,113	0,25
1106,525	0,24
1106,938	0,24
1107,35	0,23
1107,763	0,23
1108,175	0,23
1108,588	0,22
1109	0,22
1109,412	0,21
1109,824	0,22
1110,237	0,22
1110,649	0,22
1111,061	0,2
