Data from 18C-808nm-8A-cont_Absorbance__220__01649.txt Node

Date: Mon Jul 17 17:25:45 CEST 2023
User: Laser008
Spectrometer: MAYP115816
Trigger mode: 0
Integration Time (sec): 2,500000E-1
Scans to average: 10
Electric dark correction enabled: true
Nonlinearity correction enabled: true
Boxcar width: 5
XAxis mode: Wavelengths
Number of Pixels in Spectrum: 2068
>>>>>Begin Spectral Data<<<<<
198,914	-0,69
199,384	-0,5
199,855	-0,38
200,325	-0,3
200,796	-0,27
201,266	-0,22
201,737	-0,2
202,207	-0,19
202,677	-0,18
203,147	-0,16
203,618	-0,14
204,088	-0,12
204,558	-0,1
205,028	-0,09
205,498	-0,1
205,968	-0,1
206,439	-0,12
206,909	-0,11
207,379	-0,11
207,849	-0,11
208,319	-0,12
208,789	-0,12
209,258	-0,12
209,728	-0,13
210,198	-0,14
210,668	-0,14
211,138	-0,13
211,608	-0,13
212,077	-0,13
212,547	-0,12
213,017	-0,13
213,486	-0,12
213,956	-0,14
214,426	-0,14
214,895	-0,14
215,365	-0,14
215,834	-0,14
216,304	-0,15
216,773	-0,15
217,243	-0,16
217,712	-0,18
218,181	-0,18
218,651	-0,18
219,12	-0,17
219,589	-0,17
220,058	-0,17
220,528	-0,18
220,997	-0,18
221,466	-0,19
221,935	-0,2
222,404	-0,2
222,873	-0,18
223,342	-0,18
223,812	-0,18
224,281	-0,18
224,749	-0,18
225,218	-0,2
225,687	-0,19
226,156	-0,18
226,625	-0,17
227,094	-0,16
227,563	-0,16
228,031	-0,18
228,5	-0,18
228,969	-0,19
229,438	-0,18
229,906	-0,17
230,375	-0,16
230,844	-0,17
231,312	-0,16
231,781	-0,17
232,249	-0,16
232,718	-0,16
233,186	-0,15
233,655	-0,15
234,123	-0,15
234,591	-0,16
235,06	-0,16
235,528	-0,16
235,996	-0,16
236,465	-0,16
236,933	-0,15
237,401	-0,15
237,869	-0,15
238,337	-0,15
238,805	-0,14
239,274	-0,14
239,742	-0,13
240,21	-0,13
240,678	-0,12
241,146	-0,11
241,614	-0,12
242,081	-0,11
242,549	-0,11
243,017	-0,12
243,485	-0,12
243,953	-0,12
244,421	-0,11
244,888	-0,11
245,356	-0,12
245,824	-0,12
246,291	-0,12
246,759	-0,12
247,227	-0,13
247,694	-0,12
248,162	-0,12
248,629	-0,11
249,097	-0,1
249,564	-0,11
250,032	-0,12
250,499	-0,12
250,967	-0,12
251,434	-0,12
251,901	-0,12
252,369	-0,12
252,836	-0,12
253,303	-0,14
253,77	-0,15
254,237	-0,15
254,705	-0,15
255,172	-0,14
255,639	-0,15
256,106	-0,16
256,573	-0,16
257,04	-0,17
257,507	-0,18
257,974	-0,19
258,441	-0,17
258,908	-0,18
259,375	-0,19
259,841	-0,19
260,308	-0,19
260,775	-0,19
261,242	-0,18
261,709	-0,19
262,175	-0,19
262,642	-0,18
263,109	-0,18
263,575	-0,19
264,042	-0,17
264,508	-0,17
264,975	-0,18
265,441	-0,19
265,908	-0,19
266,374	-0,19
266,841	-0,2
267,307	-0,2
267,773	-0,2
268,24	-0,19
268,706	-0,2
269,172	-0,2
269,639	-0,21
270,105	-0,2
270,571	-0,2
271,037	-0,2
271,503	-0,21
271,969	-0,2
272,435	-0,2
272,902	-0,22
273,368	-0,23
273,834	-0,23
274,3	-0,23
274,765	-0,24
275,231	-0,24
275,697	-0,24
276,163	-0,24
276,629	-0,23
277,095	-0,24
277,56	-0,23
278,026	-0,23
278,492	-0,21
278,958	-0,22
279,423	-0,22
279,889	-0,2
280,354	-0,2
280,82	-0,2
281,286	-0,21
281,751	-0,21
282,217	-0,19
282,682	-0,2
283,147	-0,2
283,613	-0,21
284,078	-0,21
284,544	-0,22
285,009	-0,23
285,474	-0,22
285,939	-0,24
286,405	-0,23
286,87	-0,22
287,335	-0,22
287,8	-0,22
288,265	-0,2
288,73	-0,22
289,195	-0,24
289,66	-0,23
290,125	-0,22
290,59	-0,22
291,055	-0,21
291,52	-0,21
291,985	-0,23
292,45	-0,24
292,915	-0,24
293,38	-0,24
293,844	-0,22
294,309	-0,2
294,774	-0,2
295,239	-0,2
295,703	-0,21
296,168	-0,2
296,632	-0,19
297,097	-0,18
297,562	-0,17
298,026	-0,17
298,491	-0,17
298,955	-0,17
299,419	-0,16
299,884	-0,17
300,348	-0,16
300,813	-0,16
301,277	-0,17
301,741	-0,16
302,205	-0,16
302,67	-0,15
303,134	-0,15
303,598	-0,15
304,062	-0,14
304,526	-0,13
304,99	-0,14
305,454	-0,14
305,919	-0,13
306,383	-0,13
306,847	-0,13
307,31	-0,13
307,774	-0,14
308,238	-0,14
308,702	-0,13
309,166	-0,16
309,63	-0,16
310,094	-0,13
310,557	-0,14
311,021	-0,13
311,485	-0,13
311,948	-0,13
312,412	-0,12
312,876	-0,12
313,339	-0,12
313,803	-0,13
314,266	-0,13
314,73	-0,13
315,193	-0,13
315,657	-0,12
316,12	-0,12
316,584	-0,11
317,047	-0,11
317,51	-0,09
317,973	-0,08
318,437	-0,07
318,9	-0,05
319,363	-0,05
319,826	-0,04
320,29	-0,06
320,753	-0,06
321,216	-0,05
321,679	-0,05
322,142	-0,05
322,605	-0,06
323,068	-0,06
323,531	-0,07
323,994	-0,06
324,457	-0,06
324,92	-0,05
325,382	-0,04
325,845	-0,03
326,308	-0,03
326,771	-0,03
327,233	-0,02
327,696	-0,01
328,159	-0
328,622	0
329,084	-0
329,547	0
330,009	-0
330,472	0,01
330,934	0,02
331,397	0,02
331,859	0,02
332,322	0,02
332,784	0,02
333,246	0,04
333,709	0,04
334,171	0,05
334,633	0,06
335,096	0,06
335,558	0,06
336,02	0,05
336,482	0,06
336,944	0,06
337,406	0,07
337,868	0,07
338,331	0,06
338,793	0,07
339,255	0,07
339,717	0,08
340,178	0,09
340,64	0,1
341,102	0,11
341,564	0,12
342,026	0,13
342,488	0,15
342,949	0,16
343,411	0,19
343,873	0,21
344,335	0,24
344,796	0,27
345,258	0,31
345,719	0,35
346,181	0,39
346,643	0,43
347,104	0,46
347,566	0,49
348,027	0,52
348,488	0,54
348,95	0,56
349,411	0,58
349,873	0,6
350,334	0,61
350,795	0,63
351,256	0,64
351,718	0,64
352,179	0,65
352,64	0,65
353,101	0,65
353,562	0,66
354,023	0,66
354,484	0,66
354,945	0,66
355,406	0,66
355,867	0,67
356,328	0,67
356,789	0,67
357,25	0,67
357,711	0,67
358,172	0,67
358,633	0,68
359,093	0,68
359,554	0,68
360,015	0,68
360,476	0,68
360,936	0,68
361,397	0,68
361,858	0,68
362,318	0,68
362,779	0,68
363,239	0,68
363,7	0,68
364,16	0,68
364,621	0,69
365,081	0,69
365,541	0,68
366,002	0,68
366,462	0,68
366,922	0,68
367,383	0,68
367,843	0,68
368,303	0,68
368,763	0,68
369,223	0,68
369,684	0,68
370,144	0,68
370,604	0,68
371,064	0,68
371,524	0,68
371,984	0,68
372,444	0,68
372,904	0,68
373,363	0,68
373,823	0,68
374,283	0,68
374,743	0,68
375,203	0,68
375,663	0,68
376,122	0,68
376,582	0,68
377,042	0,68
377,501	0,68
377,961	0,68
378,42	0,68
378,88	0,68
379,34	0,68
379,799	0,68
380,259	0,68
380,718	0,68
381,177	0,68
381,637	0,68
382,096	0,68
382,555	0,68
383,015	0,68
383,474	0,68
383,933	0,67
384,393	0,67
384,852	0,67
385,311	0,67
385,77	0,67
386,229	0,67
386,688	0,67
387,147	0,67
387,606	0,67
388,065	0,67
388,524	0,67
388,983	0,67
389,442	0,67
389,901	0,67
390,36	0,67
390,819	0,67
391,277	0,67
391,736	0,67
392,195	0,67
392,654	0,67
393,112	0,67
393,571	0,67
394,03	0,67
394,488	0,67
394,947	0,67
395,405	0,67
395,864	0,67
396,322	0,67
396,781	0,67
397,239	0,67
397,698	0,67
398,156	0,67
398,614	0,67
399,073	0,67
399,531	0,66
399,989	0,66
400,447	0,66
400,905	0,66
401,364	0,66
401,822	0,66
402,28	0,66
402,738	0,66
403,196	0,66
403,654	0,66
404,112	0,66
404,57	0,66
405,028	0,66
405,486	0,66
405,944	0,66
406,402	0,66
406,859	0,66
407,317	0,66
407,775	0,66
408,233	0,66
408,691	0,66
409,148	0,66
409,606	0,66
410,064	0,66
410,521	0,66
410,979	0,66
411,436	0,66
411,894	0,66
412,351	0,66
412,809	0,66
413,266	0,66
413,724	0,66
414,181	0,66
414,638	0,66
415,096	0,66
415,553	0,66
416,01	0,66
416,467	0,66
416,925	0,65
417,382	0,65
417,839	0,65
418,296	0,65
418,753	0,65
419,21	0,65
419,667	0,65
420,124	0,65
420,581	0,65
421,038	0,65
421,495	0,65
421,952	0,65
422,409	0,65
422,866	0,65
423,322	0,65
423,779	0,65
424,236	0,65
424,693	0,65
425,149	0,65
425,606	0,65
426,063	0,65
426,519	0,65
426,976	0,65
427,433	0,65
427,889	0,65
428,346	0,65
428,802	0,65
429,258	0,65
429,715	0,65
430,171	0,65
430,628	0,65
431,084	0,65
431,54	0,65
431,997	0,65
432,453	0,65
432,909	0,65
433,365	0,65
433,821	0,65
434,277	0,65
434,734	0,65
435,19	0,65
435,646	0,65
436,102	0,65
436,558	0,65
437,014	0,65
437,47	0,65
437,925	0,65
438,381	0,65
438,837	0,65
439,293	0,65
439,749	0,65
440,205	0,65
440,66	0,65
441,116	0,65
441,572	0,65
442,027	0,65
442,483	0,65
442,939	0,65
443,394	0,65
443,85	0,65
444,305	0,65
444,761	0,65
445,216	0,65
445,672	0,65
446,127	0,65
446,582	0,65
447,038	0,65
447,493	0,65
447,948	0,65
448,403	0,65
448,859	0,65
449,314	0,65
449,769	0,65
450,224	0,65
450,679	0,65
451,134	0,65
451,589	0,66
452,044	0,66
452,499	0,66
452,954	0,66
453,409	0,66
453,864	0,66
454,319	0,66
454,774	0,66
455,229	0,66
455,684	0,66
456,138	0,66
456,593	0,66
457,048	0,66
457,503	0,66
457,957	0,66
458,412	0,66
458,866	0,66
459,321	0,66
459,776	0,66
460,23	0,66
460,685	0,66
461,139	0,66
461,593	0,66
462,048	0,66
462,502	0,66
462,957	0,66
463,411	0,66
463,865	0,67
464,319	0,67
464,774	0,67
465,228	0,67
465,682	0,67
466,136	0,67
466,59	0,67
467,044	0,67
467,499	0,67
467,953	0,67
468,407	0,67
468,861	0,67
469,315	0,67
469,768	0,67
470,222	0,67
470,676	0,67
471,13	0,68
471,584	0,68
472,038	0,68
472,491	0,68
472,945	0,68
473,399	0,68
473,852	0,68
474,306	0,68
474,76	0,68
475,213	0,68
475,667	0,68
476,12	0,69
476,574	0,69
477,027	0,69
477,481	0,69
477,934	0,69
478,388	0,69
478,841	0,69
479,294	0,7
479,748	0,7
480,201	0,7
480,654	0,7
481,107	0,7
481,561	0,7
482,014	0,7
482,467	0,71
482,92	0,71
483,373	0,71
483,826	0,71
484,279	0,71
484,732	0,71
485,185	0,72
485,638	0,72
486,091	0,72
486,544	0,72
486,997	0,72
487,449	0,72
487,902	0,73
488,355	0,73
488,808	0,73
489,26	0,73
489,713	0,74
490,166	0,74
490,618	0,74
491,071	0,74
491,523	0,74
491,976	0,75
492,429	0,75
492,881	0,75
493,333	0,76
493,786	0,76
494,238	0,76
494,691	0,76
495,143	0,77
495,595	0,77
496,048	0,77
496,5	0,78
496,952	0,78
497,404	0,78
497,856	0,79
498,309	0,79
498,761	0,79
499,213	0,8
499,665	0,8
500,117	0,8
500,569	0,81
501,021	0,81
501,473	0,81
501,925	0,82
502,377	0,82
502,828	0,82
503,28	0,83
503,732	0,83
504,184	0,83
504,636	0,84
505,087	0,84
505,539	0,84
505,991	0,85
506,442	0,85
506,894	0,85
507,345	0,86
507,797	0,86
508,249	0,87
508,7	0,87
509,151	0,87
509,603	0,88
510,054	0,88
510,506	0,88
510,957	0,89
511,408	0,89
511,86	0,89
512,311	0,9
512,762	0,9
513,213	0,9
513,665	0,91
514,116	0,91
514,567	0,91
515,018	0,91
515,469	0,92
515,92	0,92
516,371	0,92
516,822	0,93
517,273	0,93
517,724	0,93
518,175	0,93
518,626	0,94
519,076	0,94
519,527	0,94
519,978	0,94
520,429	0,94
520,88	0,95
521,33	0,95
521,781	0,95
522,232	0,95
522,682	0,95
523,133	0,95
523,583	0,96
524,034	0,96
524,484	0,96
524,935	0,96
525,385	0,96
525,836	0,96
526,286	0,96
526,736	0,96
527,187	0,96
527,637	0,96
528,087	0,96
528,538	0,96
528,988	0,96
529,438	0,96
529,888	0,96
530,338	0,96
530,788	0,95
531,238	0,95
531,688	0,95
532,139	0,95
532,589	0,95
533,038	0,95
533,488	0,95
533,938	0,94
534,388	0,94
534,838	0,94
535,288	0,94
535,738	0,94
536,187	0,93
536,637	0,93
537,087	0,93
537,537	0,92
537,986	0,92
538,436	0,92
538,885	0,91
539,335	0,91
539,785	0,9
540,234	0,9
540,684	0,9
541,133	0,89
541,582	0,89
542,032	0,88
542,481	0,88
542,931	0,88
543,38	0,87
543,829	0,87
544,278	0,86
544,728	0,86
545,177	0,86
545,626	0,85
546,075	0,85
546,524	0,85
546,973	0,84
547,422	0,84
547,871	0,84
548,32	0,83
548,769	0,83
549,218	0,83
549,667	0,82
550,116	0,82
550,565	0,82
551,014	0,81
551,463	0,81
551,911	0,8
552,36	0,8
552,809	0,8
553,258	0,79
553,706	0,79
554,155	0,78
554,603	0,78
555,052	0,78
555,501	0,77
555,949	0,77
556,398	0,77
556,846	0,76
557,294	0,76
557,743	0,75
558,191	0,75
558,64	0,75
559,088	0,74
559,536	0,74
559,985	0,73
560,433	0,73
560,881	0,72
561,329	0,72
561,777	0,72
562,225	0,71
562,674	0,71
563,122	0,71
563,57	0,7
564,018	0,7
564,466	0,7
564,914	0,69
565,362	0,69
565,809	0,69
566,257	0,68
566,705	0,68
567,153	0,67
567,601	0,67
568,048	0,67
568,496	0,67
568,944	0,66
569,392	0,66
569,839	0,66
570,287	0,65
570,734	0,65
571,182	0,65
571,63	0,64
572,077	0,64
572,525	0,64
572,972	0,63
573,419	0,63
573,867	0,63
574,314	0,62
574,761	0,62
575,209	0,62
575,656	0,62
576,103	0,61
576,551	0,61
576,998	0,61
577,445	0,61
577,892	0,6
578,339	0,6
578,786	0,6
579,233	0,6
579,68	0,59
580,127	0,59
580,574	0,59
581,021	0,59
581,468	0,58
581,915	0,58
582,362	0,58
582,809	0,58
583,255	0,57
583,702	0,57
584,149	0,57
584,596	0,57
585,042	0,57
585,489	0,56
585,936	0,56
586,382	0,56
586,829	0,56
587,275	0,56
587,722	0,56
588,168	0,55
588,615	0,55
589,061	0,55
589,508	0,55
589,954	0,55
590,4	0,55
590,847	0,54
591,293	0,54
591,739	0,54
592,185	0,54
592,632	0,54
593,078	0,54
593,524	0,53
593,97	0,53
594,416	0,53
594,862	0,53
595,308	0,53
595,754	0,53
596,2	0,53
596,646	0,53
597,092	0,52
597,538	0,52
597,984	0,52
598,43	0,52
598,876	0,52
599,321	0,52
599,767	0,52
600,213	0,52
600,659	0,52
601,104	0,51
601,55	0,51
601,995	0,51
602,441	0,51
602,887	0,51
603,332	0,51
603,778	0,51
604,223	0,5
604,668	0,5
605,114	0,5
605,559	0,5
606,005	0,5
606,45	0,5
606,895	0,5
607,341	0,5
607,786	0,5
608,231	0,5
608,676	0,49
609,121	0,49
609,566	0,48
610,012	0,48
610,457	0,48
610,902	0,47
611,347	0,47
611,792	0,47
612,237	0,47
612,682	0,47
613,127	0,46
613,571	0,47
614,016	0,47
614,461	0,47
614,906	0,47
615,351	0,47
615,795	0,47
616,24	0,47
616,685	0,47
617,129	0,47
617,574	0,47
618,019	0,48
618,463	0,47
618,908	0,47
619,352	0,47
619,797	0,47
620,241	0,47
620,686	0,47
621,13	0,47
621,574	0,47
622,019	0,47
622,463	0,47
622,907	0,47
623,352	0,47
623,796	0,46
624,24	0,46
624,684	0,46
625,128	0,46
625,572	0,46
626,016	0,46
626,461	0,46
626,905	0,46
627,349	0,46
627,793	0,46
628,236	0,46
628,68	0,46
629,124	0,46
629,568	0,46
630,012	0,46
630,456	0,46
630,9	0,46
631,343	0,46
631,787	0,46
632,231	0,46
632,674	0,46
633,118	0,46
633,562	0,46
634,005	0,46
634,449	0,46
634,892	0,46
635,336	0,46
635,779	0,46
636,223	0,46
636,666	0,46
637,109	0,46
637,553	0,46
637,996	0,46
638,439	0,46
638,883	0,46
639,326	0,45
639,769	0,45
640,212	0,45
640,655	0,45
641,099	0,45
641,542	0,45
641,985	0,45
642,428	0,45
642,871	0,45
643,314	0,45
643,757	0,45
644,2	0,45
644,643	0,45
645,085	0,45
645,528	0,45
645,971	0,44
646,414	0,44
646,857	0,44
647,299	0,44
647,742	0,44
648,185	0,44
648,627	0,44
649,07	0,44
649,513	0,44
649,955	0,44
650,398	0,44
650,84	0,44
651,283	0,44
651,725	0,44
652,168	0,44
652,61	0,44
653,052	0,44
653,495	0,44
653,937	0,36
654,379	0,3
654,821	0,31
655,264	0,31
655,706	0,31
656,148	0,31
656,59	0,31
657,032	0,31
657,474	0,31
657,916	0,31
658,358	0,3
658,8	0,36
659,242	0,44
659,684	0,44
660,126	0,44
660,568	0,44
661,01	0,44
661,452	0,44
661,894	0,44
662,335	0,44
662,777	0,43
663,219	0,43
663,661	0,43
664,102	0,43
664,544	0,43
664,985	0,43
665,427	0,43
665,869	0,43
666,31	0,43
666,752	0,43
667,193	0,43
667,634	0,43
668,076	0,43
668,517	0,43
668,959	0,43
669,4	0,43
669,841	0,44
670,282	0,44
670,724	0,44
671,165	0,44
671,606	0,44
672,047	0,44
672,488	0,43
672,929	0,43
673,37	0,43
673,811	0,43
674,252	0,43
674,693	0,43
675,134	0,43
675,575	0,43
676,016	0,43
676,457	0,42
676,898	0,42
677,339	0,42
677,78	0,42
678,22	0,42
678,661	0,42
679,102	0,42
679,542	0,42
679,983	0,42
680,424	0,42
680,864	0,42
681,305	0,42
681,745	0,42
682,186	0,43
682,626	0,43
683,067	0,43
683,507	0,43
683,948	0,43
684,388	0,43
684,828	0,43
685,269	0,42
685,709	0,42
686,149	0,42
686,589	0,42
687,029	0,42
687,47	0,42
687,91	0,42
688,35	0,42
688,79	0,42
689,23	0,42
689,67	0,42
690,11	0,42
690,55	0,42
690,99	0,42
691,43	0,42
691,87	0,42
692,31	0,41
692,749	0,41
693,189	0,41
693,629	0,41
694,069	0,41
694,508	0,41
694,948	0,41
695,388	0,41
695,827	0,41
696,267	0,41
696,706	0,41
697,146	0,41
697,586	0,41
698,025	0,41
698,464	0,42
698,904	0,42
699,343	0,42
699,783	0,42
700,222	0,42
700,661	0,42
701,101	0,42
701,54	0,42
701,979	0,42
702,418	0,42
702,857	0,42
703,297	0,42
703,736	0,42
704,175	0,42
704,614	0,42
705,053	0,42
705,492	0,42
705,931	0,42
706,37	0,41
706,809	0,41
707,248	0,41
707,687	0,41
708,125	0,41
708,564	0,41
709,003	0,41
709,442	0,41
709,88	0,41
710,319	0,41
710,758	0,41
711,196	0,41
711,635	0,41
712,074	0,41
712,512	0,41
712,951	0,4
713,389	0,4
713,828	0,4
714,266	0,4
714,705	0,4
715,143	0,4
715,581	0,4
716,02	0,4
716,458	0,4
716,896	0,4
717,334	0,4
717,773	0,4
718,211	0,4
718,649	0,4
719,087	0,4
719,525	0,4
719,963	0,4
720,401	0,4
720,839	0,4
721,277	0,4
721,715	0,4
722,153	0,4
722,591	0,4
723,029	0,4
723,467	0,4
723,905	0,4
724,342	0,4
724,78	0,4
725,218	0,4
725,656	0,4
726,093	0,4
726,531	0,4
726,969	0,4
727,406	0,4
727,844	0,4
728,281	0,4
728,719	0,4
729,156	0,4
729,594	0,4
730,031	0,4
730,469	0,4
730,906	0,4
731,343	0,4
731,781	0,4
732,218	0,4
732,655	0,4
733,092	0,4
733,53	0,4
733,967	0,4
734,404	0,39
734,841	0,39
735,278	0,39
735,715	0,39
736,152	0,39
736,589	0,39
737,026	0,39
737,463	0,39
737,9	0,39
738,337	0,39
738,774	0,39
739,211	0,39
739,647	0,39
740,084	0,39
740,521	0,39
740,958	0,39
741,394	0,39
741,831	0,39
742,268	0,39
742,704	0,39
743,141	0,39
743,577	0,39
744,014	0,39
744,45	0,39
744,887	0,38
745,323	0,38
745,76	0,38
746,196	0,38
746,632	0,38
747,069	0,38
747,505	0,38
747,941	0,38
748,378	0,38
748,814	0,38
749,25	0,38
749,686	0,38
750,122	0,38
750,558	0,38
750,994	0,38
751,43	0,39
751,866	0,39
752,302	0,39
752,738	0,39
753,174	0,39
753,61	0,39
754,046	0,39
754,482	0,39
754,918	0,39
755,354	0,39
755,789	0,39
756,225	0,39
756,661	0,39
757,096	0,39
757,532	0,39
757,968	0,38
758,403	0,38
758,839	0,38
759,274	0,38
759,71	0,37
760,145	0,37
760,581	0,36
761,016	0,36
761,452	0,35
761,887	0,35
762,322	0,34
762,758	0,34
763,193	0,33
763,628	0,33
764,063	0,32
764,499	0,32
764,934	0,31
765,369	0,3
765,804	0,3
766,239	0,29
766,674	0,29
767,109	0,28
767,544	0,27
767,979	0,26
768,414	0,26
768,849	0,25
769,284	0,24
769,719	0,23
770,154	0,22
770,588	0,22
771,023	0,21
771,458	0,19
771,893	0,18
772,327	0,17
772,762	0,16
773,197	0,15
773,631	0,14
774,066	0,13
774,5	0,13
774,935	0,12
775,369	0,11
775,804	0,1
776,238	0,09
776,673	0,08
777,107	0,07
777,541	0,06
777,976	0,05
778,41	0,05
778,844	0,03
779,279	0,03
779,713	0,02
780,147	0,01
780,581	0,01
781,015	-0,01
781,449	-0,02
781,883	-0,02
782,317	-0,04
782,751	-0,05
783,185	-0,06
783,619	-0,07
784,053	-0,08
784,487	-0,08
784,921	-0,09
785,355	-0,1
785,789	-0,1
786,223	-0,11
786,656	-0,12
787,09	-0,13
787,524	-0,13
787,957	-0,14
788,391	-0,16
788,825	-0,18
789,258	-0,19
789,692	-0,2
790,125	-0,22
790,559	-0,24
790,992	-0,26
791,426	-0,29
791,859	-0,3
792,293	-0,33
792,726	-0,34
793,159	-0,36
793,593	-0,38
794,026	-0,4
794,459	-0,43
794,892	-0,46
795,326	-0,48
795,759	-0,52
796,192	-0,56
796,625	-0,6
797,058	-0,63
797,491	-0,67
797,924	-0,72
798,357	-0,77
798,79	-0,81
799,223	-0,85
799,656	-0,91
800,089	-0,96
800,522	-1
800,955	-1,04
801,387	-1,1
801,82	-1,15
802,253	-1,22
802,686	-1,29
803,118	-1,35
803,551	-1,4
803,984	-1,45
804,416	-1,48
804,849	-1,52
805,281	-1,62
805,714	-1,97
806,146	-2,44
806,579	-2,7
807,011	-2,87
807,444	-2,96
807,876	-3,05
808,308	-3,08
808,741	-3,11
809,173	-3,16
809,605	-3,18
810,037	-3,26
810,47	-3,18
810,902	-2,98
811,334	-2,83
811,766	-2,68
812,198	-2,43
812,63	-2,01
813,062	-1,79
813,494	-1,7
813,926	-1,61
814,358	-1,56
814,79	-1,48
815,222	-1,42
815,654	-1,37
816,086	-1,31
816,518	-1,25
816,949	-1,2
817,381	-1,16
817,813	-1,14
818,245	-1,1
818,676	-1,06
819,108	-1,03
819,54	-1,01
819,971	-0,99
820,403	-0,94
820,834	-0,93
821,266	-0,88
821,697	-0,86
822,129	-0,84
822,56	-0,81
822,991	-0,79
823,423	-0,76
823,854	-0,75
824,286	-0,72
824,717	-0,71
825,148	-0,69
825,579	-0,68
826,01	-0,66
826,442	-0,66
826,873	-0,64
827,304	-0,61
827,735	-0,6
828,166	-0,61
828,597	-0,61
829,028	-0,61
829,459	-0,61
829,89	-0,61
830,321	-0,57
830,752	-0,58
831,183	-0,57
831,613	-0,56
832,044	-0,56
832,475	-0,55
832,906	-0,56
833,336	-0,56
833,767	-0,56
834,198	-0,56
834,628	-0,54
835,059	-0,57
835,49	-0,58
835,92	-0,55
836,351	-0,55
836,781	-0,54
837,212	-0,56
837,642	-0,56
838,072	-0,54
838,503	-0,54
838,933	-0,51
839,364	-0,52
839,794	-0,5
840,224	-0,49
840,654	-0,53
841,085	-0,53
841,515	-0,51
841,945	-0,51
842,375	-0,46
842,805	-0,45
843,235	-0,44
843,665	-0,45
844,095	-0,45
844,525	-0,46
844,955	-0,46
845,385	-0,44
845,815	-0,43
846,245	-0,46
846,675	-0,47
847,105	-0,48
847,534	-0,48
847,964	-0,46
848,394	-0,46
848,824	-0,49
849,253	-0,48
849,683	-0,48
850,112	-0,49
850,542	-0,52
850,972	-0,52
851,401	-0,5
851,831	-0,49
852,26	-0,5
852,69	-0,54
853,119	-0,53
853,548	-0,54
853,978	-0,54
854,407	-0,52
854,836	-0,52
855,266	-0,52
855,695	-0,53
856,124	-0,54
856,553	-0,55
856,983	-0,56
857,412	-0,55
857,841	-0,56
858,27	-0,56
858,699	-0,57
859,128	-0,61
859,557	-0,61
859,986	-0,63
860,415	-0,61
860,844	-0,58
861,273	-0,58
861,702	-0,59
862,13	-0,58
862,559	-0,6
862,988	-0,57
863,417	-0,56
863,845	-0,55
864,274	-0,56
864,703	-0,56
865,131	-0,57
865,56	-0,58
865,989	-0,61
866,417	-0,58
866,846	-0,58
867,274	-0,56
867,703	-0,58
868,131	-0,59
868,559	-0,6
868,988	-0,62
869,416	-0,61
869,844	-0,62
870,273	-0,64
870,701	-0,62
871,129	-0,65
871,557	-0,68
871,986	-0,68
872,414	-0,7
872,842	-0,67
873,27	-0,65
873,698	-0,62
874,126	-0,65
874,554	-0,63
874,982	-0,63
875,41	-0,67
875,838	-0,62
876,266	-0,59
876,694	-0,6
877,122	-0,58
877,549	-0,63
877,977	-0,6
878,405	-0,63
878,833	-0,6
879,26	-0,59
879,688	-0,59
880,116	-0,57
880,543	-0,54
880,971	-0,54
881,399	-0,57
881,826	-0,58
882,254	-0,55
882,681	-0,6
883,109	-0,55
883,536	-0,57
883,963	-0,59
884,391	-0,56
884,818	-0,55
885,245	-0,6
885,673	-0,62
886,1	-0,59
886,527	-0,58
886,954	-0,56
887,381	-0,57
887,809	-0,59
888,236	-0,6
888,663	-0,6
889,09	-0,64
889,517	-0,66
889,944	-0,65
890,371	-0,63
890,798	-0,64
891,225	-0,64
891,652	-0,67
892,078	-0,64
892,505	-0,67
892,932	-0,62
893,359	-0,63
893,786	-0,63
894,212	-0,6
894,639	-0,61
895,066	-0,63
895,492	-0,58
895,919	-0,58
896,346	-0,58
896,772	-0,58
897,199	-0,55
897,625	-0,57
898,052	-0,54
898,478	-0,52
898,904	-0,54
899,331	-0,53
899,757	-0,55
900,183	-0,57
900,61	-0,55
901,036	-0,55
901,462	-0,55
901,888	-0,55
902,315	-0,54
902,741	-0,59
903,167	-0,57
903,593	-0,59
904,019	-0,58
904,445	-0,55
904,871	-0,58
905,297	-0,6
905,723	-0,6
906,149	-0,6
906,575	-0,6
907,001	-0,6
907,427	-0,57
907,852	-0,57
908,278	-0,57
908,704	-0,55
909,13	-0,55
909,555	-0,54
909,981	-0,54
910,407	-0,54
910,832	-0,53
911,258	-0,55
911,684	-0,55
912,109	-0,55
912,535	-0,56
912,96	-0,52
913,386	-0,55
913,811	-0,55
914,236	-0,57
914,662	-0,55
915,087	-0,58
915,512	-0,59
915,938	-0,6
916,363	-0,59
916,788	-0,6
917,213	-0,58
917,639	-0,64
918,064	-0,62
918,489	-0,61
918,914	-0,61
919,339	-0,63
919,764	-0,6
920,189	-0,58
920,614	-0,61
921,039	-0,62
921,464	-0,58
921,889	-0,59
922,314	-0,6
922,738	-0,63
923,163	-0,65
923,588	-0,64
924,013	-0,65
924,437	-0,64
924,862	-0,65
925,287	-0,61
925,711	-0,61
926,136	-0,62
926,561	-0,61
926,985	-0,59
927,41	-0,56
927,834	-0,54
928,259	-0,51
928,683	-0,49
929,108	-0,46
929,532	-0,47
929,956	-0,46
930,381	-0,45
930,805	-0,46
931,229	-0,46
931,653	-0,44
932,078	-0,45
932,502	-0,45
932,926	-0,47
933,35	-0,47
933,774	-0,46
934,198	-0,45
934,622	-0,42
935,046	-0,43
935,47	-0,44
935,894	-0,43
936,318	-0,43
936,742	-0,43
937,166	-0,44
937,59	-0,44
938,014	-0,46
938,437	-0,47
938,861	-0,49
939,285	-0,51
939,709	-0,5
940,132	-0,51
940,556	-0,51
940,98	-0,51
941,403	-0,5
941,827	-0,49
942,25	-0,51
942,674	-0,49
943,097	-0,49
943,521	-0,49
943,944	-0,49
944,368	-0,48
944,791	-0,46
945,214	-0,48
945,638	-0,48
946,061	-0,52
946,484	-0,53
946,907	-0,51
947,331	-0,52
947,754	-0,55
948,177	-0,52
948,6	-0,52
949,023	-0,52
949,446	-0,53
949,869	-0,5
950,292	-0,51
950,715	-0,47
951,138	-0,46
951,561	-0,43
951,984	-0,43
952,407	-0,42
952,83	-0,41
953,252	-0,38
953,675	-0,37
954,098	-0,38
954,521	-0,37
954,943	-0,37
955,366	-0,37
955,789	-0,35
956,211	-0,37
956,634	-0,38
957,056	-0,35
957,479	-0,37
957,902	-0,39
958,324	-0,39
958,746	-0,37
959,169	-0,38
959,591	-0,38
960,014	-0,39
960,436	-0,38
960,858	-0,38
961,281	-0,37
961,703	-0,38
962,125	-0,38
962,547	-0,36
962,969	-0,37
963,391	-0,38
963,814	-0,39
964,236	-0,38
964,658	-0,35
965,08	-0,36
965,502	-0,35
965,924	-0,33
966,346	-0,33
966,768	-0,32
967,189	-0,34
967,611	-0,33
968,033	-0,33
968,455	-0,31
968,877	-0,32
969,298	-0,33
969,72	-0,34
970,142	-0,34
970,563	-0,34
970,985	-0,32
971,407	-0,32
971,828	-0,3
972,25	-0,29
972,671	-0,28
973,093	-0,27
973,514	-0,26
973,936	-0,25
974,357	-0,23
974,778	-0,22
975,2	-0,22
975,621	-0,22
976,042	-0,19
976,464	-0,19
976,885	-0,18
977,306	-0,17
977,727	-0,16
978,148	-0,14
978,57	-0,13
978,991	-0,12
979,412	-0,11
979,833	-0,1
980,254	-0,09
980,675	-0,1
981,096	-0,08
981,517	-0,06
981,937	-0,06
982,358	-0,05
982,779	-0,03
983,2	-0,03
983,621	-0,03
984,042	-0,01
984,462	0
984,883	0,02
985,304	0,03
985,724	0,04
986,145	0,04
986,565	0,06
986,986	0,06
987,407	0,07
987,827	0,09
988,248	0,1
988,668	0,11
989,088	0,12
989,509	0,13
989,929	0,14
990,35	0,15
990,77	0,17
991,19	0,18
991,61	0,19
992,031	0,21
992,451	0,21
992,871	0,22
993,291	0,23
993,711	0,24
994,131	0,25
994,551	0,26
994,971	0,26
995,391	0,27
995,811	0,27
996,231	0,27
996,651	0,28
997,071	0,29
997,491	0,29
997,911	0,3
998,331	0,31
998,75	0,31
999,17	0,32
999,59	0,32
1000,009	0,32
1000,429	0,33
1000,849	0,33
1001,268	0,34
1001,688	0,34
1002,107	0,34
1002,527	0,35
1002,946	0,35
1003,366	0,35
1003,785	0,36
1004,205	0,36
1004,624	0,36
1005,044	0,36
1005,463	0,36
1005,882	0,37
1006,301	0,37
1006,721	0,37
1007,14	0,37
1007,559	0,37
1007,978	0,37
1008,397	0,37
1008,816	0,37
1009,235	0,37
1009,655	0,37
1010,074	0,37
1010,492	0,37
1010,911	0,37
1011,33	0,37
1011,749	0,37
1012,168	0,37
1012,587	0,37
1013,006	0,37
1013,425	0,37
1013,843	0,36
1014,262	0,36
1014,681	0,36
1015,099	0,36
1015,518	0,36
1015,937	0,36
1016,355	0,36
1016,774	0,36
1017,192	0,36
1017,611	0,36
1018,029	0,36
1018,448	0,36
1018,866	0,36
1019,285	0,36
1019,703	0,36
1020,121	0,36
1020,54	0,36
1020,958	0,36
1021,376	0,36
1021,794	0,36
1022,213	0,36
1022,631	0,36
1023,049	0,36
1023,467	0,35
1023,885	0,35
1024,303	0,35
1024,721	0,35
1025,139	0,35
1025,557	0,35
1025,975	0,35
1026,393	0,35
1026,811	0,35
1027,229	0,35
1027,647	0,35
1028,065	0,35
1028,482	0,35
1028,9	0,35
1029,318	0,35
1029,735	0,35
1030,153	0,35
1030,571	0,35
1030,988	0,35
1031,406	0,35
1031,823	0,35
1032,241	0,35
1032,659	0,35
1033,076	0,35
1033,493	0,35
1033,911	0,35
1034,328	0,35
1034,746	0,35
1035,163	0,35
1035,58	0,35
1035,997	0,35
1036,415	0,35
1036,832	0,35
1037,249	0,35
1037,666	0,35
1038,083	0,35
1038,501	0,35
1038,918	0,35
1039,335	0,35
1039,752	0,35
1040,169	0,35
1040,586	0,35
1041,003	0,35
1041,419	0,35
1041,836	0,35
1042,253	0,35
1042,67	0,35
1043,087	0,35
1043,504	0,35
1043,92	0,35
1044,337	0,35
1044,754	0,35
1045,17	0,35
1045,587	0,35
1046,004	0,35
1046,42	0,35
1046,837	0,35
1047,253	0,35
1047,67	0,35
1048,086	0,35
1048,503	0,35
1048,919	0,35
1049,335	0,35
1049,752	0,35
1050,168	0,35
1050,584	0,35
1051,001	0,35
1051,417	0,35
1051,833	0,35
1052,249	0,35
1052,665	0,35
1053,081	0,35
1053,497	0,35
1053,914	0,35
1054,33	0,35
1054,746	0,35
1055,162	0,36
1055,578	0,36
1055,993	0,36
1056,409	0,36
1056,825	0,36
1057,241	0,36
1057,657	0,36
1058,073	0,36
1058,488	0,36
1058,904	0,36
1059,32	0,36
1059,736	0,36
1060,151	0,36
1060,567	0,36
1060,982	0,36
1061,398	0,35
1061,813	0,35
1062,229	0,35
1062,644	0,35
1063,06	0,35
1063,475	0,35
1063,891	0,35
1064,306	0,35
1064,721	0,35
1065,137	0,35
1065,552	0,35
1065,967	0,35
1066,382	0,35
1066,798	0,35
1067,213	0,35
1067,628	0,35
1068,043	0,35
1068,458	0,35
1068,873	0,35
1069,288	0,35
1069,703	0,35
1070,118	0,35
1070,533	0,35
1070,948	0,35
1071,363	0,35
1071,778	0,35
1072,193	0,35
1072,607	0,35
1073,022	0,35
1073,437	0,35
1073,852	0,35
1074,266	0,35
1074,681	0,35
1075,096	0,35
1075,51	0,35
1075,925	0,35
1076,339	0,35
1076,754	0,35
1077,168	0,35
1077,583	0,35
1077,997	0,35
1078,412	0,35
1078,826	0,35
1079,24	0,35
1079,655	0,35
1080,069	0,35
1080,483	0,35
1080,897	0,35
1081,312	0,35
1081,726	0,35
1082,14	0,35
1082,554	0,34
1082,968	0,34
1083,382	0,34
1083,796	0,34
1084,21	0,34
1084,624	0,34
1085,038	0,34
1085,452	0,34
1085,866	0,34
1086,28	0,33
1086,694	0,33
1087,108	0,33
1087,521	0,33
1087,935	0,33
1088,349	0,33
1088,763	0,32
1089,176	0,32
1089,59	0,32
1090,004	0,32
1090,417	0,32
1090,831	0,31
1091,244	0,31
1091,658	0,31
1092,071	0,3
1092,485	0,3
1092,898	0,3
1093,312	0,3
1093,725	0,29
1094,138	0,29
1094,552	0,29
1094,965	0,29
1095,378	0,29
1095,791	0,28
1096,205	0,28
1096,618	0,28
1097,031	0,28
1097,444	0,27
1097,857	0,27
1098,27	0,27
1098,683	0,27
1099,096	0,26
1099,509	0,26
1099,922	0,26
1100,335	0,25
1100,748	0,25
1101,161	0,24
1101,574	0,24
1101,986	0,24
1102,399	0,24
1102,812	0,23
1103,225	0,23
1103,637	0,23
1104,05	0,22
1104,463	0,22
1104,875	0,22
1105,288	0,22
1105,7	0,22
1106,113	0,21
1106,525	0,21
1106,938	0,2
1107,35	0,2
1107,763	0,2
1108,175	0,19
1108,588	0,19
1109	0,18
1109,412	0,18
1109,824	0,18
1110,237	0,17
1110,649	0,17
1111,061	0,17
