Data from 18C-808nm-8A-cont_Absorbance__390__01819.txt Node

Date: Mon Jul 17 17:32:50 CEST 2023
User: Laser008
Spectrometer: MAYP115816
Trigger mode: 0
Integration Time (sec): 2,500000E-1
Scans to average: 10
Electric dark correction enabled: true
Nonlinearity correction enabled: true
Boxcar width: 5
XAxis mode: Wavelengths
Number of Pixels in Spectrum: 2068
>>>>>Begin Spectral Data<<<<<
198,914	-0,73
199,384	-0,5
199,855	-0,38
200,325	-0,29
200,796	-0,26
201,266	-0,21
201,737	-0,19
202,207	-0,17
202,677	-0,17
203,147	-0,15
203,618	-0,12
204,088	-0,1
204,558	-0,08
205,028	-0,07
205,498	-0,09
205,968	-0,08
206,439	-0,09
206,909	-0,08
207,379	-0,09
207,849	-0,08
208,319	-0,09
208,789	-0,1
209,258	-0,1
209,728	-0,12
210,198	-0,12
210,668	-0,12
211,138	-0,11
211,608	-0,11
212,077	-0,12
212,547	-0,1
213,017	-0,11
213,486	-0,11
213,956	-0,11
214,426	-0,13
214,895	-0,11
215,365	-0,12
215,834	-0,12
216,304	-0,12
216,773	-0,12
217,243	-0,15
217,712	-0,16
218,181	-0,17
218,651	-0,17
219,12	-0,16
219,589	-0,15
220,058	-0,14
220,528	-0,15
220,997	-0,15
221,466	-0,16
221,935	-0,17
222,404	-0,16
222,873	-0,14
223,342	-0,13
223,812	-0,13
224,281	-0,13
224,749	-0,13
225,218	-0,16
225,687	-0,15
226,156	-0,15
226,625	-0,14
227,094	-0,14
227,563	-0,14
228,031	-0,16
228,5	-0,17
228,969	-0,18
229,438	-0,17
229,906	-0,16
230,375	-0,15
230,844	-0,15
231,312	-0,15
231,781	-0,16
232,249	-0,16
232,718	-0,16
233,186	-0,13
233,655	-0,13
234,123	-0,13
234,591	-0,13
235,06	-0,14
235,528	-0,14
235,996	-0,14
236,465	-0,14
236,933	-0,13
237,401	-0,12
237,869	-0,12
238,337	-0,12
238,805	-0,1
239,274	-0,09
239,742	-0,1
240,21	-0,08
240,678	-0,08
241,146	-0,07
241,614	-0,08
242,081	-0,08
242,549	-0,07
243,017	-0,08
243,485	-0,08
243,953	-0,08
244,421	-0,08
244,888	-0,08
245,356	-0,08
245,824	-0,08
246,291	-0,08
246,759	-0,09
247,227	-0,09
247,694	-0,09
248,162	-0,08
248,629	-0,08
249,097	-0,09
249,564	-0,1
250,032	-0,11
250,499	-0,12
250,967	-0,12
251,434	-0,13
251,901	-0,12
252,369	-0,13
252,836	-0,14
253,303	-0,15
253,77	-0,17
254,237	-0,16
254,705	-0,16
255,172	-0,15
255,639	-0,15
256,106	-0,16
256,573	-0,16
257,04	-0,16
257,507	-0,15
257,974	-0,16
258,441	-0,14
258,908	-0,14
259,375	-0,15
259,841	-0,16
260,308	-0,16
260,775	-0,16
261,242	-0,15
261,709	-0,17
262,175	-0,18
262,642	-0,18
263,109	-0,18
263,575	-0,19
264,042	-0,18
264,508	-0,18
264,975	-0,19
265,441	-0,2
265,908	-0,2
266,374	-0,19
266,841	-0,19
267,307	-0,2
267,773	-0,19
268,24	-0,2
268,706	-0,2
269,172	-0,2
269,639	-0,21
270,105	-0,2
270,571	-0,21
271,037	-0,21
271,503	-0,21
271,969	-0,21
272,435	-0,2
272,902	-0,21
273,368	-0,22
273,834	-0,22
274,3	-0,22
274,765	-0,23
275,231	-0,22
275,697	-0,21
276,163	-0,21
276,629	-0,21
277,095	-0,22
277,56	-0,21
278,026	-0,22
278,492	-0,2
278,958	-0,2
279,423	-0,2
279,889	-0,19
280,354	-0,2
280,82	-0,2
281,286	-0,21
281,751	-0,21
282,217	-0,2
282,682	-0,19
283,147	-0,19
283,613	-0,2
284,078	-0,2
284,544	-0,21
285,009	-0,22
285,474	-0,21
285,939	-0,23
286,405	-0,22
286,87	-0,21
287,335	-0,21
287,8	-0,2
288,265	-0,19
288,73	-0,21
289,195	-0,22
289,66	-0,21
290,125	-0,2
290,59	-0,19
291,055	-0,18
291,52	-0,18
291,985	-0,19
292,45	-0,21
292,915	-0,21
293,38	-0,21
293,844	-0,19
294,309	-0,18
294,774	-0,17
295,239	-0,19
295,703	-0,2
296,168	-0,18
296,632	-0,18
297,097	-0,15
297,562	-0,14
298,026	-0,15
298,491	-0,15
298,955	-0,15
299,419	-0,14
299,884	-0,14
300,348	-0,13
300,813	-0,12
301,277	-0,13
301,741	-0,14
302,205	-0,14
302,67	-0,14
303,134	-0,13
303,598	-0,13
304,062	-0,12
304,526	-0,12
304,99	-0,14
305,454	-0,14
305,919	-0,14
306,383	-0,13
306,847	-0,13
307,31	-0,14
307,774	-0,15
308,238	-0,15
308,702	-0,15
309,166	-0,16
309,63	-0,17
310,094	-0,14
310,557	-0,13
311,021	-0,13
311,485	-0,14
311,948	-0,13
312,412	-0,12
312,876	-0,11
313,339	-0,11
313,803	-0,11
314,266	-0,11
314,73	-0,11
315,193	-0,11
315,657	-0,09
316,12	-0,09
316,584	-0,08
317,047	-0,08
317,51	-0,07
317,973	-0,07
318,437	-0,06
318,9	-0,05
319,363	-0,04
319,826	-0,04
320,29	-0,05
320,753	-0,05
321,216	-0,04
321,679	-0,04
322,142	-0,04
322,605	-0,05
323,068	-0,05
323,531	-0,05
323,994	-0,04
324,457	-0,04
324,92	-0,03
325,382	-0,03
325,845	-0,03
326,308	-0,02
326,771	-0,01
327,233	-0,01
327,696	0
328,159	0,01
328,622	0,02
329,084	0,02
329,547	0,02
330,009	0,02
330,472	0,04
330,934	0,04
331,397	0,05
331,859	0,05
332,322	0,05
332,784	0,05
333,246	0,05
333,709	0,05
334,171	0,05
334,633	0,06
335,096	0,06
335,558	0,06
336,02	0,06
336,482	0,06
336,944	0,07
337,406	0,08
337,868	0,08
338,331	0,09
338,793	0,1
339,255	0,11
339,717	0,12
340,178	0,13
340,64	0,14
341,102	0,15
341,564	0,16
342,026	0,17
342,488	0,18
342,949	0,2
343,411	0,23
343,873	0,26
344,335	0,29
344,796	0,32
345,258	0,37
345,719	0,42
346,181	0,47
346,643	0,51
347,104	0,55
347,566	0,58
348,027	0,62
348,488	0,64
348,95	0,66
349,411	0,69
349,873	0,72
350,334	0,74
350,795	0,76
351,256	0,77
351,718	0,78
352,179	0,78
352,64	0,79
353,101	0,79
353,562	0,8
354,023	0,8
354,484	0,8
354,945	0,81
355,406	0,81
355,867	0,81
356,328	0,82
356,789	0,83
357,25	0,83
357,711	0,83
358,172	0,83
358,633	0,83
359,093	0,83
359,554	0,84
360,015	0,84
360,476	0,84
360,936	0,84
361,397	0,84
361,858	0,84
362,318	0,84
362,779	0,84
363,239	0,84
363,7	0,84
364,16	0,84
364,621	0,84
365,081	0,84
365,541	0,84
366,002	0,84
366,462	0,84
366,922	0,84
367,383	0,84
367,843	0,84
368,303	0,84
368,763	0,84
369,223	0,84
369,684	0,84
370,144	0,84
370,604	0,84
371,064	0,84
371,524	0,84
371,984	0,84
372,444	0,84
372,904	0,84
373,363	0,84
373,823	0,84
374,283	0,84
374,743	0,84
375,203	0,84
375,663	0,84
376,122	0,84
376,582	0,84
377,042	0,84
377,501	0,84
377,961	0,84
378,42	0,84
378,88	0,84
379,34	0,84
379,799	0,84
380,259	0,84
380,718	0,83
381,177	0,83
381,637	0,83
382,096	0,83
382,555	0,83
383,015	0,83
383,474	0,83
383,933	0,83
384,393	0,83
384,852	0,83
385,311	0,83
385,77	0,83
386,229	0,83
386,688	0,83
387,147	0,83
387,606	0,83
388,065	0,83
388,524	0,83
388,983	0,83
389,442	0,83
389,901	0,83
390,36	0,83
390,819	0,83
391,277	0,83
391,736	0,83
392,195	0,83
392,654	0,83
393,112	0,83
393,571	0,83
394,03	0,83
394,488	0,83
394,947	0,83
395,405	0,83
395,864	0,82
396,322	0,82
396,781	0,82
397,239	0,82
397,698	0,82
398,156	0,82
398,614	0,82
399,073	0,82
399,531	0,82
399,989	0,82
400,447	0,82
400,905	0,82
401,364	0,82
401,822	0,82
402,28	0,82
402,738	0,82
403,196	0,82
403,654	0,82
404,112	0,82
404,57	0,82
405,028	0,82
405,486	0,82
405,944	0,82
406,402	0,82
406,859	0,82
407,317	0,82
407,775	0,82
408,233	0,82
408,691	0,82
409,148	0,82
409,606	0,82
410,064	0,82
410,521	0,82
410,979	0,82
411,436	0,82
411,894	0,82
412,351	0,82
412,809	0,81
413,266	0,81
413,724	0,81
414,181	0,81
414,638	0,81
415,096	0,81
415,553	0,81
416,01	0,81
416,467	0,81
416,925	0,81
417,382	0,81
417,839	0,81
418,296	0,81
418,753	0,81
419,21	0,81
419,667	0,81
420,124	0,81
420,581	0,81
421,038	0,81
421,495	0,81
421,952	0,81
422,409	0,81
422,866	0,81
423,322	0,81
423,779	0,81
424,236	0,81
424,693	0,81
425,149	0,81
425,606	0,81
426,063	0,81
426,519	0,81
426,976	0,81
427,433	0,81
427,889	0,81
428,346	0,81
428,802	0,81
429,258	0,81
429,715	0,81
430,171	0,81
430,628	0,81
431,084	0,81
431,54	0,81
431,997	0,81
432,453	0,81
432,909	0,81
433,365	0,81
433,821	0,81
434,277	0,81
434,734	0,81
435,19	0,81
435,646	0,81
436,102	0,81
436,558	0,81
437,014	0,81
437,47	0,81
437,925	0,81
438,381	0,81
438,837	0,81
439,293	0,81
439,749	0,81
440,205	0,81
440,66	0,81
441,116	0,81
441,572	0,81
442,027	0,81
442,483	0,81
442,939	0,81
443,394	0,81
443,85	0,81
444,305	0,81
444,761	0,81
445,216	0,81
445,672	0,81
446,127	0,81
446,582	0,81
447,038	0,81
447,493	0,81
447,948	0,81
448,403	0,81
448,859	0,81
449,314	0,81
449,769	0,82
450,224	0,82
450,679	0,82
451,134	0,82
451,589	0,82
452,044	0,82
452,499	0,82
452,954	0,82
453,409	0,82
453,864	0,82
454,319	0,82
454,774	0,82
455,229	0,82
455,684	0,82
456,138	0,82
456,593	0,82
457,048	0,82
457,503	0,82
457,957	0,82
458,412	0,82
458,866	0,82
459,321	0,82
459,776	0,82
460,23	0,82
460,685	0,82
461,139	0,82
461,593	0,82
462,048	0,83
462,502	0,83
462,957	0,83
463,411	0,83
463,865	0,83
464,319	0,83
464,774	0,83
465,228	0,83
465,682	0,83
466,136	0,83
466,59	0,83
467,044	0,84
467,499	0,84
467,953	0,84
468,407	0,84
468,861	0,84
469,315	0,84
469,768	0,84
470,222	0,84
470,676	0,84
471,13	0,84
471,584	0,84
472,038	0,84
472,491	0,85
472,945	0,85
473,399	0,85
473,852	0,85
474,306	0,85
474,76	0,85
475,213	0,85
475,667	0,85
476,12	0,86
476,574	0,86
477,027	0,86
477,481	0,86
477,934	0,86
478,388	0,86
478,841	0,87
479,294	0,87
479,748	0,87
480,201	0,87
480,654	0,87
481,107	0,88
481,561	0,88
482,014	0,88
482,467	0,88
482,92	0,88
483,373	0,88
483,826	0,88
484,279	0,89
484,732	0,89
485,185	0,89
485,638	0,89
486,091	0,89
486,544	0,9
486,997	0,9
487,449	0,9
487,902	0,9
488,355	0,91
488,808	0,91
489,26	0,91
489,713	0,92
490,166	0,92
490,618	0,92
491,071	0,92
491,523	0,93
491,976	0,93
492,429	0,93
492,881	0,94
493,333	0,94
493,786	0,94
494,238	0,95
494,691	0,95
495,143	0,95
495,595	0,96
496,048	0,96
496,5	0,96
496,952	0,97
497,404	0,97
497,856	0,97
498,309	0,98
498,761	0,98
499,213	0,99
499,665	0,99
500,117	1
500,569	1
501,021	1
501,473	1,01
501,925	1,01
502,377	1,02
502,828	1,02
503,28	1,02
503,732	1,03
504,184	1,03
504,636	1,04
505,087	1,04
505,539	1,04
505,991	1,05
506,442	1,05
506,894	1,06
507,345	1,06
507,797	1,06
508,249	1,07
508,7	1,07
509,151	1,08
509,603	1,08
510,054	1,09
510,506	1,09
510,957	1,09
511,408	1,1
511,86	1,1
512,311	1,1
512,762	1,11
513,213	1,11
513,665	1,11
514,116	1,12
514,567	1,12
515,018	1,12
515,469	1,13
515,92	1,13
516,371	1,13
516,822	1,14
517,273	1,14
517,724	1,14
518,175	1,15
518,626	1,15
519,076	1,15
519,527	1,15
519,978	1,16
520,429	1,16
520,88	1,16
521,33	1,16
521,781	1,17
522,232	1,17
522,682	1,17
523,133	1,17
523,583	1,17
524,034	1,18
524,484	1,18
524,935	1,18
525,385	1,18
525,836	1,18
526,286	1,18
526,736	1,18
527,187	1,18
527,637	1,17
528,087	1,17
528,538	1,17
528,988	1,17
529,438	1,17
529,888	1,17
530,338	1,17
530,788	1,17
531,238	1,17
531,688	1,16
532,139	1,16
532,589	1,16
533,038	1,16
533,488	1,16
533,938	1,16
534,388	1,15
534,838	1,15
535,288	1,15
535,738	1,14
536,187	1,14
536,637	1,14
537,087	1,13
537,537	1,13
537,986	1,13
538,436	1,12
538,885	1,12
539,335	1,11
539,785	1,1
540,234	1,1
540,684	1,1
541,133	1,09
541,582	1,09
542,032	1,08
542,481	1,07
542,931	1,07
543,38	1,06
543,829	1,06
544,278	1,05
544,728	1,05
545,177	1,05
545,626	1,04
546,075	1,04
546,524	1,03
546,973	1,03
547,422	1,02
547,871	1,02
548,32	1,02
548,769	1,01
549,218	1,01
549,667	1,01
550,116	1
550,565	1
551,014	0,99
551,463	0,99
551,911	0,98
552,36	0,98
552,809	0,97
553,258	0,97
553,706	0,97
554,155	0,96
554,603	0,96
555,052	0,95
555,501	0,95
555,949	0,94
556,398	0,94
556,846	0,93
557,294	0,93
557,743	0,92
558,191	0,92
558,64	0,91
559,088	0,91
559,536	0,9
559,985	0,9
560,433	0,89
560,881	0,89
561,329	0,88
561,777	0,88
562,225	0,87
562,674	0,87
563,122	0,86
563,57	0,86
564,018	0,86
564,466	0,85
564,914	0,85
565,362	0,84
565,809	0,84
566,257	0,83
566,705	0,83
567,153	0,82
567,601	0,82
568,048	0,82
568,496	0,81
568,944	0,81
569,392	0,8
569,839	0,8
570,287	0,8
570,734	0,79
571,182	0,79
571,63	0,79
572,077	0,78
572,525	0,78
572,972	0,77
573,419	0,77
573,867	0,77
574,314	0,76
574,761	0,76
575,209	0,76
575,656	0,75
576,103	0,75
576,551	0,75
576,998	0,74
577,445	0,74
577,892	0,74
578,339	0,73
578,786	0,73
579,233	0,73
579,68	0,72
580,127	0,72
580,574	0,72
581,021	0,71
581,468	0,71
581,915	0,71
582,362	0,71
582,809	0,7
583,255	0,7
583,702	0,7
584,149	0,7
584,596	0,7
585,042	0,69
585,489	0,69
585,936	0,69
586,382	0,68
586,829	0,68
587,275	0,68
587,722	0,68
588,168	0,68
588,615	0,67
589,061	0,67
589,508	0,67
589,954	0,67
590,4	0,66
590,847	0,66
591,293	0,66
591,739	0,66
592,185	0,65
592,632	0,65
593,078	0,65
593,524	0,65
593,97	0,65
594,416	0,65
594,862	0,65
595,308	0,65
595,754	0,64
596,2	0,64
596,646	0,64
597,092	0,64
597,538	0,64
597,984	0,63
598,43	0,63
598,876	0,63
599,321	0,63
599,767	0,63
600,213	0,63
600,659	0,63
601,104	0,63
601,55	0,62
601,995	0,62
602,441	0,62
602,887	0,62
603,332	0,62
603,778	0,62
604,223	0,62
604,668	0,61
605,114	0,61
605,559	0,61
606,005	0,61
606,45	0,61
606,895	0,61
607,341	0,61
607,786	0,61
608,231	0,6
608,676	0,6
609,121	0,59
609,566	0,59
610,012	0,58
610,457	0,58
610,902	0,57
611,347	0,57
611,792	0,57
612,237	0,57
612,682	0,57
613,127	0,56
613,571	0,57
614,016	0,57
614,461	0,57
614,906	0,58
615,351	0,58
615,795	0,58
616,24	0,58
616,685	0,58
617,129	0,58
617,574	0,58
618,019	0,58
618,463	0,58
618,908	0,58
619,352	0,58
619,797	0,58
620,241	0,57
620,686	0,57
621,13	0,57
621,574	0,57
622,019	0,57
622,463	0,57
622,907	0,57
623,352	0,57
623,796	0,57
624,24	0,57
624,684	0,56
625,128	0,56
625,572	0,56
626,016	0,56
626,461	0,56
626,905	0,56
627,349	0,56
627,793	0,56
628,236	0,56
628,68	0,56
629,124	0,56
629,568	0,56
630,012	0,56
630,456	0,56
630,9	0,56
631,343	0,56
631,787	0,56
632,231	0,56
632,674	0,56
633,118	0,56
633,562	0,56
634,005	0,56
634,449	0,56
634,892	0,56
635,336	0,56
635,779	0,56
636,223	0,56
636,666	0,56
637,109	0,56
637,553	0,56
637,996	0,56
638,439	0,56
638,883	0,56
639,326	0,56
639,769	0,55
640,212	0,55
640,655	0,55
641,099	0,55
641,542	0,55
641,985	0,55
642,428	0,55
642,871	0,55
643,314	0,55
643,757	0,55
644,2	0,54
644,643	0,54
645,085	0,54
645,528	0,54
645,971	0,54
646,414	0,54
646,857	0,54
647,299	0,54
647,742	0,54
648,185	0,54
648,627	0,54
649,07	0,54
649,513	0,54
649,955	0,54
650,398	0,54
650,84	0,54
651,283	0,54
651,725	0,54
652,168	0,54
652,61	0,54
653,052	0,54
653,495	0,54
653,937	0,46
654,379	0,4
654,821	0,4
655,264	0,41
655,706	0,41
656,148	0,41
656,59	0,41
657,032	0,41
657,474	0,41
657,916	0,4
658,358	0,4
658,8	0,46
659,242	0,54
659,684	0,54
660,126	0,54
660,568	0,54
661,01	0,54
661,452	0,54
661,894	0,54
662,335	0,53
662,777	0,53
663,219	0,53
663,661	0,53
664,102	0,53
664,544	0,53
664,985	0,53
665,427	0,53
665,869	0,53
666,31	0,53
666,752	0,53
667,193	0,53
667,634	0,53
668,076	0,53
668,517	0,53
668,959	0,53
669,4	0,53
669,841	0,53
670,282	0,53
670,724	0,53
671,165	0,53
671,606	0,53
672,047	0,53
672,488	0,53
672,929	0,53
673,37	0,53
673,811	0,53
674,252	0,53
674,693	0,53
675,134	0,52
675,575	0,52
676,016	0,52
676,457	0,52
676,898	0,52
677,339	0,52
677,78	0,52
678,22	0,52
678,661	0,52
679,102	0,52
679,542	0,52
679,983	0,52
680,424	0,52
680,864	0,52
681,305	0,52
681,745	0,52
682,186	0,52
682,626	0,52
683,067	0,52
683,507	0,52
683,948	0,52
684,388	0,52
684,828	0,52
685,269	0,52
685,709	0,52
686,149	0,52
686,589	0,52
687,029	0,52
687,47	0,52
687,91	0,52
688,35	0,52
688,79	0,52
689,23	0,52
689,67	0,52
690,11	0,52
690,55	0,52
690,99	0,51
691,43	0,51
691,87	0,51
692,31	0,51
692,749	0,51
693,189	0,51
693,629	0,51
694,069	0,5
694,508	0,5
694,948	0,5
695,388	0,5
695,827	0,5
696,267	0,5
696,706	0,51
697,146	0,51
697,586	0,51
698,025	0,51
698,464	0,51
698,904	0,51
699,343	0,51
699,783	0,51
700,222	0,51
700,661	0,51
701,101	0,51
701,54	0,51
701,979	0,51
702,418	0,51
702,857	0,51
703,297	0,51
703,736	0,51
704,175	0,51
704,614	0,51
705,053	0,51
705,492	0,51
705,931	0,51
706,37	0,51
706,809	0,51
707,248	0,51
707,687	0,51
708,125	0,5
708,564	0,5
709,003	0,5
709,442	0,5
709,88	0,5
710,319	0,5
710,758	0,5
711,196	0,5
711,635	0,5
712,074	0,5
712,512	0,5
712,951	0,5
713,389	0,5
713,828	0,5
714,266	0,5
714,705	0,5
715,143	0,5
715,581	0,5
716,02	0,5
716,458	0,5
716,896	0,5
717,334	0,5
717,773	0,5
718,211	0,5
718,649	0,5
719,087	0,5
719,525	0,5
719,963	0,5
720,401	0,5
720,839	0,5
721,277	0,5
721,715	0,5
722,153	0,5
722,591	0,5
723,029	0,5
723,467	0,5
723,905	0,5
724,342	0,5
724,78	0,5
725,218	0,5
725,656	0,5
726,093	0,5
726,531	0,5
726,969	0,5
727,406	0,5
727,844	0,5
728,281	0,5
728,719	0,5
729,156	0,5
729,594	0,5
730,031	0,5
730,469	0,5
730,906	0,5
731,343	0,49
731,781	0,49
732,218	0,49
732,655	0,49
733,092	0,49
733,53	0,49
733,967	0,49
734,404	0,49
734,841	0,49
735,278	0,48
735,715	0,48
736,152	0,48
736,589	0,48
737,026	0,48
737,463	0,48
737,9	0,48
738,337	0,48
738,774	0,48
739,211	0,48
739,647	0,48
740,084	0,48
740,521	0,48
740,958	0,48
741,394	0,48
741,831	0,48
742,268	0,48
742,704	0,48
743,141	0,48
743,577	0,48
744,014	0,48
744,45	0,48
744,887	0,48
745,323	0,48
745,76	0,48
746,196	0,48
746,632	0,47
747,069	0,47
747,505	0,47
747,941	0,47
748,378	0,47
748,814	0,47
749,25	0,47
749,686	0,47
750,122	0,47
750,558	0,48
750,994	0,48
751,43	0,48
751,866	0,48
752,302	0,48
752,738	0,48
753,174	0,48
753,61	0,48
754,046	0,48
754,482	0,48
754,918	0,48
755,354	0,48
755,789	0,48
756,225	0,48
756,661	0,48
757,096	0,48
757,532	0,48
757,968	0,47
758,403	0,47
758,839	0,47
759,274	0,46
759,71	0,46
760,145	0,45
760,581	0,44
761,016	0,44
761,452	0,43
761,887	0,43
762,322	0,42
762,758	0,42
763,193	0,41
763,628	0,41
764,063	0,4
764,499	0,39
764,934	0,39
765,369	0,38
765,804	0,37
766,239	0,36
766,674	0,36
767,109	0,35
767,544	0,34
767,979	0,33
768,414	0,31
768,849	0,3
769,284	0,3
769,719	0,29
770,154	0,28
770,588	0,27
771,023	0,26
771,458	0,24
771,893	0,23
772,327	0,22
772,762	0,2
773,197	0,2
773,631	0,19
774,066	0,18
774,5	0,17
774,935	0,15
775,369	0,14
775,804	0,13
776,238	0,12
776,673	0,11
777,107	0,1
777,541	0,09
777,976	0,08
778,41	0,07
778,844	0,06
779,279	0,06
779,713	0,05
780,147	0,04
780,581	0,04
781,015	0,03
781,449	0,01
781,883	0,01
782,317	-0,01
782,751	-0,01
783,185	-0,02
783,619	-0,03
784,053	-0,05
784,487	-0,05
784,921	-0,06
785,355	-0,07
785,789	-0,08
786,223	-0,09
786,656	-0,1
787,09	-0,11
787,524	-0,12
787,957	-0,13
788,391	-0,15
788,825	-0,17
789,258	-0,19
789,692	-0,2
790,125	-0,22
790,559	-0,24
790,992	-0,26
791,426	-0,28
791,859	-0,29
792,293	-0,32
792,726	-0,34
793,159	-0,36
793,593	-0,37
794,026	-0,4
794,459	-0,43
794,892	-0,46
795,326	-0,48
795,759	-0,52
796,192	-0,56
796,625	-0,61
797,058	-0,63
797,491	-0,68
797,924	-0,72
798,357	-0,77
798,79	-0,81
799,223	-0,85
799,656	-0,91
800,089	-0,96
800,522	-1
800,955	-1,04
801,387	-1,1
801,82	-1,15
802,253	-1,22
802,686	-1,29
803,118	-1,35
803,551	-1,4
803,984	-1,45
804,416	-1,48
804,849	-1,52
805,281	-1,65
805,714	-2,02
806,146	-2,47
806,579	-2,72
807,011	-2,88
807,444	-2,97
807,876	-3,05
808,308	-3,08
808,741	-3,11
809,173	-3,16
809,605	-3,18
810,037	-3,26
810,47	-3,18
810,902	-2,97
811,334	-2,82
811,766	-2,66
812,198	-2,4
812,63	-1,98
813,062	-1,78
813,494	-1,68
813,926	-1,6
814,358	-1,55
814,79	-1,46
815,222	-1,41
815,654	-1,36
816,086	-1,29
816,518	-1,24
816,949	-1,19
817,381	-1,14
817,813	-1,13
818,245	-1,09
818,676	-1,05
819,108	-1,02
819,54	-1
819,971	-0,98
820,403	-0,93
820,834	-0,92
821,266	-0,87
821,697	-0,85
822,129	-0,83
822,56	-0,81
822,991	-0,79
823,423	-0,76
823,854	-0,75
824,286	-0,73
824,717	-0,71
825,148	-0,7
825,579	-0,69
826,01	-0,67
826,442	-0,67
826,873	-0,65
827,304	-0,62
827,735	-0,61
828,166	-0,61
828,597	-0,61
829,028	-0,6
829,459	-0,61
829,89	-0,61
830,321	-0,57
830,752	-0,59
831,183	-0,56
831,613	-0,56
832,044	-0,56
832,475	-0,55
832,906	-0,57
833,336	-0,57
833,767	-0,58
834,198	-0,56
834,628	-0,54
835,059	-0,57
835,49	-0,58
835,92	-0,55
836,351	-0,55
836,781	-0,55
837,212	-0,56
837,642	-0,56
838,072	-0,54
838,503	-0,56
838,933	-0,53
839,364	-0,54
839,794	-0,52
840,224	-0,51
840,654	-0,55
841,085	-0,56
841,515	-0,53
841,945	-0,53
842,375	-0,48
842,805	-0,48
843,235	-0,46
843,665	-0,47
844,095	-0,45
844,525	-0,47
844,955	-0,48
845,385	-0,45
845,815	-0,44
846,245	-0,46
846,675	-0,47
847,105	-0,49
847,534	-0,49
847,964	-0,47
848,394	-0,47
848,824	-0,5
849,253	-0,5
849,683	-0,5
850,112	-0,52
850,542	-0,56
850,972	-0,56
851,401	-0,54
851,831	-0,53
852,26	-0,53
852,69	-0,58
853,119	-0,57
853,548	-0,57
853,978	-0,57
854,407	-0,55
854,836	-0,54
855,266	-0,51
855,695	-0,52
856,124	-0,54
856,553	-0,55
856,983	-0,57
857,412	-0,55
857,841	-0,56
858,27	-0,57
858,699	-0,57
859,128	-0,61
859,557	-0,62
859,986	-0,64
860,415	-0,62
860,844	-0,6
861,273	-0,6
861,702	-0,6
862,13	-0,59
862,559	-0,61
862,988	-0,58
863,417	-0,56
863,845	-0,56
864,274	-0,56
864,703	-0,56
865,131	-0,56
865,56	-0,56
865,989	-0,59
866,417	-0,56
866,846	-0,57
867,274	-0,56
867,703	-0,58
868,131	-0,6
868,559	-0,6
868,988	-0,62
869,416	-0,6
869,844	-0,62
870,273	-0,64
870,701	-0,62
871,129	-0,66
871,557	-0,68
871,986	-0,68
872,414	-0,69
872,842	-0,65
873,27	-0,64
873,698	-0,61
874,126	-0,64
874,554	-0,63
874,982	-0,63
875,41	-0,65
875,838	-0,6
876,266	-0,58
876,694	-0,59
877,122	-0,57
877,549	-0,63
877,977	-0,6
878,405	-0,63
878,833	-0,6
879,26	-0,58
879,688	-0,58
880,116	-0,56
880,543	-0,55
880,971	-0,54
881,399	-0,57
881,826	-0,58
882,254	-0,55
882,681	-0,6
883,109	-0,56
883,536	-0,56
883,963	-0,58
884,391	-0,56
884,818	-0,54
885,245	-0,58
885,673	-0,6
886,1	-0,56
886,527	-0,55
886,954	-0,53
887,381	-0,53
887,809	-0,54
888,236	-0,56
888,663	-0,55
889,09	-0,6
889,517	-0,62
889,944	-0,61
890,371	-0,61
890,798	-0,62
891,225	-0,63
891,652	-0,65
892,078	-0,63
892,505	-0,67
892,932	-0,61
893,359	-0,62
893,786	-0,62
894,212	-0,58
894,639	-0,6
895,066	-0,62
895,492	-0,56
895,919	-0,55
896,346	-0,55
896,772	-0,55
897,199	-0,51
897,625	-0,55
898,052	-0,52
898,478	-0,51
898,904	-0,53
899,331	-0,52
899,757	-0,54
900,183	-0,57
900,61	-0,55
901,036	-0,56
901,462	-0,56
901,888	-0,56
902,315	-0,55
902,741	-0,6
903,167	-0,58
903,593	-0,6
904,019	-0,59
904,445	-0,56
904,871	-0,58
905,297	-0,6
905,723	-0,59
906,149	-0,59
906,575	-0,59
907,001	-0,59
907,427	-0,56
907,852	-0,56
908,278	-0,56
908,704	-0,54
909,13	-0,54
909,555	-0,53
909,981	-0,52
910,407	-0,52
910,832	-0,52
911,258	-0,53
911,684	-0,53
912,109	-0,53
912,535	-0,55
912,96	-0,52
913,386	-0,56
913,811	-0,55
914,236	-0,57
914,662	-0,55
915,087	-0,59
915,512	-0,58
915,938	-0,59
916,363	-0,58
916,788	-0,6
917,213	-0,57
917,639	-0,62
918,064	-0,59
918,489	-0,6
918,914	-0,61
919,339	-0,61
919,764	-0,58
920,189	-0,59
920,614	-0,62
921,039	-0,63
921,464	-0,59
921,889	-0,61
922,314	-0,62
922,738	-0,66
923,163	-0,67
923,588	-0,67
924,013	-0,66
924,437	-0,66
924,862	-0,68
925,287	-0,63
925,711	-0,64
926,136	-0,66
926,561	-0,64
926,985	-0,63
927,41	-0,59
927,834	-0,56
928,259	-0,54
928,683	-0,52
929,108	-0,49
929,532	-0,49
929,956	-0,49
930,381	-0,48
930,805	-0,48
931,229	-0,47
931,653	-0,46
932,078	-0,46
932,502	-0,47
932,926	-0,49
933,35	-0,48
933,774	-0,47
934,198	-0,45
934,622	-0,44
935,046	-0,46
935,47	-0,46
935,894	-0,46
936,318	-0,45
936,742	-0,45
937,166	-0,45
937,59	-0,44
938,014	-0,47
938,437	-0,47
938,861	-0,49
939,285	-0,5
939,709	-0,49
940,132	-0,49
940,556	-0,5
940,98	-0,49
941,403	-0,48
941,827	-0,48
942,25	-0,49
942,674	-0,48
943,097	-0,48
943,521	-0,48
943,944	-0,49
944,368	-0,48
944,791	-0,47
945,214	-0,49
945,638	-0,5
946,061	-0,54
946,484	-0,55
946,907	-0,54
947,331	-0,53
947,754	-0,57
948,177	-0,54
948,6	-0,55
949,023	-0,54
949,446	-0,53
949,869	-0,51
950,292	-0,51
950,715	-0,48
951,138	-0,46
951,561	-0,44
951,984	-0,44
952,407	-0,42
952,83	-0,41
953,252	-0,36
953,675	-0,37
954,098	-0,39
954,521	-0,37
954,943	-0,36
955,366	-0,36
955,789	-0,34
956,211	-0,37
956,634	-0,37
957,056	-0,35
957,479	-0,36
957,902	-0,38
958,324	-0,38
958,746	-0,35
959,169	-0,37
959,591	-0,38
960,014	-0,38
960,436	-0,38
960,858	-0,37
961,281	-0,37
961,703	-0,38
962,125	-0,37
962,547	-0,35
962,969	-0,36
963,391	-0,37
963,814	-0,37
964,236	-0,36
964,658	-0,32
965,08	-0,34
965,502	-0,33
965,924	-0,3
966,346	-0,3
966,768	-0,3
967,189	-0,32
967,611	-0,32
968,033	-0,32
968,455	-0,3
968,877	-0,31
969,298	-0,32
969,72	-0,33
970,142	-0,32
970,563	-0,33
970,985	-0,31
971,407	-0,3
971,828	-0,28
972,25	-0,27
972,671	-0,26
973,093	-0,26
973,514	-0,25
973,936	-0,23
974,357	-0,22
974,778	-0,21
975,2	-0,21
975,621	-0,21
976,042	-0,2
976,464	-0,18
976,885	-0,17
977,306	-0,16
977,727	-0,15
978,148	-0,14
978,57	-0,13
978,991	-0,12
979,412	-0,11
979,833	-0,1
980,254	-0,09
980,675	-0,09
981,096	-0,08
981,517	-0,06
981,937	-0,06
982,358	-0,05
982,779	-0,03
983,2	-0,03
983,621	-0,02
984,042	-0
984,462	0
984,883	0,02
985,304	0,03
985,724	0,05
986,145	0,06
986,565	0,08
986,986	0,09
987,407	0,1
987,827	0,11
988,248	0,13
988,668	0,15
989,088	0,16
989,509	0,18
989,929	0,19
990,35	0,2
990,77	0,21
991,19	0,22
991,61	0,24
992,031	0,25
992,451	0,26
992,871	0,27
993,291	0,28
993,711	0,29
994,131	0,3
994,551	0,31
994,971	0,32
995,391	0,33
995,811	0,34
996,231	0,34
996,651	0,35
997,071	0,36
997,491	0,37
997,911	0,37
998,331	0,38
998,75	0,39
999,17	0,4
999,59	0,4
1000,009	0,41
1000,429	0,41
1000,849	0,42
1001,268	0,43
1001,688	0,43
1002,107	0,44
1002,527	0,44
1002,946	0,45
1003,366	0,45
1003,785	0,45
1004,205	0,46
1004,624	0,46
1005,044	0,46
1005,463	0,46
1005,882	0,47
1006,301	0,47
1006,721	0,47
1007,14	0,47
1007,559	0,47
1007,978	0,47
1008,397	0,48
1008,816	0,48
1009,235	0,48
1009,655	0,48
1010,074	0,48
1010,492	0,48
1010,911	0,48
1011,33	0,48
1011,749	0,48
1012,168	0,47
1012,587	0,47
1013,006	0,47
1013,425	0,47
1013,843	0,47
1014,262	0,47
1014,681	0,47
1015,099	0,47
1015,518	0,47
1015,937	0,47
1016,355	0,47
1016,774	0,47
1017,192	0,47
1017,611	0,47
1018,029	0,47
1018,448	0,47
1018,866	0,46
1019,285	0,46
1019,703	0,46
1020,121	0,46
1020,54	0,46
1020,958	0,46
1021,376	0,46
1021,794	0,46
1022,213	0,46
1022,631	0,46
1023,049	0,46
1023,467	0,46
1023,885	0,46
1024,303	0,46
1024,721	0,45
1025,139	0,45
1025,557	0,45
1025,975	0,45
1026,393	0,45
1026,811	0,45
1027,229	0,45
1027,647	0,45
1028,065	0,45
1028,482	0,45
1028,9	0,45
1029,318	0,45
1029,735	0,44
1030,153	0,44
1030,571	0,44
1030,988	0,44
1031,406	0,45
1031,823	0,45
1032,241	0,45
1032,659	0,45
1033,076	0,45
1033,493	0,45
1033,911	0,45
1034,328	0,45
1034,746	0,45
1035,163	0,45
1035,58	0,45
1035,997	0,45
1036,415	0,45
1036,832	0,45
1037,249	0,45
1037,666	0,45
1038,083	0,45
1038,501	0,45
1038,918	0,45
1039,335	0,45
1039,752	0,45
1040,169	0,45
1040,586	0,45
1041,003	0,45
1041,419	0,46
1041,836	0,45
1042,253	0,45
1042,67	0,45
1043,087	0,45
1043,504	0,45
1043,92	0,45
1044,337	0,45
1044,754	0,45
1045,17	0,45
1045,587	0,45
1046,004	0,45
1046,42	0,45
1046,837	0,45
1047,253	0,45
1047,67	0,45
1048,086	0,45
1048,503	0,45
1048,919	0,45
1049,335	0,45
1049,752	0,45
1050,168	0,45
1050,584	0,45
1051,001	0,45
1051,417	0,45
1051,833	0,45
1052,249	0,45
1052,665	0,45
1053,081	0,46
1053,497	0,46
1053,914	0,46
1054,33	0,46
1054,746	0,46
1055,162	0,46
1055,578	0,46
1055,993	0,46
1056,409	0,46
1056,825	0,46
1057,241	0,46
1057,657	0,46
1058,073	0,46
1058,488	0,46
1058,904	0,46
1059,32	0,46
1059,736	0,46
1060,151	0,46
1060,567	0,46
1060,982	0,46
1061,398	0,46
1061,813	0,46
1062,229	0,46
1062,644	0,46
1063,06	0,46
1063,475	0,46
1063,891	0,46
1064,306	0,46
1064,721	0,46
1065,137	0,45
1065,552	0,45
1065,967	0,45
1066,382	0,45
1066,798	0,45
1067,213	0,45
1067,628	0,45
1068,043	0,45
1068,458	0,45
1068,873	0,45
1069,288	0,45
1069,703	0,45
1070,118	0,46
1070,533	0,46
1070,948	0,45
1071,363	0,45
1071,778	0,45
1072,193	0,45
1072,607	0,45
1073,022	0,45
1073,437	0,45
1073,852	0,45
1074,266	0,45
1074,681	0,45
1075,096	0,45
1075,51	0,45
1075,925	0,45
1076,339	0,45
1076,754	0,45
1077,168	0,45
1077,583	0,45
1077,997	0,45
1078,412	0,45
1078,826	0,45
1079,24	0,45
1079,655	0,45
1080,069	0,45
1080,483	0,45
1080,897	0,45
1081,312	0,45
1081,726	0,45
1082,14	0,45
1082,554	0,44
1082,968	0,44
1083,382	0,44
1083,796	0,44
1084,21	0,44
1084,624	0,44
1085,038	0,44
1085,452	0,44
1085,866	0,43
1086,28	0,43
1086,694	0,43
1087,108	0,43
1087,521	0,43
1087,935	0,42
1088,349	0,42
1088,763	0,42
1089,176	0,41
1089,59	0,41
1090,004	0,41
1090,417	0,41
1090,831	0,4
1091,244	0,4
1091,658	0,4
1092,071	0,4
1092,485	0,39
1092,898	0,39
1093,312	0,39
1093,725	0,39
1094,138	0,39
1094,552	0,38
1094,965	0,38
1095,378	0,37
1095,791	0,37
1096,205	0,37
1096,618	0,37
1097,031	0,36
1097,444	0,35
1097,857	0,35
1098,27	0,35
1098,683	0,34
1099,096	0,34
1099,509	0,34
1099,922	0,34
1100,335	0,33
1100,748	0,32
1101,161	0,32
1101,574	0,32
1101,986	0,31
1102,399	0,31
1102,812	0,31
1103,225	0,3
1103,637	0,3
1104,05	0,29
1104,463	0,29
1104,875	0,29
1105,288	0,29
1105,7	0,28
1106,113	0,28
1106,525	0,27
1106,938	0,27
1107,35	0,26
1107,763	0,26
1108,175	0,25
1108,588	0,24
1109	0,24
1109,412	0,23
1109,824	0,23
1110,237	0,23
1110,649	0,22
1111,061	0,22
