Data from 18C-808nm-8A-cont_Absorbance__66__01495.txt Node

Date: Mon Jul 17 17:19:20 CEST 2023
User: Laser008
Spectrometer: MAYP115816
Trigger mode: 0
Integration Time (sec): 2,500000E-1
Scans to average: 10
Electric dark correction enabled: true
Nonlinearity correction enabled: true
Boxcar width: 5
XAxis mode: Wavelengths
Number of Pixels in Spectrum: 2068
>>>>>Begin Spectral Data<<<<<
198,914	-0,71
199,384	-0,43
199,855	-0,33
200,325	-0,26
200,796	-0,24
201,266	-0,19
201,737	-0,19
202,207	-0,17
202,677	-0,16
203,147	-0,15
203,618	-0,12
204,088	-0,11
204,558	-0,11
205,028	-0,1
205,498	-0,11
205,968	-0,11
206,439	-0,12
206,909	-0,12
207,379	-0,13
207,849	-0,14
208,319	-0,13
208,789	-0,13
209,258	-0,13
209,728	-0,14
210,198	-0,15
210,668	-0,14
211,138	-0,14
211,608	-0,13
212,077	-0,12
212,547	-0,12
213,017	-0,12
213,486	-0,13
213,956	-0,13
214,426	-0,13
214,895	-0,12
215,365	-0,13
215,834	-0,14
216,304	-0,15
216,773	-0,15
217,243	-0,16
217,712	-0,17
218,181	-0,17
218,651	-0,17
219,12	-0,17
219,589	-0,17
220,058	-0,16
220,528	-0,17
220,997	-0,17
221,466	-0,18
221,935	-0,19
222,404	-0,18
222,873	-0,17
223,342	-0,17
223,812	-0,17
224,281	-0,17
224,749	-0,18
225,218	-0,19
225,687	-0,19
226,156	-0,18
226,625	-0,17
227,094	-0,17
227,563	-0,17
228,031	-0,19
228,5	-0,18
228,969	-0,2
229,438	-0,19
229,906	-0,18
230,375	-0,18
230,844	-0,18
231,312	-0,18
231,781	-0,19
232,249	-0,18
232,718	-0,17
233,186	-0,16
233,655	-0,16
234,123	-0,16
234,591	-0,17
235,06	-0,17
235,528	-0,17
235,996	-0,16
236,465	-0,16
236,933	-0,16
237,401	-0,16
237,869	-0,15
238,337	-0,15
238,805	-0,14
239,274	-0,13
239,742	-0,11
240,21	-0,12
240,678	-0,11
241,146	-0,1
241,614	-0,1
242,081	-0,1
242,549	-0,1
243,017	-0,11
243,485	-0,11
243,953	-0,11
244,421	-0,11
244,888	-0,11
245,356	-0,1
245,824	-0,1
246,291	-0,1
246,759	-0,11
247,227	-0,12
247,694	-0,11
248,162	-0,1
248,629	-0,09
249,097	-0,1
249,564	-0,11
250,032	-0,12
250,499	-0,12
250,967	-0,13
251,434	-0,13
251,901	-0,13
252,369	-0,13
252,836	-0,14
253,303	-0,16
253,77	-0,17
254,237	-0,16
254,705	-0,16
255,172	-0,16
255,639	-0,16
256,106	-0,17
256,573	-0,17
257,04	-0,17
257,507	-0,17
257,974	-0,17
258,441	-0,16
258,908	-0,17
259,375	-0,18
259,841	-0,18
260,308	-0,18
260,775	-0,18
261,242	-0,18
261,709	-0,18
262,175	-0,19
262,642	-0,19
263,109	-0,19
263,575	-0,2
264,042	-0,18
264,508	-0,18
264,975	-0,19
265,441	-0,2
265,908	-0,21
266,374	-0,2
266,841	-0,19
267,307	-0,2
267,773	-0,18
268,24	-0,19
268,706	-0,18
269,172	-0,2
269,639	-0,21
270,105	-0,19
270,571	-0,19
271,037	-0,2
271,503	-0,22
271,969	-0,21
272,435	-0,21
272,902	-0,22
273,368	-0,24
273,834	-0,24
274,3	-0,23
274,765	-0,23
275,231	-0,24
275,697	-0,23
276,163	-0,22
276,629	-0,21
277,095	-0,21
277,56	-0,21
278,026	-0,21
278,492	-0,19
278,958	-0,19
279,423	-0,19
279,889	-0,19
280,354	-0,2
280,82	-0,2
281,286	-0,21
281,751	-0,22
282,217	-0,21
282,682	-0,21
283,147	-0,22
283,613	-0,23
284,078	-0,23
284,544	-0,23
285,009	-0,24
285,474	-0,23
285,939	-0,24
286,405	-0,22
286,87	-0,22
287,335	-0,23
287,8	-0,22
288,265	-0,2
288,73	-0,22
289,195	-0,24
289,66	-0,23
290,125	-0,22
290,59	-0,22
291,055	-0,21
291,52	-0,21
291,985	-0,21
292,45	-0,22
292,915	-0,22
293,38	-0,23
293,844	-0,2
294,309	-0,19
294,774	-0,18
295,239	-0,19
295,703	-0,19
296,168	-0,19
296,632	-0,19
297,097	-0,17
297,562	-0,15
298,026	-0,16
298,491	-0,16
298,955	-0,16
299,419	-0,16
299,884	-0,16
300,348	-0,15
300,813	-0,15
301,277	-0,14
301,741	-0,14
302,205	-0,15
302,67	-0,14
303,134	-0,14
303,598	-0,14
304,062	-0,14
304,526	-0,13
304,99	-0,15
305,454	-0,15
305,919	-0,14
306,383	-0,15
306,847	-0,14
307,31	-0,14
307,774	-0,15
308,238	-0,15
308,702	-0,14
309,166	-0,15
309,63	-0,15
310,094	-0,12
310,557	-0,12
311,021	-0,11
311,485	-0,12
311,948	-0,12
312,412	-0,11
312,876	-0,1
313,339	-0,11
313,803	-0,11
314,266	-0,11
314,73	-0,11
315,193	-0,11
315,657	-0,1
316,12	-0,11
316,584	-0,09
317,047	-0,09
317,51	-0,08
317,973	-0,08
318,437	-0,07
318,9	-0,06
319,363	-0,05
319,826	-0,05
320,29	-0,06
320,753	-0,06
321,216	-0,05
321,679	-0,06
322,142	-0,06
322,605	-0,07
323,068	-0,07
323,531	-0,08
323,994	-0,08
324,457	-0,08
324,92	-0,06
325,382	-0,06
325,845	-0,06
326,308	-0,06
326,771	-0,05
327,233	-0,05
327,696	-0,05
328,159	-0,04
328,622	-0,03
329,084	-0,02
329,547	-0,02
330,009	-0,01
330,472	0,01
330,934	0,01
331,397	0,02
331,859	0,03
332,322	0,03
332,784	0,03
333,246	0,03
333,709	0,03
334,171	0,04
334,633	0,04
335,096	0,04
335,558	0,04
336,02	0,03
336,482	0,03
336,944	0,04
337,406	0,05
337,868	0,06
338,331	0,06
338,793	0,07
339,255	0,07
339,717	0,08
340,178	0,08
340,64	0,09
341,102	0,1
341,564	0,11
342,026	0,12
342,488	0,12
342,949	0,14
343,411	0,16
343,873	0,18
344,335	0,21
344,796	0,24
345,258	0,27
345,719	0,31
346,181	0,34
346,643	0,37
347,104	0,39
347,566	0,42
348,027	0,44
348,488	0,45
348,95	0,47
349,411	0,49
349,873	0,5
350,334	0,51
350,795	0,52
351,256	0,53
351,718	0,54
352,179	0,54
352,64	0,54
353,101	0,55
353,562	0,55
354,023	0,55
354,484	0,55
354,945	0,55
355,406	0,55
355,867	0,55
356,328	0,56
356,789	0,56
357,25	0,56
357,711	0,56
358,172	0,56
358,633	0,56
359,093	0,56
359,554	0,56
360,015	0,56
360,476	0,57
360,936	0,57
361,397	0,57
361,858	0,57
362,318	0,57
362,779	0,57
363,239	0,57
363,7	0,57
364,16	0,57
364,621	0,57
365,081	0,57
365,541	0,57
366,002	0,57
366,462	0,57
366,922	0,57
367,383	0,57
367,843	0,57
368,303	0,57
368,763	0,57
369,223	0,57
369,684	0,57
370,144	0,57
370,604	0,57
371,064	0,57
371,524	0,57
371,984	0,57
372,444	0,57
372,904	0,57
373,363	0,57
373,823	0,57
374,283	0,57
374,743	0,57
375,203	0,56
375,663	0,56
376,122	0,56
376,582	0,56
377,042	0,56
377,501	0,56
377,961	0,56
378,42	0,56
378,88	0,56
379,34	0,56
379,799	0,56
380,259	0,56
380,718	0,56
381,177	0,56
381,637	0,56
382,096	0,56
382,555	0,56
383,015	0,56
383,474	0,56
383,933	0,56
384,393	0,56
384,852	0,56
385,311	0,56
385,77	0,56
386,229	0,56
386,688	0,56
387,147	0,56
387,606	0,56
388,065	0,56
388,524	0,56
388,983	0,56
389,442	0,55
389,901	0,55
390,36	0,55
390,819	0,55
391,277	0,55
391,736	0,55
392,195	0,55
392,654	0,55
393,112	0,55
393,571	0,55
394,03	0,55
394,488	0,55
394,947	0,55
395,405	0,55
395,864	0,55
396,322	0,55
396,781	0,55
397,239	0,55
397,698	0,55
398,156	0,55
398,614	0,55
399,073	0,55
399,531	0,55
399,989	0,55
400,447	0,55
400,905	0,55
401,364	0,55
401,822	0,55
402,28	0,55
402,738	0,55
403,196	0,54
403,654	0,54
404,112	0,54
404,57	0,54
405,028	0,54
405,486	0,54
405,944	0,54
406,402	0,54
406,859	0,54
407,317	0,54
407,775	0,54
408,233	0,54
408,691	0,54
409,148	0,54
409,606	0,54
410,064	0,54
410,521	0,54
410,979	0,54
411,436	0,54
411,894	0,54
412,351	0,54
412,809	0,54
413,266	0,54
413,724	0,54
414,181	0,54
414,638	0,54
415,096	0,54
415,553	0,54
416,01	0,54
416,467	0,54
416,925	0,54
417,382	0,54
417,839	0,54
418,296	0,54
418,753	0,54
419,21	0,54
419,667	0,54
420,124	0,54
420,581	0,54
421,038	0,54
421,495	0,54
421,952	0,54
422,409	0,54
422,866	0,54
423,322	0,54
423,779	0,54
424,236	0,54
424,693	0,54
425,149	0,54
425,606	0,54
426,063	0,54
426,519	0,54
426,976	0,54
427,433	0,54
427,889	0,54
428,346	0,54
428,802	0,54
429,258	0,54
429,715	0,54
430,171	0,53
430,628	0,53
431,084	0,53
431,54	0,53
431,997	0,53
432,453	0,53
432,909	0,53
433,365	0,53
433,821	0,53
434,277	0,53
434,734	0,53
435,19	0,53
435,646	0,53
436,102	0,53
436,558	0,53
437,014	0,53
437,47	0,53
437,925	0,53
438,381	0,53
438,837	0,53
439,293	0,53
439,749	0,53
440,205	0,53
440,66	0,53
441,116	0,53
441,572	0,53
442,027	0,53
442,483	0,53
442,939	0,53
443,394	0,53
443,85	0,53
444,305	0,53
444,761	0,53
445,216	0,53
445,672	0,53
446,127	0,53
446,582	0,53
447,038	0,53
447,493	0,53
447,948	0,53
448,403	0,53
448,859	0,54
449,314	0,54
449,769	0,54
450,224	0,54
450,679	0,54
451,134	0,54
451,589	0,54
452,044	0,54
452,499	0,54
452,954	0,54
453,409	0,54
453,864	0,54
454,319	0,54
454,774	0,54
455,229	0,54
455,684	0,54
456,138	0,54
456,593	0,54
457,048	0,54
457,503	0,54
457,957	0,54
458,412	0,54
458,866	0,54
459,321	0,54
459,776	0,54
460,23	0,54
460,685	0,54
461,139	0,54
461,593	0,54
462,048	0,54
462,502	0,54
462,957	0,54
463,411	0,54
463,865	0,54
464,319	0,54
464,774	0,55
465,228	0,55
465,682	0,55
466,136	0,55
466,59	0,55
467,044	0,55
467,499	0,55
467,953	0,55
468,407	0,55
468,861	0,55
469,315	0,55
469,768	0,55
470,222	0,55
470,676	0,55
471,13	0,55
471,584	0,55
472,038	0,55
472,491	0,55
472,945	0,56
473,399	0,56
473,852	0,56
474,306	0,56
474,76	0,56
475,213	0,56
475,667	0,56
476,12	0,56
476,574	0,56
477,027	0,56
477,481	0,56
477,934	0,57
478,388	0,57
478,841	0,57
479,294	0,57
479,748	0,57
480,201	0,57
480,654	0,57
481,107	0,57
481,561	0,58
482,014	0,58
482,467	0,58
482,92	0,58
483,373	0,58
483,826	0,58
484,279	0,58
484,732	0,59
485,185	0,59
485,638	0,59
486,091	0,59
486,544	0,59
486,997	0,59
487,449	0,59
487,902	0,6
488,355	0,6
488,808	0,6
489,26	0,6
489,713	0,6
490,166	0,61
490,618	0,61
491,071	0,61
491,523	0,61
491,976	0,61
492,429	0,62
492,881	0,62
493,333	0,62
493,786	0,62
494,238	0,63
494,691	0,63
495,143	0,63
495,595	0,63
496,048	0,64
496,5	0,64
496,952	0,64
497,404	0,65
497,856	0,65
498,309	0,65
498,761	0,65
499,213	0,66
499,665	0,66
500,117	0,66
500,569	0,67
501,021	0,67
501,473	0,67
501,925	0,68
502,377	0,68
502,828	0,68
503,28	0,69
503,732	0,69
504,184	0,69
504,636	0,69
505,087	0,7
505,539	0,7
505,991	0,7
506,442	0,71
506,894	0,71
507,345	0,71
507,797	0,71
508,249	0,72
508,7	0,72
509,151	0,72
509,603	0,73
510,054	0,73
510,506	0,73
510,957	0,74
511,408	0,74
511,86	0,74
512,311	0,75
512,762	0,75
513,213	0,75
513,665	0,75
514,116	0,76
514,567	0,76
515,018	0,76
515,469	0,77
515,92	0,77
516,371	0,77
516,822	0,77
517,273	0,78
517,724	0,78
518,175	0,78
518,626	0,78
519,076	0,78
519,527	0,79
519,978	0,79
520,429	0,79
520,88	0,79
521,33	0,79
521,781	0,79
522,232	0,8
522,682	0,8
523,133	0,8
523,583	0,8
524,034	0,8
524,484	0,8
524,935	0,8
525,385	0,8
525,836	0,8
526,286	0,8
526,736	0,8
527,187	0,8
527,637	0,8
528,087	0,8
528,538	0,8
528,988	0,8
529,438	0,8
529,888	0,8
530,338	0,8
530,788	0,8
531,238	0,8
531,688	0,8
532,139	0,8
532,589	0,8
533,038	0,8
533,488	0,79
533,938	0,79
534,388	0,79
534,838	0,79
535,288	0,79
535,738	0,78
536,187	0,78
536,637	0,78
537,087	0,78
537,537	0,77
537,986	0,77
538,436	0,77
538,885	0,76
539,335	0,76
539,785	0,76
540,234	0,75
540,684	0,75
541,133	0,75
541,582	0,74
542,032	0,74
542,481	0,74
542,931	0,73
543,38	0,73
543,829	0,73
544,278	0,72
544,728	0,72
545,177	0,72
545,626	0,71
546,075	0,71
546,524	0,71
546,973	0,7
547,422	0,7
547,871	0,7
548,32	0,7
548,769	0,69
549,218	0,69
549,667	0,69
550,116	0,69
550,565	0,68
551,014	0,68
551,463	0,68
551,911	0,67
552,36	0,67
552,809	0,67
553,258	0,66
553,706	0,66
554,155	0,66
554,603	0,65
555,052	0,65
555,501	0,65
555,949	0,64
556,398	0,64
556,846	0,64
557,294	0,63
557,743	0,63
558,191	0,63
558,64	0,62
559,088	0,62
559,536	0,61
559,985	0,61
560,433	0,61
560,881	0,6
561,329	0,6
561,777	0,6
562,225	0,6
562,674	0,59
563,122	0,59
563,57	0,59
564,018	0,58
564,466	0,58
564,914	0,58
565,362	0,57
565,809	0,57
566,257	0,57
566,705	0,57
567,153	0,56
567,601	0,56
568,048	0,56
568,496	0,55
568,944	0,55
569,392	0,55
569,839	0,55
570,287	0,54
570,734	0,54
571,182	0,54
571,63	0,54
572,077	0,53
572,525	0,53
572,972	0,53
573,419	0,52
573,867	0,52
574,314	0,52
574,761	0,52
575,209	0,51
575,656	0,51
576,103	0,51
576,551	0,51
576,998	0,51
577,445	0,5
577,892	0,5
578,339	0,5
578,786	0,5
579,233	0,49
579,68	0,49
580,127	0,49
580,574	0,49
581,021	0,49
581,468	0,48
581,915	0,48
582,362	0,48
582,809	0,48
583,255	0,48
583,702	0,48
584,149	0,47
584,596	0,47
585,042	0,47
585,489	0,47
585,936	0,47
586,382	0,46
586,829	0,46
587,275	0,46
587,722	0,46
588,168	0,46
588,615	0,46
589,061	0,46
589,508	0,45
589,954	0,45
590,4	0,45
590,847	0,45
591,293	0,45
591,739	0,45
592,185	0,45
592,632	0,45
593,078	0,44
593,524	0,44
593,97	0,44
594,416	0,44
594,862	0,44
595,308	0,44
595,754	0,44
596,2	0,44
596,646	0,44
597,092	0,43
597,538	0,43
597,984	0,43
598,43	0,43
598,876	0,43
599,321	0,43
599,767	0,43
600,213	0,43
600,659	0,43
601,104	0,43
601,55	0,42
601,995	0,42
602,441	0,42
602,887	0,42
603,332	0,42
603,778	0,42
604,223	0,42
604,668	0,42
605,114	0,42
605,559	0,42
606,005	0,42
606,45	0,42
606,895	0,41
607,341	0,41
607,786	0,41
608,231	0,41
608,676	0,41
609,121	0,4
609,566	0,4
610,012	0,4
610,457	0,39
610,902	0,39
611,347	0,39
611,792	0,39
612,237	0,39
612,682	0,38
613,127	0,38
613,571	0,38
614,016	0,39
614,461	0,39
614,906	0,39
615,351	0,39
615,795	0,39
616,24	0,39
616,685	0,39
617,129	0,39
617,574	0,39
618,019	0,39
618,463	0,39
618,908	0,39
619,352	0,39
619,797	0,39
620,241	0,39
620,686	0,39
621,13	0,39
621,574	0,39
622,019	0,39
622,463	0,39
622,907	0,38
623,352	0,38
623,796	0,38
624,24	0,38
624,684	0,38
625,128	0,38
625,572	0,38
626,016	0,38
626,461	0,38
626,905	0,38
627,349	0,38
627,793	0,38
628,236	0,38
628,68	0,38
629,124	0,38
629,568	0,38
630,012	0,38
630,456	0,38
630,9	0,38
631,343	0,38
631,787	0,38
632,231	0,38
632,674	0,38
633,118	0,38
633,562	0,38
634,005	0,38
634,449	0,38
634,892	0,38
635,336	0,38
635,779	0,38
636,223	0,38
636,666	0,38
637,109	0,37
637,553	0,37
637,996	0,37
638,439	0,37
638,883	0,37
639,326	0,37
639,769	0,37
640,212	0,37
640,655	0,37
641,099	0,37
641,542	0,37
641,985	0,37
642,428	0,37
642,871	0,37
643,314	0,37
643,757	0,37
644,2	0,37
644,643	0,37
645,085	0,37
645,528	0,37
645,971	0,37
646,414	0,36
646,857	0,36
647,299	0,36
647,742	0,36
648,185	0,36
648,627	0,36
649,07	0,36
649,513	0,36
649,955	0,36
650,398	0,36
650,84	0,36
651,283	0,36
651,725	0,36
652,168	0,36
652,61	0,36
653,052	0,36
653,495	0,36
653,937	0,28
654,379	0,23
654,821	0,23
655,264	0,23
655,706	0,23
656,148	0,23
656,59	0,23
657,032	0,23
657,474	0,23
657,916	0,23
658,358	0,22
658,8	0,28
659,242	0,36
659,684	0,36
660,126	0,36
660,568	0,36
661,01	0,36
661,452	0,36
661,894	0,36
662,335	0,36
662,777	0,36
663,219	0,35
663,661	0,35
664,102	0,35
664,544	0,35
664,985	0,35
665,427	0,35
665,869	0,35
666,31	0,35
666,752	0,35
667,193	0,35
667,634	0,35
668,076	0,35
668,517	0,35
668,959	0,36
669,4	0,36
669,841	0,36
670,282	0,36
670,724	0,36
671,165	0,36
671,606	0,36
672,047	0,36
672,488	0,36
672,929	0,36
673,37	0,35
673,811	0,35
674,252	0,35
674,693	0,35
675,134	0,35
675,575	0,35
676,016	0,35
676,457	0,35
676,898	0,35
677,339	0,35
677,78	0,35
678,22	0,35
678,661	0,35
679,102	0,35
679,542	0,35
679,983	0,35
680,424	0,35
680,864	0,35
681,305	0,35
681,745	0,35
682,186	0,35
682,626	0,35
683,067	0,35
683,507	0,35
683,948	0,35
684,388	0,35
684,828	0,35
685,269	0,34
685,709	0,34
686,149	0,34
686,589	0,34
687,029	0,34
687,47	0,34
687,91	0,34
688,35	0,34
688,79	0,34
689,23	0,34
689,67	0,34
690,11	0,34
690,55	0,34
690,99	0,34
691,43	0,34
691,87	0,34
692,31	0,34
692,749	0,34
693,189	0,34
693,629	0,34
694,069	0,33
694,508	0,33
694,948	0,33
695,388	0,33
695,827	0,33
696,267	0,34
696,706	0,34
697,146	0,34
697,586	0,34
698,025	0,34
698,464	0,34
698,904	0,34
699,343	0,34
699,783	0,34
700,222	0,34
700,661	0,34
701,101	0,34
701,54	0,34
701,979	0,34
702,418	0,34
702,857	0,34
703,297	0,34
703,736	0,34
704,175	0,34
704,614	0,34
705,053	0,34
705,492	0,34
705,931	0,34
706,37	0,34
706,809	0,34
707,248	0,34
707,687	0,33
708,125	0,33
708,564	0,33
709,003	0,33
709,442	0,33
709,88	0,33
710,319	0,33
710,758	0,33
711,196	0,33
711,635	0,33
712,074	0,33
712,512	0,33
712,951	0,33
713,389	0,33
713,828	0,33
714,266	0,33
714,705	0,33
715,143	0,32
715,581	0,32
716,02	0,32
716,458	0,32
716,896	0,32
717,334	0,32
717,773	0,32
718,211	0,32
718,649	0,32
719,087	0,32
719,525	0,32
719,963	0,32
720,401	0,32
720,839	0,32
721,277	0,32
721,715	0,33
722,153	0,32
722,591	0,32
723,029	0,32
723,467	0,32
723,905	0,32
724,342	0,32
724,78	0,32
725,218	0,32
725,656	0,32
726,093	0,32
726,531	0,32
726,969	0,32
727,406	0,33
727,844	0,32
728,281	0,32
728,719	0,32
729,156	0,32
729,594	0,32
730,031	0,32
730,469	0,32
730,906	0,32
731,343	0,32
731,781	0,32
732,218	0,32
732,655	0,32
733,092	0,32
733,53	0,32
733,967	0,32
734,404	0,32
734,841	0,32
735,278	0,32
735,715	0,32
736,152	0,32
736,589	0,32
737,026	0,32
737,463	0,32
737,9	0,32
738,337	0,31
738,774	0,31
739,211	0,31
739,647	0,31
740,084	0,31
740,521	0,31
740,958	0,31
741,394	0,31
741,831	0,31
742,268	0,31
742,704	0,31
743,141	0,31
743,577	0,31
744,014	0,31
744,45	0,31
744,887	0,31
745,323	0,3
745,76	0,3
746,196	0,3
746,632	0,3
747,069	0,3
747,505	0,3
747,941	0,3
748,378	0,3
748,814	0,3
749,25	0,3
749,686	0,3
750,122	0,31
750,558	0,31
750,994	0,31
751,43	0,31
751,866	0,31
752,302	0,32
752,738	0,32
753,174	0,32
753,61	0,32
754,046	0,32
754,482	0,32
754,918	0,32
755,354	0,32
755,789	0,32
756,225	0,32
756,661	0,32
757,096	0,31
757,532	0,31
757,968	0,31
758,403	0,31
758,839	0,31
759,274	0,31
759,71	0,3
760,145	0,3
760,581	0,29
761,016	0,29
761,452	0,29
761,887	0,28
762,322	0,28
762,758	0,28
763,193	0,27
763,628	0,27
764,063	0,26
764,499	0,26
764,934	0,25
765,369	0,25
765,804	0,24
766,239	0,24
766,674	0,24
767,109	0,23
767,544	0,23
767,979	0,22
768,414	0,21
768,849	0,21
769,284	0,2
769,719	0,19
770,154	0,18
770,588	0,18
771,023	0,17
771,458	0,16
771,893	0,15
772,327	0,13
772,762	0,12
773,197	0,12
773,631	0,11
774,066	0,1
774,5	0,1
774,935	0,09
775,369	0,08
775,804	0,07
776,238	0,06
776,673	0,06
777,107	0,05
777,541	0,05
777,976	0,04
778,41	0,03
778,844	0,02
779,279	0,01
779,713	0,01
780,147	-0,01
780,581	-0,01
781,015	-0,02
781,449	-0,03
781,883	-0,04
782,317	-0,06
782,751	-0,07
783,185	-0,07
783,619	-0,08
784,053	-0,08
784,487	-0,09
784,921	-0,1
785,355	-0,1
785,789	-0,11
786,223	-0,12
786,656	-0,13
787,09	-0,13
787,524	-0,13
787,957	-0,14
788,391	-0,16
788,825	-0,18
789,258	-0,2
789,692	-0,21
790,125	-0,23
790,559	-0,25
790,992	-0,26
791,426	-0,29
791,859	-0,3
792,293	-0,34
792,726	-0,35
793,159	-0,37
793,593	-0,38
794,026	-0,4
794,459	-0,43
794,892	-0,46
795,326	-0,48
795,759	-0,51
796,192	-0,56
796,625	-0,6
797,058	-0,62
797,491	-0,67
797,924	-0,7
798,357	-0,75
798,79	-0,79
799,223	-0,84
799,656	-0,89
800,089	-0,94
800,522	-0,98
800,955	-1,03
801,387	-1,08
801,82	-1,13
802,253	-1,2
802,686	-1,28
803,118	-1,33
803,551	-1,38
803,984	-1,43
804,416	-1,46
804,849	-1,5
805,281	-1,61
805,714	-1,95
806,146	-2,4
806,579	-2,68
807,011	-2,85
807,444	-2,95
807,876	-3,04
808,308	-3,07
808,741	-3,1
809,173	-3,16
809,605	-3,18
810,037	-3,25
810,47	-3,18
810,902	-2,99
811,334	-2,84
811,766	-2,68
812,198	-2,45
812,63	-2,02
813,062	-1,79
813,494	-1,69
813,926	-1,6
814,358	-1,55
814,79	-1,47
815,222	-1,41
815,654	-1,36
816,086	-1,29
816,518	-1,24
816,949	-1,19
817,381	-1,14
817,813	-1,12
818,245	-1,08
818,676	-1,04
819,108	-1,01
819,54	-0,99
819,971	-0,97
820,403	-0,91
820,834	-0,9
821,266	-0,86
821,697	-0,83
822,129	-0,82
822,56	-0,8
822,991	-0,78
823,423	-0,75
823,854	-0,75
824,286	-0,72
824,717	-0,71
825,148	-0,69
825,579	-0,68
826,01	-0,67
826,442	-0,66
826,873	-0,64
827,304	-0,6
827,735	-0,59
828,166	-0,59
828,597	-0,6
829,028	-0,59
829,459	-0,6
829,89	-0,6
830,321	-0,55
830,752	-0,56
831,183	-0,55
831,613	-0,55
832,044	-0,55
832,475	-0,54
832,906	-0,55
833,336	-0,54
833,767	-0,54
834,198	-0,53
834,628	-0,52
835,059	-0,55
835,49	-0,56
835,92	-0,53
836,351	-0,54
836,781	-0,53
837,212	-0,55
837,642	-0,55
838,072	-0,53
838,503	-0,54
838,933	-0,52
839,364	-0,53
839,794	-0,5
840,224	-0,5
840,654	-0,54
841,085	-0,54
841,515	-0,51
841,945	-0,51
842,375	-0,47
842,805	-0,45
843,235	-0,44
843,665	-0,46
844,095	-0,44
844,525	-0,47
844,955	-0,46
845,385	-0,44
845,815	-0,43
846,245	-0,45
846,675	-0,46
847,105	-0,48
847,534	-0,49
847,964	-0,48
848,394	-0,46
848,824	-0,49
849,253	-0,48
849,683	-0,49
850,112	-0,49
850,542	-0,53
850,972	-0,52
851,401	-0,49
851,831	-0,47
852,26	-0,47
852,69	-0,51
853,119	-0,5
853,548	-0,51
853,978	-0,52
854,407	-0,5
854,836	-0,5
855,266	-0,49
855,695	-0,51
856,124	-0,52
856,553	-0,54
856,983	-0,56
857,412	-0,55
857,841	-0,56
858,27	-0,56
858,699	-0,56
859,128	-0,59
859,557	-0,6
859,986	-0,62
860,415	-0,59
860,844	-0,57
861,273	-0,57
861,702	-0,58
862,13	-0,56
862,559	-0,58
862,988	-0,56
863,417	-0,55
863,845	-0,55
864,274	-0,55
864,703	-0,55
865,131	-0,56
865,56	-0,57
865,989	-0,59
866,417	-0,56
866,846	-0,56
867,274	-0,55
867,703	-0,57
868,131	-0,58
868,559	-0,57
868,988	-0,6
869,416	-0,58
869,844	-0,59
870,273	-0,61
870,701	-0,59
871,129	-0,64
871,557	-0,66
871,986	-0,66
872,414	-0,67
872,842	-0,64
873,27	-0,62
873,698	-0,59
874,126	-0,63
874,554	-0,62
874,982	-0,61
875,41	-0,64
875,838	-0,58
876,266	-0,56
876,694	-0,56
877,122	-0,56
877,549	-0,61
877,977	-0,58
878,405	-0,61
878,833	-0,58
879,26	-0,56
879,688	-0,57
880,116	-0,55
880,543	-0,53
880,971	-0,52
881,399	-0,55
881,826	-0,56
882,254	-0,55
882,681	-0,59
883,109	-0,55
883,536	-0,56
883,963	-0,58
884,391	-0,56
884,818	-0,54
885,245	-0,59
885,673	-0,6
886,1	-0,57
886,527	-0,56
886,954	-0,52
887,381	-0,53
887,809	-0,53
888,236	-0,55
888,663	-0,55
889,09	-0,59
889,517	-0,62
889,944	-0,61
890,371	-0,6
890,798	-0,61
891,225	-0,61
891,652	-0,64
892,078	-0,62
892,505	-0,65
892,932	-0,61
893,359	-0,62
893,786	-0,63
894,212	-0,59
894,639	-0,61
895,066	-0,63
895,492	-0,56
895,919	-0,56
896,346	-0,56
896,772	-0,56
897,199	-0,52
897,625	-0,55
898,052	-0,5
898,478	-0,48
898,904	-0,5
899,331	-0,49
899,757	-0,51
900,183	-0,54
900,61	-0,52
901,036	-0,52
901,462	-0,52
901,888	-0,51
902,315	-0,5
902,741	-0,55
903,167	-0,54
903,593	-0,57
904,019	-0,56
904,445	-0,52
904,871	-0,55
905,297	-0,58
905,723	-0,58
906,149	-0,57
906,575	-0,58
907,001	-0,58
907,427	-0,55
907,852	-0,54
908,278	-0,55
908,704	-0,53
909,13	-0,53
909,555	-0,52
909,981	-0,5
910,407	-0,5
910,832	-0,49
911,258	-0,5
911,684	-0,5
912,109	-0,5
912,535	-0,52
912,96	-0,48
913,386	-0,52
913,811	-0,51
914,236	-0,54
914,662	-0,52
915,087	-0,56
915,512	-0,56
915,938	-0,57
916,363	-0,56
916,788	-0,59
917,213	-0,56
917,639	-0,61
918,064	-0,59
918,489	-0,59
918,914	-0,6
919,339	-0,61
919,764	-0,59
920,189	-0,59
920,614	-0,62
921,039	-0,62
921,464	-0,57
921,889	-0,6
922,314	-0,61
922,738	-0,63
923,163	-0,65
923,588	-0,65
924,013	-0,65
924,437	-0,64
924,862	-0,65
925,287	-0,61
925,711	-0,61
926,136	-0,63
926,561	-0,61
926,985	-0,61
927,41	-0,58
927,834	-0,55
928,259	-0,51
928,683	-0,49
929,108	-0,47
929,532	-0,48
929,956	-0,48
930,381	-0,47
930,805	-0,47
931,229	-0,47
931,653	-0,45
932,078	-0,44
932,502	-0,46
932,926	-0,47
933,35	-0,47
933,774	-0,46
934,198	-0,44
934,622	-0,43
935,046	-0,43
935,47	-0,44
935,894	-0,43
936,318	-0,43
936,742	-0,44
937,166	-0,44
937,59	-0,43
938,014	-0,46
938,437	-0,46
938,861	-0,48
939,285	-0,49
939,709	-0,49
940,132	-0,49
940,556	-0,5
940,98	-0,5
941,403	-0,48
941,827	-0,48
942,25	-0,49
942,674	-0,47
943,097	-0,47
943,521	-0,46
943,944	-0,47
944,368	-0,46
944,791	-0,44
945,214	-0,45
945,638	-0,46
946,061	-0,5
946,484	-0,52
946,907	-0,51
947,331	-0,5
947,754	-0,54
948,177	-0,51
948,6	-0,51
949,023	-0,51
949,446	-0,51
949,869	-0,5
950,292	-0,49
950,715	-0,46
951,138	-0,44
951,561	-0,41
951,984	-0,42
952,407	-0,41
952,83	-0,39
953,252	-0,35
953,675	-0,35
954,098	-0,37
954,521	-0,35
954,943	-0,34
955,366	-0,34
955,789	-0,33
956,211	-0,34
956,634	-0,34
957,056	-0,32
957,479	-0,33
957,902	-0,35
958,324	-0,36
958,746	-0,33
959,169	-0,35
959,591	-0,36
960,014	-0,37
960,436	-0,36
960,858	-0,36
961,281	-0,36
961,703	-0,37
962,125	-0,38
962,547	-0,36
962,969	-0,37
963,391	-0,37
963,814	-0,38
964,236	-0,36
964,658	-0,34
965,08	-0,36
965,502	-0,35
965,924	-0,32
966,346	-0,32
966,768	-0,32
967,189	-0,33
967,611	-0,32
968,033	-0,32
968,455	-0,29
968,877	-0,3
969,298	-0,31
969,72	-0,31
970,142	-0,3
970,563	-0,31
970,985	-0,3
971,407	-0,29
971,828	-0,27
972,25	-0,27
972,671	-0,25
973,093	-0,25
973,514	-0,25
973,936	-0,23
974,357	-0,23
974,778	-0,22
975,2	-0,22
975,621	-0,21
976,042	-0,19
976,464	-0,18
976,885	-0,17
977,306	-0,17
977,727	-0,16
978,148	-0,15
978,57	-0,13
978,991	-0,12
979,412	-0,11
979,833	-0,1
980,254	-0,1
980,675	-0,11
981,096	-0,1
981,517	-0,08
981,937	-0,09
982,358	-0,07
982,779	-0,06
983,2	-0,06
983,621	-0,05
984,042	-0,04
984,462	-0,03
984,883	-0,01
985,304	0
985,724	0,02
986,145	0,03
986,565	0,05
986,986	0,05
987,407	0,06
987,827	0,07
988,248	0,08
988,668	0,09
989,088	0,1
989,509	0,11
989,929	0,12
990,35	0,12
990,77	0,13
991,19	0,13
991,61	0,14
992,031	0,15
992,451	0,16
992,871	0,17
993,291	0,17
993,711	0,18
994,131	0,18
994,551	0,19
994,971	0,19
995,391	0,2
995,811	0,2
996,231	0,2
996,651	0,21
997,071	0,22
997,491	0,22
997,911	0,23
998,331	0,23
998,75	0,24
999,17	0,24
999,59	0,25
1000,009	0,25
1000,429	0,25
1000,849	0,26
1001,268	0,26
1001,688	0,26
1002,107	0,26
1002,527	0,27
1002,946	0,27
1003,366	0,27
1003,785	0,27
1004,205	0,28
1004,624	0,28
1005,044	0,28
1005,463	0,28
1005,882	0,28
1006,301	0,29
1006,721	0,29
1007,14	0,29
1007,559	0,29
1007,978	0,29
1008,397	0,29
1008,816	0,29
1009,235	0,29
1009,655	0,29
1010,074	0,29
1010,492	0,29
1010,911	0,28
1011,33	0,28
1011,749	0,28
1012,168	0,28
1012,587	0,28
1013,006	0,28
1013,425	0,28
1013,843	0,28
1014,262	0,28
1014,681	0,28
1015,099	0,28
1015,518	0,28
1015,937	0,27
1016,355	0,27
1016,774	0,27
1017,192	0,27
1017,611	0,28
1018,029	0,28
1018,448	0,28
1018,866	0,28
1019,285	0,28
1019,703	0,28
1020,121	0,28
1020,54	0,28
1020,958	0,28
1021,376	0,28
1021,794	0,28
1022,213	0,28
1022,631	0,28
1023,049	0,28
1023,467	0,28
1023,885	0,28
1024,303	0,27
1024,721	0,27
1025,139	0,27
1025,557	0,27
1025,975	0,27
1026,393	0,27
1026,811	0,27
1027,229	0,27
1027,647	0,27
1028,065	0,27
1028,482	0,27
1028,9	0,27
1029,318	0,27
1029,735	0,27
1030,153	0,27
1030,571	0,27
1030,988	0,27
1031,406	0,27
1031,823	0,27
1032,241	0,27
1032,659	0,27
1033,076	0,27
1033,493	0,27
1033,911	0,27
1034,328	0,27
1034,746	0,27
1035,163	0,27
1035,58	0,27
1035,997	0,27
1036,415	0,27
1036,832	0,27
1037,249	0,27
1037,666	0,27
1038,083	0,27
1038,501	0,27
1038,918	0,27
1039,335	0,27
1039,752	0,27
1040,169	0,27
1040,586	0,27
1041,003	0,27
1041,419	0,27
1041,836	0,27
1042,253	0,27
1042,67	0,27
1043,087	0,27
1043,504	0,26
1043,92	0,26
1044,337	0,26
1044,754	0,26
1045,17	0,26
1045,587	0,26
1046,004	0,26
1046,42	0,26
1046,837	0,26
1047,253	0,26
1047,67	0,26
1048,086	0,26
1048,503	0,26
1048,919	0,26
1049,335	0,26
1049,752	0,26
1050,168	0,26
1050,584	0,26
1051,001	0,26
1051,417	0,26
1051,833	0,26
1052,249	0,26
1052,665	0,26
1053,081	0,26
1053,497	0,26
1053,914	0,27
1054,33	0,27
1054,746	0,27
1055,162	0,27
1055,578	0,27
1055,993	0,27
1056,409	0,27
1056,825	0,27
1057,241	0,27
1057,657	0,27
1058,073	0,27
1058,488	0,27
1058,904	0,27
1059,32	0,27
1059,736	0,27
1060,151	0,27
1060,567	0,27
1060,982	0,27
1061,398	0,27
1061,813	0,27
1062,229	0,27
1062,644	0,27
1063,06	0,27
1063,475	0,27
1063,891	0,27
1064,306	0,27
1064,721	0,27
1065,137	0,27
1065,552	0,27
1065,967	0,27
1066,382	0,27
1066,798	0,27
1067,213	0,27
1067,628	0,27
1068,043	0,27
1068,458	0,27
1068,873	0,27
1069,288	0,27
1069,703	0,27
1070,118	0,27
1070,533	0,27
1070,948	0,27
1071,363	0,27
1071,778	0,27
1072,193	0,27
1072,607	0,27
1073,022	0,27
1073,437	0,27
1073,852	0,27
1074,266	0,27
1074,681	0,27
1075,096	0,27
1075,51	0,27
1075,925	0,27
1076,339	0,27
1076,754	0,27
1077,168	0,27
1077,583	0,27
1077,997	0,27
1078,412	0,27
1078,826	0,27
1079,24	0,27
1079,655	0,26
1080,069	0,26
1080,483	0,26
1080,897	0,26
1081,312	0,26
1081,726	0,26
1082,14	0,26
1082,554	0,26
1082,968	0,26
1083,382	0,26
1083,796	0,26
1084,21	0,26
1084,624	0,26
1085,038	0,26
1085,452	0,26
1085,866	0,26
1086,28	0,25
1086,694	0,25
1087,108	0,25
1087,521	0,25
1087,935	0,25
1088,349	0,25
1088,763	0,25
1089,176	0,25
1089,59	0,24
1090,004	0,24
1090,417	0,24
1090,831	0,24
1091,244	0,23
1091,658	0,23
1092,071	0,23
1092,485	0,23
1092,898	0,23
1093,312	0,22
1093,725	0,22
1094,138	0,22
1094,552	0,22
1094,965	0,22
1095,378	0,22
1095,791	0,22
1096,205	0,22
1096,618	0,21
1097,031	0,21
1097,444	0,21
1097,857	0,21
1098,27	0,21
1098,683	0,2
1099,096	0,2
1099,509	0,2
1099,922	0,19
1100,335	0,19
1100,748	0,18
1101,161	0,18
1101,574	0,18
1101,986	0,18
1102,399	0,18
1102,812	0,17
1103,225	0,17
1103,637	0,17
1104,05	0,16
1104,463	0,16
1104,875	0,16
1105,288	0,16
1105,7	0,15
1106,113	0,15
1106,525	0,15
1106,938	0,14
1107,35	0,14
1107,763	0,14
1108,175	0,14
1108,588	0,14
1109	0,13
1109,412	0,13
1109,824	0,13
1110,237	0,14
1110,649	0,15
1111,061	0,14
