Data from 18C-808nm-8A-cont_Absorbance__677__02106.txt Node

Date: Mon Jul 17 17:44:48 CEST 2023
User: Laser008
Spectrometer: MAYP115816
Trigger mode: 0
Integration Time (sec): 2,500000E-1
Scans to average: 10
Electric dark correction enabled: true
Nonlinearity correction enabled: true
Boxcar width: 5
XAxis mode: Wavelengths
Number of Pixels in Spectrum: 2068
>>>>>Begin Spectral Data<<<<<
198,914	-0,67
199,384	-0,45
199,855	-0,33
200,325	-0,24
200,796	-0,21
201,266	-0,16
201,737	-0,15
202,207	-0,13
202,677	-0,12
203,147	-0,11
203,618	-0,07
204,088	-0,05
204,558	-0,04
205,028	-0,03
205,498	-0,03
205,968	-0,03
206,439	-0,05
206,909	-0,05
207,379	-0,06
207,849	-0,07
208,319	-0,08
208,789	-0,08
209,258	-0,08
209,728	-0,09
210,198	-0,09
210,668	-0,09
211,138	-0,08
211,608	-0,09
212,077	-0,08
212,547	-0,07
213,017	-0,07
213,486	-0,07
213,956	-0,08
214,426	-0,09
214,895	-0,08
215,365	-0,1
215,834	-0,1
216,304	-0,12
216,773	-0,12
217,243	-0,13
217,712	-0,15
218,181	-0,15
218,651	-0,16
219,12	-0,16
219,589	-0,16
220,058	-0,15
220,528	-0,17
220,997	-0,17
221,466	-0,19
221,935	-0,19
222,404	-0,19
222,873	-0,17
223,342	-0,16
223,812	-0,15
224,281	-0,14
224,749	-0,15
225,218	-0,17
225,687	-0,17
226,156	-0,16
226,625	-0,13
227,094	-0,14
227,563	-0,14
228,031	-0,15
228,5	-0,16
228,969	-0,17
229,438	-0,17
229,906	-0,15
230,375	-0,14
230,844	-0,13
231,312	-0,12
231,781	-0,13
232,249	-0,12
232,718	-0,11
233,186	-0,09
233,655	-0,11
234,123	-0,1
234,591	-0,1
235,06	-0,11
235,528	-0,11
235,996	-0,1
236,465	-0,09
236,933	-0,09
237,401	-0,09
237,869	-0,08
238,337	-0,08
238,805	-0,06
239,274	-0,07
239,742	-0,07
240,21	-0,06
240,678	-0,06
241,146	-0,06
241,614	-0,07
242,081	-0,07
242,549	-0,07
243,017	-0,09
243,485	-0,09
243,953	-0,09
244,421	-0,08
244,888	-0,08
245,356	-0,08
245,824	-0,08
246,291	-0,08
246,759	-0,09
247,227	-0,09
247,694	-0,07
248,162	-0,06
248,629	-0,05
249,097	-0,05
249,564	-0,06
250,032	-0,08
250,499	-0,08
250,967	-0,09
251,434	-0,09
251,901	-0,09
252,369	-0,09
252,836	-0,11
253,303	-0,12
253,77	-0,14
254,237	-0,13
254,705	-0,14
255,172	-0,13
255,639	-0,13
256,106	-0,14
256,573	-0,14
257,04	-0,15
257,507	-0,15
257,974	-0,15
258,441	-0,13
258,908	-0,13
259,375	-0,15
259,841	-0,15
260,308	-0,15
260,775	-0,15
261,242	-0,14
261,709	-0,14
262,175	-0,14
262,642	-0,14
263,109	-0,13
263,575	-0,14
264,042	-0,13
264,508	-0,12
264,975	-0,14
265,441	-0,15
265,908	-0,16
266,374	-0,15
266,841	-0,16
267,307	-0,16
267,773	-0,16
268,24	-0,16
268,706	-0,17
269,172	-0,19
269,639	-0,2
270,105	-0,18
270,571	-0,18
271,037	-0,17
271,503	-0,19
271,969	-0,18
272,435	-0,17
272,902	-0,19
273,368	-0,2
273,834	-0,19
274,3	-0,19
274,765	-0,19
275,231	-0,19
275,697	-0,2
276,163	-0,19
276,629	-0,18
277,095	-0,18
277,56	-0,18
278,026	-0,19
278,492	-0,17
278,958	-0,17
279,423	-0,17
279,889	-0,17
280,354	-0,18
280,82	-0,16
281,286	-0,18
281,751	-0,18
282,217	-0,18
282,682	-0,18
283,147	-0,18
283,613	-0,19
284,078	-0,2
284,544	-0,21
285,009	-0,22
285,474	-0,22
285,939	-0,24
286,405	-0,23
286,87	-0,23
287,335	-0,22
287,8	-0,22
288,265	-0,21
288,73	-0,22
289,195	-0,24
289,66	-0,23
290,125	-0,21
290,59	-0,21
291,055	-0,2
291,52	-0,2
291,985	-0,2
292,45	-0,22
292,915	-0,22
293,38	-0,21
293,844	-0,19
294,309	-0,17
294,774	-0,16
295,239	-0,17
295,703	-0,17
296,168	-0,15
296,632	-0,15
297,097	-0,14
297,562	-0,13
298,026	-0,13
298,491	-0,14
298,955	-0,14
299,419	-0,14
299,884	-0,15
300,348	-0,14
300,813	-0,13
301,277	-0,14
301,741	-0,14
302,205	-0,14
302,67	-0,13
303,134	-0,13
303,598	-0,12
304,062	-0,11
304,526	-0,11
304,99	-0,11
305,454	-0,11
305,919	-0,11
306,383	-0,11
306,847	-0,1
307,31	-0,11
307,774	-0,13
308,238	-0,12
308,702	-0,12
309,166	-0,14
309,63	-0,13
310,094	-0,11
310,557	-0,11
311,021	-0,1
311,485	-0,1
311,948	-0,1
312,412	-0,09
312,876	-0,08
313,339	-0,09
313,803	-0,1
314,266	-0,09
314,73	-0,09
315,193	-0,09
315,657	-0,09
316,12	-0,08
316,584	-0,07
317,047	-0,07
317,51	-0,06
317,973	-0,05
318,437	-0,04
318,9	-0,03
319,363	-0,02
319,826	-0,01
320,29	-0,01
320,753	-0,02
321,216	-0,01
321,679	-0,02
322,142	-0,01
322,605	-0,03
323,068	-0,03
323,531	-0,04
323,994	-0,03
324,457	-0,03
324,92	-0,03
325,382	-0,02
325,845	-0,02
326,308	-0,02
326,771	-0,01
327,233	-0,01
327,696	0
328,159	0,01
328,622	0,03
329,084	0,03
329,547	0,04
330,009	0,04
330,472	0,06
330,934	0,07
331,397	0,07
331,859	0,08
332,322	0,08
332,784	0,08
333,246	0,08
333,709	0,08
334,171	0,08
334,633	0,09
335,096	0,09
335,558	0,08
336,02	0,09
336,482	0,09
336,944	0,1
337,406	0,11
337,868	0,12
338,331	0,12
338,793	0,13
339,255	0,14
339,717	0,13
340,178	0,14
340,64	0,16
341,102	0,16
341,564	0,17
342,026	0,18
342,488	0,19
342,949	0,21
343,411	0,25
343,873	0,28
344,335	0,31
344,796	0,35
345,258	0,39
345,719	0,44
346,181	0,49
346,643	0,54
347,104	0,58
347,566	0,61
348,027	0,65
348,488	0,68
348,95	0,7
349,411	0,73
349,873	0,76
350,334	0,79
350,795	0,81
351,256	0,82
351,718	0,83
352,179	0,84
352,64	0,84
353,101	0,85
353,562	0,85
354,023	0,85
354,484	0,86
354,945	0,86
355,406	0,86
355,867	0,87
356,328	0,87
356,789	0,87
357,25	0,88
357,711	0,88
358,172	0,88
358,633	0,88
359,093	0,88
359,554	0,89
360,015	0,89
360,476	0,89
360,936	0,89
361,397	0,89
361,858	0,89
362,318	0,89
362,779	0,9
363,239	0,9
363,7	0,9
364,16	0,9
364,621	0,9
365,081	0,9
365,541	0,9
366,002	0,9
366,462	0,9
366,922	0,9
367,383	0,9
367,843	0,9
368,303	0,9
368,763	0,9
369,223	0,9
369,684	0,9
370,144	0,9
370,604	0,9
371,064	0,9
371,524	0,9
371,984	0,9
372,444	0,9
372,904	0,9
373,363	0,9
373,823	0,9
374,283	0,89
374,743	0,89
375,203	0,89
375,663	0,89
376,122	0,89
376,582	0,89
377,042	0,89
377,501	0,89
377,961	0,89
378,42	0,89
378,88	0,89
379,34	0,89
379,799	0,89
380,259	0,89
380,718	0,89
381,177	0,89
381,637	0,89
382,096	0,89
382,555	0,89
383,015	0,89
383,474	0,89
383,933	0,89
384,393	0,89
384,852	0,89
385,311	0,89
385,77	0,89
386,229	0,89
386,688	0,89
387,147	0,89
387,606	0,89
388,065	0,89
388,524	0,89
388,983	0,88
389,442	0,88
389,901	0,88
390,36	0,88
390,819	0,88
391,277	0,88
391,736	0,88
392,195	0,88
392,654	0,88
393,112	0,88
393,571	0,88
394,03	0,88
394,488	0,88
394,947	0,88
395,405	0,88
395,864	0,88
396,322	0,88
396,781	0,88
397,239	0,88
397,698	0,88
398,156	0,88
398,614	0,88
399,073	0,88
399,531	0,88
399,989	0,88
400,447	0,88
400,905	0,88
401,364	0,88
401,822	0,88
402,28	0,88
402,738	0,87
403,196	0,87
403,654	0,87
404,112	0,87
404,57	0,87
405,028	0,87
405,486	0,87
405,944	0,87
406,402	0,87
406,859	0,87
407,317	0,87
407,775	0,87
408,233	0,87
408,691	0,87
409,148	0,87
409,606	0,87
410,064	0,87
410,521	0,87
410,979	0,87
411,436	0,87
411,894	0,87
412,351	0,87
412,809	0,87
413,266	0,87
413,724	0,87
414,181	0,87
414,638	0,87
415,096	0,87
415,553	0,87
416,01	0,87
416,467	0,87
416,925	0,87
417,382	0,87
417,839	0,87
418,296	0,87
418,753	0,87
419,21	0,87
419,667	0,87
420,124	0,87
420,581	0,87
421,038	0,87
421,495	0,87
421,952	0,87
422,409	0,87
422,866	0,87
423,322	0,87
423,779	0,87
424,236	0,87
424,693	0,87
425,149	0,87
425,606	0,87
426,063	0,87
426,519	0,87
426,976	0,87
427,433	0,87
427,889	0,87
428,346	0,87
428,802	0,87
429,258	0,87
429,715	0,87
430,171	0,87
430,628	0,87
431,084	0,87
431,54	0,87
431,997	0,87
432,453	0,87
432,909	0,86
433,365	0,86
433,821	0,86
434,277	0,86
434,734	0,86
435,19	0,86
435,646	0,86
436,102	0,86
436,558	0,86
437,014	0,86
437,47	0,86
437,925	0,86
438,381	0,86
438,837	0,86
439,293	0,86
439,749	0,86
440,205	0,86
440,66	0,86
441,116	0,86
441,572	0,86
442,027	0,86
442,483	0,86
442,939	0,86
443,394	0,86
443,85	0,86
444,305	0,87
444,761	0,87
445,216	0,87
445,672	0,87
446,127	0,87
446,582	0,87
447,038	0,87
447,493	0,87
447,948	0,87
448,403	0,87
448,859	0,87
449,314	0,87
449,769	0,87
450,224	0,87
450,679	0,87
451,134	0,87
451,589	0,87
452,044	0,87
452,499	0,87
452,954	0,87
453,409	0,87
453,864	0,87
454,319	0,87
454,774	0,87
455,229	0,87
455,684	0,87
456,138	0,87
456,593	0,87
457,048	0,87
457,503	0,87
457,957	0,87
458,412	0,87
458,866	0,88
459,321	0,88
459,776	0,88
460,23	0,88
460,685	0,88
461,139	0,88
461,593	0,88
462,048	0,88
462,502	0,88
462,957	0,88
463,411	0,89
463,865	0,89
464,319	0,89
464,774	0,89
465,228	0,89
465,682	0,89
466,136	0,89
466,59	0,89
467,044	0,89
467,499	0,89
467,953	0,89
468,407	0,9
468,861	0,9
469,315	0,9
469,768	0,9
470,222	0,9
470,676	0,9
471,13	0,9
471,584	0,9
472,038	0,9
472,491	0,91
472,945	0,91
473,399	0,91
473,852	0,91
474,306	0,91
474,76	0,91
475,213	0,91
475,667	0,91
476,12	0,91
476,574	0,92
477,027	0,92
477,481	0,92
477,934	0,92
478,388	0,92
478,841	0,92
479,294	0,93
479,748	0,93
480,201	0,93
480,654	0,93
481,107	0,94
481,561	0,94
482,014	0,94
482,467	0,94
482,92	0,94
483,373	0,94
483,826	0,95
484,279	0,95
484,732	0,95
485,185	0,95
485,638	0,96
486,091	0,96
486,544	0,96
486,997	0,96
487,449	0,97
487,902	0,97
488,355	0,97
488,808	0,97
489,26	0,98
489,713	0,98
490,166	0,98
490,618	0,98
491,071	0,99
491,523	0,99
491,976	1
492,429	1
492,881	1
493,333	1,01
493,786	1,01
494,238	1,01
494,691	1,02
495,143	1,02
495,595	1,02
496,048	1,03
496,5	1,03
496,952	1,04
497,404	1,04
497,856	1,04
498,309	1,05
498,761	1,05
499,213	1,06
499,665	1,06
500,117	1,07
500,569	1,07
501,021	1,08
501,473	1,08
501,925	1,08
502,377	1,09
502,828	1,09
503,28	1,1
503,732	1,1
504,184	1,11
504,636	1,11
505,087	1,11
505,539	1,12
505,991	1,12
506,442	1,13
506,894	1,13
507,345	1,14
507,797	1,14
508,249	1,15
508,7	1,15
509,151	1,16
509,603	1,16
510,054	1,16
510,506	1,17
510,957	1,17
511,408	1,18
511,86	1,18
512,311	1,18
512,762	1,19
513,213	1,19
513,665	1,19
514,116	1,2
514,567	1,2
515,018	1,21
515,469	1,21
515,92	1,21
516,371	1,22
516,822	1,22
517,273	1,22
517,724	1,23
518,175	1,23
518,626	1,23
519,076	1,23
519,527	1,24
519,978	1,24
520,429	1,24
520,88	1,24
521,33	1,24
521,781	1,25
522,232	1,25
522,682	1,25
523,133	1,25
523,583	1,25
524,034	1,26
524,484	1,26
524,935	1,26
525,385	1,26
525,836	1,26
526,286	1,26
526,736	1,26
527,187	1,26
527,637	1,26
528,087	1,26
528,538	1,26
528,988	1,26
529,438	1,25
529,888	1,25
530,338	1,25
530,788	1,25
531,238	1,25
531,688	1,25
532,139	1,24
532,589	1,24
533,038	1,24
533,488	1,24
533,938	1,24
534,388	1,23
534,838	1,23
535,288	1,23
535,738	1,23
536,187	1,22
536,637	1,22
537,087	1,21
537,537	1,21
537,986	1,2
538,436	1,2
538,885	1,19
539,335	1,18
539,785	1,18
540,234	1,17
540,684	1,17
541,133	1,16
541,582	1,16
542,032	1,15
542,481	1,14
542,931	1,14
543,38	1,13
543,829	1,13
544,278	1,12
544,728	1,11
545,177	1,11
545,626	1,1
546,075	1,1
546,524	1,09
546,973	1,09
547,422	1,08
547,871	1,08
548,32	1,07
548,769	1,07
549,218	1,07
549,667	1,07
550,116	1,06
550,565	1,06
551,014	1,05
551,463	1,05
551,911	1,04
552,36	1,04
552,809	1,03
553,258	1,03
553,706	1,02
554,155	1,02
554,603	1,02
555,052	1,01
555,501	1
555,949	1
556,398	0,99
556,846	0,99
557,294	0,98
557,743	0,98
558,191	0,97
558,64	0,96
559,088	0,96
559,536	0,95
559,985	0,95
560,433	0,94
560,881	0,94
561,329	0,93
561,777	0,93
562,225	0,92
562,674	0,92
563,122	0,91
563,57	0,91
564,018	0,9
564,466	0,9
564,914	0,89
565,362	0,89
565,809	0,88
566,257	0,88
566,705	0,87
567,153	0,87
567,601	0,86
568,048	0,86
568,496	0,85
568,944	0,85
569,392	0,85
569,839	0,84
570,287	0,84
570,734	0,83
571,182	0,83
571,63	0,82
572,077	0,82
572,525	0,82
572,972	0,81
573,419	0,81
573,867	0,8
574,314	0,8
574,761	0,79
575,209	0,79
575,656	0,79
576,103	0,78
576,551	0,78
576,998	0,78
577,445	0,77
577,892	0,77
578,339	0,77
578,786	0,76
579,233	0,76
579,68	0,75
580,127	0,75
580,574	0,75
581,021	0,74
581,468	0,74
581,915	0,74
582,362	0,74
582,809	0,73
583,255	0,73
583,702	0,73
584,149	0,72
584,596	0,72
585,042	0,72
585,489	0,71
585,936	0,71
586,382	0,71
586,829	0,71
587,275	0,7
587,722	0,7
588,168	0,7
588,615	0,69
589,061	0,69
589,508	0,69
589,954	0,69
590,4	0,69
590,847	0,68
591,293	0,68
591,739	0,68
592,185	0,68
592,632	0,68
593,078	0,67
593,524	0,67
593,97	0,67
594,416	0,67
594,862	0,67
595,308	0,67
595,754	0,66
596,2	0,66
596,646	0,66
597,092	0,66
597,538	0,65
597,984	0,65
598,43	0,65
598,876	0,65
599,321	0,65
599,767	0,65
600,213	0,65
600,659	0,64
601,104	0,64
601,55	0,64
601,995	0,64
602,441	0,64
602,887	0,64
603,332	0,63
603,778	0,63
604,223	0,63
604,668	0,63
605,114	0,63
605,559	0,63
606,005	0,63
606,45	0,63
606,895	0,63
607,341	0,62
607,786	0,62
608,231	0,62
608,676	0,61
609,121	0,61
609,566	0,6
610,012	0,59
610,457	0,59
610,902	0,58
611,347	0,58
611,792	0,58
612,237	0,57
612,682	0,57
613,127	0,57
613,571	0,57
614,016	0,58
614,461	0,58
614,906	0,59
615,351	0,59
615,795	0,59
616,24	0,59
616,685	0,59
617,129	0,59
617,574	0,59
618,019	0,59
618,463	0,59
618,908	0,59
619,352	0,59
619,797	0,59
620,241	0,59
620,686	0,59
621,13	0,59
621,574	0,59
622,019	0,58
622,463	0,58
622,907	0,58
623,352	0,58
623,796	0,58
624,24	0,58
624,684	0,58
625,128	0,58
625,572	0,57
626,016	0,57
626,461	0,57
626,905	0,57
627,349	0,57
627,793	0,57
628,236	0,57
628,68	0,57
629,124	0,57
629,568	0,57
630,012	0,57
630,456	0,57
630,9	0,57
631,343	0,57
631,787	0,57
632,231	0,57
632,674	0,57
633,118	0,57
633,562	0,57
634,005	0,57
634,449	0,57
634,892	0,57
635,336	0,57
635,779	0,57
636,223	0,56
636,666	0,56
637,109	0,56
637,553	0,56
637,996	0,56
638,439	0,56
638,883	0,56
639,326	0,56
639,769	0,56
640,212	0,56
640,655	0,56
641,099	0,56
641,542	0,56
641,985	0,56
642,428	0,56
642,871	0,56
643,314	0,56
643,757	0,56
644,2	0,56
644,643	0,56
645,085	0,55
645,528	0,55
645,971	0,55
646,414	0,55
646,857	0,55
647,299	0,55
647,742	0,55
648,185	0,55
648,627	0,55
649,07	0,55
649,513	0,55
649,955	0,55
650,398	0,54
650,84	0,54
651,283	0,54
651,725	0,54
652,168	0,54
652,61	0,54
653,052	0,54
653,495	0,54
653,937	0,45
654,379	0,4
654,821	0,4
655,264	0,4
655,706	0,4
656,148	0,4
656,59	0,41
657,032	0,41
657,474	0,41
657,916	0,4
658,358	0,4
658,8	0,46
659,242	0,54
659,684	0,54
660,126	0,54
660,568	0,54
661,01	0,54
661,452	0,54
661,894	0,54
662,335	0,54
662,777	0,54
663,219	0,54
663,661	0,54
664,102	0,54
664,544	0,54
664,985	0,54
665,427	0,54
665,869	0,54
666,31	0,54
666,752	0,54
667,193	0,54
667,634	0,54
668,076	0,54
668,517	0,54
668,959	0,54
669,4	0,54
669,841	0,54
670,282	0,54
670,724	0,54
671,165	0,54
671,606	0,54
672,047	0,54
672,488	0,53
672,929	0,53
673,37	0,53
673,811	0,53
674,252	0,53
674,693	0,53
675,134	0,53
675,575	0,53
676,016	0,53
676,457	0,53
676,898	0,53
677,339	0,53
677,78	0,53
678,22	0,53
678,661	0,53
679,102	0,53
679,542	0,53
679,983	0,53
680,424	0,53
680,864	0,53
681,305	0,53
681,745	0,53
682,186	0,53
682,626	0,54
683,067	0,54
683,507	0,54
683,948	0,53
684,388	0,53
684,828	0,53
685,269	0,53
685,709	0,53
686,149	0,53
686,589	0,53
687,029	0,53
687,47	0,53
687,91	0,53
688,35	0,53
688,79	0,53
689,23	0,52
689,67	0,52
690,11	0,52
690,55	0,52
690,99	0,52
691,43	0,52
691,87	0,52
692,31	0,52
692,749	0,52
693,189	0,52
693,629	0,52
694,069	0,52
694,508	0,52
694,948	0,52
695,388	0,52
695,827	0,52
696,267	0,52
696,706	0,52
697,146	0,52
697,586	0,52
698,025	0,52
698,464	0,52
698,904	0,52
699,343	0,52
699,783	0,52
700,222	0,52
700,661	0,52
701,101	0,52
701,54	0,52
701,979	0,52
702,418	0,52
702,857	0,52
703,297	0,52
703,736	0,52
704,175	0,52
704,614	0,52
705,053	0,52
705,492	0,52
705,931	0,52
706,37	0,52
706,809	0,52
707,248	0,52
707,687	0,52
708,125	0,52
708,564	0,51
709,003	0,51
709,442	0,51
709,88	0,51
710,319	0,51
710,758	0,51
711,196	0,51
711,635	0,51
712,074	0,51
712,512	0,51
712,951	0,51
713,389	0,51
713,828	0,51
714,266	0,51
714,705	0,51
715,143	0,51
715,581	0,51
716,02	0,51
716,458	0,51
716,896	0,51
717,334	0,51
717,773	0,51
718,211	0,51
718,649	0,51
719,087	0,51
719,525	0,51
719,963	0,51
720,401	0,51
720,839	0,51
721,277	0,51
721,715	0,51
722,153	0,51
722,591	0,51
723,029	0,51
723,467	0,51
723,905	0,51
724,342	0,51
724,78	0,51
725,218	0,51
725,656	0,51
726,093	0,51
726,531	0,51
726,969	0,51
727,406	0,51
727,844	0,51
728,281	0,51
728,719	0,51
729,156	0,5
729,594	0,5
730,031	0,5
730,469	0,5
730,906	0,5
731,343	0,5
731,781	0,5
732,218	0,5
732,655	0,5
733,092	0,5
733,53	0,5
733,967	0,5
734,404	0,5
734,841	0,5
735,278	0,5
735,715	0,5
736,152	0,5
736,589	0,5
737,026	0,5
737,463	0,5
737,9	0,5
738,337	0,5
738,774	0,5
739,211	0,5
739,647	0,5
740,084	0,5
740,521	0,5
740,958	0,5
741,394	0,5
741,831	0,5
742,268	0,5
742,704	0,5
743,141	0,5
743,577	0,5
744,014	0,5
744,45	0,5
744,887	0,5
745,323	0,5
745,76	0,49
746,196	0,49
746,632	0,49
747,069	0,49
747,505	0,49
747,941	0,49
748,378	0,49
748,814	0,49
749,25	0,49
749,686	0,49
750,122	0,49
750,558	0,49
750,994	0,49
751,43	0,49
751,866	0,49
752,302	0,49
752,738	0,49
753,174	0,49
753,61	0,49
754,046	0,49
754,482	0,49
754,918	0,49
755,354	0,49
755,789	0,49
756,225	0,49
756,661	0,49
757,096	0,49
757,532	0,48
757,968	0,48
758,403	0,48
758,839	0,48
759,274	0,47
759,71	0,47
760,145	0,46
760,581	0,46
761,016	0,45
761,452	0,45
761,887	0,44
762,322	0,43
762,758	0,43
763,193	0,42
763,628	0,42
764,063	0,41
764,499	0,4
764,934	0,39
765,369	0,39
765,804	0,38
766,239	0,37
766,674	0,37
767,109	0,36
767,544	0,35
767,979	0,34
768,414	0,33
768,849	0,32
769,284	0,32
769,719	0,3
770,154	0,3
770,588	0,29
771,023	0,27
771,458	0,26
771,893	0,25
772,327	0,23
772,762	0,22
773,197	0,21
773,631	0,2
774,066	0,19
774,5	0,18
774,935	0,17
775,369	0,16
775,804	0,15
776,238	0,14
776,673	0,13
777,107	0,12
777,541	0,11
777,976	0,1
778,41	0,09
778,844	0,08
779,279	0,08
779,713	0,07
780,147	0,06
780,581	0,05
781,015	0,04
781,449	0,04
781,883	0,03
782,317	0,01
782,751	-0
783,185	-0,01
783,619	-0,02
784,053	-0,04
784,487	-0,05
784,921	-0,05
785,355	-0,06
785,789	-0,07
786,223	-0,08
786,656	-0,09
787,09	-0,1
787,524	-0,1
787,957	-0,11
788,391	-0,13
788,825	-0,14
789,258	-0,15
789,692	-0,17
790,125	-0,19
790,559	-0,21
790,992	-0,23
791,426	-0,26
791,859	-0,28
792,293	-0,31
792,726	-0,33
793,159	-0,34
793,593	-0,36
794,026	-0,38
794,459	-0,41
794,892	-0,44
795,326	-0,47
795,759	-0,5
796,192	-0,55
796,625	-0,59
797,058	-0,62
797,491	-0,66
797,924	-0,7
798,357	-0,75
798,79	-0,8
799,223	-0,84
799,656	-0,89
800,089	-0,94
800,522	-0,98
800,955	-1,03
801,387	-1,08
801,82	-1,13
802,253	-1,2
802,686	-1,28
803,118	-1,33
803,551	-1,39
803,984	-1,43
804,416	-1,47
804,849	-1,5
805,281	-1,62
805,714	-1,97
806,146	-2,43
806,579	-2,7
807,011	-2,86
807,444	-2,96
807,876	-3,05
808,308	-3,09
808,741	-3,12
809,173	-3,17
809,605	-3,19
810,037	-3,27
810,47	-3,19
810,902	-3
811,334	-2,85
811,766	-2,7
812,198	-2,48
812,63	-2,04
813,062	-1,8
813,494	-1,7
813,926	-1,61
814,358	-1,55
814,79	-1,47
815,222	-1,41
815,654	-1,36
816,086	-1,3
816,518	-1,24
816,949	-1,19
817,381	-1,15
817,813	-1,13
818,245	-1,09
818,676	-1,05
819,108	-1,01
819,54	-1
819,971	-0,98
820,403	-0,92
820,834	-0,91
821,266	-0,87
821,697	-0,84
822,129	-0,83
822,56	-0,8
822,991	-0,78
823,423	-0,75
823,854	-0,74
824,286	-0,71
824,717	-0,7
825,148	-0,69
825,579	-0,68
826,01	-0,66
826,442	-0,66
826,873	-0,64
827,304	-0,6
827,735	-0,59
828,166	-0,59
828,597	-0,59
829,028	-0,59
829,459	-0,59
829,89	-0,59
830,321	-0,55
830,752	-0,57
831,183	-0,56
831,613	-0,56
832,044	-0,56
832,475	-0,55
832,906	-0,57
833,336	-0,57
833,767	-0,57
834,198	-0,56
834,628	-0,54
835,059	-0,56
835,49	-0,56
835,92	-0,53
836,351	-0,53
836,781	-0,52
837,212	-0,54
837,642	-0,54
838,072	-0,52
838,503	-0,53
838,933	-0,51
839,364	-0,52
839,794	-0,5
840,224	-0,49
840,654	-0,53
841,085	-0,53
841,515	-0,51
841,945	-0,51
842,375	-0,46
842,805	-0,46
843,235	-0,44
843,665	-0,45
844,095	-0,44
844,525	-0,46
844,955	-0,47
845,385	-0,45
845,815	-0,44
846,245	-0,47
846,675	-0,47
847,105	-0,49
847,534	-0,5
847,964	-0,48
848,394	-0,46
848,824	-0,5
849,253	-0,48
849,683	-0,48
850,112	-0,48
850,542	-0,51
850,972	-0,51
851,401	-0,49
851,831	-0,47
852,26	-0,47
852,69	-0,51
853,119	-0,51
853,548	-0,52
853,978	-0,51
854,407	-0,49
854,836	-0,5
855,266	-0,49
855,695	-0,51
856,124	-0,53
856,553	-0,54
856,983	-0,55
857,412	-0,54
857,841	-0,55
858,27	-0,55
858,699	-0,56
859,128	-0,6
859,557	-0,61
859,986	-0,61
860,415	-0,58
860,844	-0,56
861,273	-0,56
861,702	-0,56
862,13	-0,54
862,559	-0,56
862,988	-0,54
863,417	-0,53
863,845	-0,52
864,274	-0,52
864,703	-0,53
865,131	-0,53
865,56	-0,54
865,989	-0,58
866,417	-0,55
866,846	-0,56
867,274	-0,54
867,703	-0,57
868,131	-0,58
868,559	-0,59
868,988	-0,61
869,416	-0,6
869,844	-0,61
870,273	-0,64
870,701	-0,61
871,129	-0,64
871,557	-0,67
871,986	-0,67
872,414	-0,67
872,842	-0,64
873,27	-0,63
873,698	-0,6
874,126	-0,64
874,554	-0,62
874,982	-0,62
875,41	-0,65
875,838	-0,6
876,266	-0,57
876,694	-0,58
877,122	-0,57
877,549	-0,63
877,977	-0,59
878,405	-0,62
878,833	-0,59
879,26	-0,57
879,688	-0,57
880,116	-0,55
880,543	-0,54
880,971	-0,53
881,399	-0,56
881,826	-0,56
882,254	-0,54
882,681	-0,58
883,109	-0,54
883,536	-0,56
883,963	-0,58
884,391	-0,56
884,818	-0,55
885,245	-0,59
885,673	-0,6
886,1	-0,57
886,527	-0,58
886,954	-0,54
887,381	-0,55
887,809	-0,55
888,236	-0,56
888,663	-0,57
889,09	-0,61
889,517	-0,63
889,944	-0,62
890,371	-0,61
890,798	-0,61
891,225	-0,6
891,652	-0,63
892,078	-0,6
892,505	-0,64
892,932	-0,6
893,359	-0,61
893,786	-0,6
894,212	-0,57
894,639	-0,59
895,066	-0,61
895,492	-0,55
895,919	-0,55
896,346	-0,56
896,772	-0,56
897,199	-0,53
897,625	-0,56
898,052	-0,52
898,478	-0,5
898,904	-0,52
899,331	-0,51
899,757	-0,53
900,183	-0,55
900,61	-0,54
901,036	-0,53
901,462	-0,53
901,888	-0,53
902,315	-0,51
902,741	-0,57
903,167	-0,56
903,593	-0,58
904,019	-0,57
904,445	-0,53
904,871	-0,57
905,297	-0,58
905,723	-0,58
906,149	-0,58
906,575	-0,58
907,001	-0,58
907,427	-0,55
907,852	-0,54
908,278	-0,56
908,704	-0,54
909,13	-0,54
909,555	-0,53
909,981	-0,53
910,407	-0,53
910,832	-0,51
911,258	-0,52
911,684	-0,52
912,109	-0,51
912,535	-0,53
912,96	-0,48
913,386	-0,52
913,811	-0,51
914,236	-0,53
914,662	-0,52
915,087	-0,56
915,512	-0,57
915,938	-0,58
916,363	-0,57
916,788	-0,6
917,213	-0,58
917,639	-0,61
918,064	-0,59
918,489	-0,59
918,914	-0,59
919,339	-0,59
919,764	-0,56
920,189	-0,57
920,614	-0,59
921,039	-0,59
921,464	-0,55
921,889	-0,57
922,314	-0,59
922,738	-0,63
923,163	-0,64
923,588	-0,63
924,013	-0,62
924,437	-0,62
924,862	-0,62
925,287	-0,58
925,711	-0,59
926,136	-0,6
926,561	-0,58
926,985	-0,57
927,41	-0,53
927,834	-0,5
928,259	-0,48
928,683	-0,47
929,108	-0,45
929,532	-0,46
929,956	-0,45
930,381	-0,44
930,805	-0,44
931,229	-0,44
931,653	-0,42
932,078	-0,42
932,502	-0,45
932,926	-0,46
933,35	-0,46
933,774	-0,45
934,198	-0,44
934,622	-0,43
935,046	-0,43
935,47	-0,44
935,894	-0,43
936,318	-0,43
936,742	-0,43
937,166	-0,43
937,59	-0,43
938,014	-0,45
938,437	-0,45
938,861	-0,46
939,285	-0,48
939,709	-0,47
940,132	-0,47
940,556	-0,48
940,98	-0,47
941,403	-0,46
941,827	-0,46
942,25	-0,47
942,674	-0,46
943,097	-0,45
943,521	-0,45
943,944	-0,46
944,368	-0,46
944,791	-0,45
945,214	-0,46
945,638	-0,47
946,061	-0,5
946,484	-0,51
946,907	-0,49
947,331	-0,48
947,754	-0,53
948,177	-0,5
948,6	-0,5
949,023	-0,49
949,446	-0,49
949,869	-0,47
950,292	-0,48
950,715	-0,44
951,138	-0,43
951,561	-0,41
951,984	-0,42
952,407	-0,41
952,83	-0,4
953,252	-0,35
953,675	-0,35
954,098	-0,35
954,521	-0,34
954,943	-0,33
955,366	-0,33
955,789	-0,31
956,211	-0,33
956,634	-0,34
957,056	-0,32
957,479	-0,33
957,902	-0,36
958,324	-0,36
958,746	-0,35
959,169	-0,36
959,591	-0,36
960,014	-0,38
960,436	-0,38
960,858	-0,37
961,281	-0,36
961,703	-0,37
962,125	-0,37
962,547	-0,35
962,969	-0,35
963,391	-0,36
963,814	-0,37
964,236	-0,35
964,658	-0,32
965,08	-0,33
965,502	-0,32
965,924	-0,3
966,346	-0,3
966,768	-0,29
967,189	-0,31
967,611	-0,3
968,033	-0,29
968,455	-0,28
968,877	-0,3
969,298	-0,31
969,72	-0,3
970,142	-0,3
970,563	-0,3
970,985	-0,29
971,407	-0,28
971,828	-0,26
972,25	-0,25
972,671	-0,24
973,093	-0,23
973,514	-0,21
973,936	-0,19
974,357	-0,18
974,778	-0,18
975,2	-0,17
975,621	-0,17
976,042	-0,15
976,464	-0,14
976,885	-0,13
977,306	-0,13
977,727	-0,12
978,148	-0,12
978,57	-0,11
978,991	-0,09
979,412	-0,08
979,833	-0,07
980,254	-0,06
980,675	-0,07
981,096	-0,05
981,517	-0,04
981,937	-0,04
982,358	-0,03
982,779	-0,01
983,2	-0,01
983,621	-0,01
984,042	0,01
984,462	0,02
984,883	0,04
985,304	0,06
985,724	0,07
986,145	0,08
986,565	0,1
986,986	0,12
987,407	0,13
987,827	0,15
988,248	0,16
988,668	0,17
989,088	0,19
989,509	0,2
989,929	0,21
990,35	0,23
990,77	0,24
991,19	0,25
991,61	0,27
992,031	0,28
992,451	0,29
992,871	0,3
993,291	0,32
993,711	0,33
994,131	0,34
994,551	0,35
994,971	0,35
995,391	0,36
995,811	0,37
996,231	0,37
996,651	0,38
997,071	0,39
997,491	0,4
997,911	0,4
998,331	0,41
998,75	0,42
999,17	0,42
999,59	0,43
1000,009	0,43
1000,429	0,44
1000,849	0,45
1001,268	0,46
1001,688	0,46
1002,107	0,46
1002,527	0,47
1002,946	0,47
1003,366	0,47
1003,785	0,48
1004,205	0,48
1004,624	0,48
1005,044	0,49
1005,463	0,49
1005,882	0,49
1006,301	0,49
1006,721	0,49
1007,14	0,49
1007,559	0,5
1007,978	0,5
1008,397	0,5
1008,816	0,5
1009,235	0,5
1009,655	0,5
1010,074	0,5
1010,492	0,5
1010,911	0,5
1011,33	0,5
1011,749	0,5
1012,168	0,49
1012,587	0,49
1013,006	0,49
1013,425	0,49
1013,843	0,49
1014,262	0,49
1014,681	0,49
1015,099	0,49
1015,518	0,49
1015,937	0,49
1016,355	0,49
1016,774	0,49
1017,192	0,49
1017,611	0,49
1018,029	0,49
1018,448	0,49
1018,866	0,49
1019,285	0,49
1019,703	0,49
1020,121	0,49
1020,54	0,49
1020,958	0,49
1021,376	0,49
1021,794	0,49
1022,213	0,49
1022,631	0,49
1023,049	0,49
1023,467	0,48
1023,885	0,48
1024,303	0,48
1024,721	0,48
1025,139	0,48
1025,557	0,48
1025,975	0,48
1026,393	0,48
1026,811	0,47
1027,229	0,47
1027,647	0,47
1028,065	0,47
1028,482	0,47
1028,9	0,47
1029,318	0,47
1029,735	0,47
1030,153	0,47
1030,571	0,47
1030,988	0,47
1031,406	0,47
1031,823	0,47
1032,241	0,47
1032,659	0,47
1033,076	0,47
1033,493	0,47
1033,911	0,48
1034,328	0,48
1034,746	0,48
1035,163	0,48
1035,58	0,48
1035,997	0,47
1036,415	0,48
1036,832	0,48
1037,249	0,47
1037,666	0,47
1038,083	0,47
1038,501	0,47
1038,918	0,47
1039,335	0,47
1039,752	0,47
1040,169	0,47
1040,586	0,47
1041,003	0,47
1041,419	0,47
1041,836	0,47
1042,253	0,47
1042,67	0,47
1043,087	0,47
1043,504	0,47
1043,92	0,47
1044,337	0,47
1044,754	0,47
1045,17	0,47
1045,587	0,47
1046,004	0,47
1046,42	0,47
1046,837	0,46
1047,253	0,46
1047,67	0,47
1048,086	0,47
1048,503	0,47
1048,919	0,47
1049,335	0,47
1049,752	0,47
1050,168	0,47
1050,584	0,47
1051,001	0,47
1051,417	0,47
1051,833	0,47
1052,249	0,47
1052,665	0,47
1053,081	0,47
1053,497	0,47
1053,914	0,48
1054,33	0,48
1054,746	0,48
1055,162	0,48
1055,578	0,48
1055,993	0,48
1056,409	0,48
1056,825	0,49
1057,241	0,49
1057,657	0,49
1058,073	0,49
1058,488	0,49
1058,904	0,49
1059,32	0,49
1059,736	0,49
1060,151	0,49
1060,567	0,49
1060,982	0,49
1061,398	0,49
1061,813	0,49
1062,229	0,49
1062,644	0,49
1063,06	0,49
1063,475	0,49
1063,891	0,49
1064,306	0,48
1064,721	0,48
1065,137	0,48
1065,552	0,48
1065,967	0,48
1066,382	0,48
1066,798	0,48
1067,213	0,48
1067,628	0,48
1068,043	0,48
1068,458	0,48
1068,873	0,48
1069,288	0,48
1069,703	0,48
1070,118	0,48
1070,533	0,48
1070,948	0,48
1071,363	0,48
1071,778	0,48
1072,193	0,48
1072,607	0,48
1073,022	0,48
1073,437	0,48
1073,852	0,48
1074,266	0,48
1074,681	0,48
1075,096	0,48
1075,51	0,48
1075,925	0,48
1076,339	0,48
1076,754	0,48
1077,168	0,48
1077,583	0,48
1077,997	0,48
1078,412	0,47
1078,826	0,47
1079,24	0,47
1079,655	0,47
1080,069	0,47
1080,483	0,47
1080,897	0,47
1081,312	0,47
1081,726	0,47
1082,14	0,47
1082,554	0,47
1082,968	0,47
1083,382	0,47
1083,796	0,47
1084,21	0,46
1084,624	0,46
1085,038	0,46
1085,452	0,46
1085,866	0,46
1086,28	0,45
1086,694	0,45
1087,108	0,45
1087,521	0,45
1087,935	0,45
1088,349	0,44
1088,763	0,44
1089,176	0,44
1089,59	0,44
1090,004	0,44
1090,417	0,43
1090,831	0,43
1091,244	0,42
1091,658	0,42
1092,071	0,42
1092,485	0,41
1092,898	0,41
1093,312	0,41
1093,725	0,41
1094,138	0,4
1094,552	0,4
1094,965	0,4
1095,378	0,4
1095,791	0,4
1096,205	0,4
1096,618	0,39
1097,031	0,39
1097,444	0,39
1097,857	0,38
1098,27	0,38
1098,683	0,38
1099,096	0,37
1099,509	0,37
1099,922	0,37
1100,335	0,36
1100,748	0,35
1101,161	0,34
1101,574	0,34
1101,986	0,33
1102,399	0,33
1102,812	0,33
1103,225	0,33
1103,637	0,33
1104,05	0,32
1104,463	0,32
1104,875	0,32
1105,288	0,31
1105,7	0,31
1106,113	0,31
1106,525	0,3
1106,938	0,3
1107,35	0,29
1107,763	0,29
1108,175	0,29
1108,588	0,29
1109	0,28
1109,412	0,27
1109,824	0,27
1110,237	0,27
1110,649	0,27
1111,061	0,27
