Data from 18C-808nm-8A-cont_Absorbance__525__01954.txt Node

Date: Mon Jul 17 17:38:28 CEST 2023
User: Laser008
Spectrometer: MAYP115816
Trigger mode: 0
Integration Time (sec): 2,500000E-1
Scans to average: 10
Electric dark correction enabled: true
Nonlinearity correction enabled: true
Boxcar width: 5
XAxis mode: Wavelengths
Number of Pixels in Spectrum: 2068
>>>>>Begin Spectral Data<<<<<
198,914	-0,7
199,384	-0,48
199,855	-0,36
200,325	-0,29
200,796	-0,27
201,266	-0,21
201,737	-0,19
202,207	-0,17
202,677	-0,16
203,147	-0,14
203,618	-0,11
204,088	-0,1
204,558	-0,08
205,028	-0,07
205,498	-0,08
205,968	-0,07
206,439	-0,1
206,909	-0,1
207,379	-0,11
207,849	-0,11
208,319	-0,12
208,789	-0,12
209,258	-0,12
209,728	-0,14
210,198	-0,13
210,668	-0,12
211,138	-0,11
211,608	-0,11
212,077	-0,1
212,547	-0,1
213,017	-0,11
213,486	-0,11
213,956	-0,12
214,426	-0,13
214,895	-0,13
215,365	-0,14
215,834	-0,15
216,304	-0,16
216,773	-0,17
217,243	-0,18
217,712	-0,19
218,181	-0,19
218,651	-0,19
219,12	-0,19
219,589	-0,19
220,058	-0,17
220,528	-0,18
220,997	-0,19
221,466	-0,2
221,935	-0,21
222,404	-0,2
222,873	-0,19
223,342	-0,19
223,812	-0,19
224,281	-0,19
224,749	-0,19
225,218	-0,21
225,687	-0,22
226,156	-0,2
226,625	-0,18
227,094	-0,17
227,563	-0,18
228,031	-0,19
228,5	-0,19
228,969	-0,2
229,438	-0,19
229,906	-0,18
230,375	-0,17
230,844	-0,16
231,312	-0,16
231,781	-0,17
232,249	-0,17
232,718	-0,16
233,186	-0,15
233,655	-0,15
234,123	-0,15
234,591	-0,15
235,06	-0,16
235,528	-0,16
235,996	-0,16
236,465	-0,16
236,933	-0,16
237,401	-0,16
237,869	-0,16
238,337	-0,16
238,805	-0,15
239,274	-0,14
239,742	-0,14
240,21	-0,14
240,678	-0,13
241,146	-0,13
241,614	-0,12
242,081	-0,1
242,549	-0,1
243,017	-0,11
243,485	-0,12
243,953	-0,11
244,421	-0,11
244,888	-0,11
245,356	-0,11
245,824	-0,11
246,291	-0,12
246,759	-0,13
247,227	-0,13
247,694	-0,12
248,162	-0,11
248,629	-0,1
249,097	-0,11
249,564	-0,11
250,032	-0,12
250,499	-0,12
250,967	-0,12
251,434	-0,12
251,901	-0,12
252,369	-0,12
252,836	-0,13
253,303	-0,14
253,77	-0,14
254,237	-0,14
254,705	-0,14
255,172	-0,15
255,639	-0,15
256,106	-0,17
256,573	-0,17
257,04	-0,17
257,507	-0,18
257,974	-0,19
258,441	-0,17
258,908	-0,18
259,375	-0,19
259,841	-0,19
260,308	-0,19
260,775	-0,19
261,242	-0,17
261,709	-0,17
262,175	-0,18
262,642	-0,18
263,109	-0,17
263,575	-0,19
264,042	-0,17
264,508	-0,17
264,975	-0,18
265,441	-0,19
265,908	-0,2
266,374	-0,19
266,841	-0,2
267,307	-0,21
267,773	-0,19
268,24	-0,2
268,706	-0,2
269,172	-0,21
269,639	-0,22
270,105	-0,2
270,571	-0,2
271,037	-0,21
271,503	-0,22
271,969	-0,21
272,435	-0,2
272,902	-0,22
273,368	-0,23
273,834	-0,23
274,3	-0,23
274,765	-0,23
275,231	-0,23
275,697	-0,22
276,163	-0,22
276,629	-0,21
277,095	-0,22
277,56	-0,22
278,026	-0,23
278,492	-0,21
278,958	-0,21
279,423	-0,22
279,889	-0,21
280,354	-0,22
280,82	-0,22
281,286	-0,23
281,751	-0,24
282,217	-0,22
282,682	-0,22
283,147	-0,22
283,613	-0,22
284,078	-0,23
284,544	-0,23
285,009	-0,24
285,474	-0,23
285,939	-0,24
286,405	-0,23
286,87	-0,23
287,335	-0,22
287,8	-0,22
288,265	-0,21
288,73	-0,23
289,195	-0,24
289,66	-0,24
290,125	-0,23
290,59	-0,23
291,055	-0,22
291,52	-0,23
291,985	-0,23
292,45	-0,25
292,915	-0,25
293,38	-0,25
293,844	-0,23
294,309	-0,22
294,774	-0,2
295,239	-0,21
295,703	-0,22
296,168	-0,21
296,632	-0,21
297,097	-0,19
297,562	-0,17
298,026	-0,17
298,491	-0,17
298,955	-0,17
299,419	-0,17
299,884	-0,17
300,348	-0,16
300,813	-0,15
301,277	-0,16
301,741	-0,16
302,205	-0,16
302,67	-0,16
303,134	-0,16
303,598	-0,16
304,062	-0,15
304,526	-0,15
304,99	-0,16
305,454	-0,17
305,919	-0,16
306,383	-0,16
306,847	-0,15
307,31	-0,16
307,774	-0,17
308,238	-0,16
308,702	-0,16
309,166	-0,17
309,63	-0,16
310,094	-0,14
310,557	-0,13
311,021	-0,12
311,485	-0,12
311,948	-0,12
312,412	-0,11
312,876	-0,1
313,339	-0,11
313,803	-0,11
314,266	-0,1
314,73	-0,11
315,193	-0,11
315,657	-0,1
316,12	-0,11
316,584	-0,09
317,047	-0,08
317,51	-0,07
317,973	-0,07
318,437	-0,07
318,9	-0,06
319,363	-0,05
319,826	-0,04
320,29	-0,05
320,753	-0,05
321,216	-0,05
321,679	-0,06
322,142	-0,05
322,605	-0,06
323,068	-0,06
323,531	-0,05
323,994	-0,04
324,457	-0,05
324,92	-0,04
325,382	-0,03
325,845	-0,03
326,308	-0,02
326,771	-0,01
327,233	-0,02
327,696	-0,01
328,159	-0
328,622	0
329,084	-0
329,547	0
330,009	0
330,472	0,02
330,934	0,02
331,397	0,02
331,859	0,03
332,322	0,04
332,784	0,04
333,246	0,05
333,709	0,05
334,171	0,06
334,633	0,07
335,096	0,06
335,558	0,07
336,02	0,07
336,482	0,07
336,944	0,08
337,406	0,08
337,868	0,09
338,331	0,09
338,793	0,09
339,255	0,11
339,717	0,11
340,178	0,13
340,64	0,13
341,102	0,14
341,564	0,15
342,026	0,17
342,488	0,18
342,949	0,19
343,411	0,22
343,873	0,25
344,335	0,28
344,796	0,32
345,258	0,36
345,719	0,41
346,181	0,46
346,643	0,5
347,104	0,54
347,566	0,57
348,027	0,6
348,488	0,63
348,95	0,65
349,411	0,68
349,873	0,71
350,334	0,73
350,795	0,75
351,256	0,76
351,718	0,77
352,179	0,78
352,64	0,78
353,101	0,79
353,562	0,79
354,023	0,79
354,484	0,8
354,945	0,8
355,406	0,8
355,867	0,81
356,328	0,81
356,789	0,81
357,25	0,81
357,711	0,82
358,172	0,82
358,633	0,82
359,093	0,82
359,554	0,82
360,015	0,83
360,476	0,83
360,936	0,83
361,397	0,83
361,858	0,83
362,318	0,84
362,779	0,84
363,239	0,84
363,7	0,84
364,16	0,84
364,621	0,84
365,081	0,84
365,541	0,84
366,002	0,84
366,462	0,84
366,922	0,84
367,383	0,84
367,843	0,84
368,303	0,84
368,763	0,84
369,223	0,84
369,684	0,84
370,144	0,84
370,604	0,84
371,064	0,84
371,524	0,84
371,984	0,84
372,444	0,84
372,904	0,84
373,363	0,83
373,823	0,83
374,283	0,83
374,743	0,83
375,203	0,83
375,663	0,83
376,122	0,83
376,582	0,83
377,042	0,83
377,501	0,83
377,961	0,83
378,42	0,83
378,88	0,83
379,34	0,83
379,799	0,83
380,259	0,83
380,718	0,83
381,177	0,83
381,637	0,83
382,096	0,83
382,555	0,83
383,015	0,83
383,474	0,83
383,933	0,83
384,393	0,83
384,852	0,83
385,311	0,83
385,77	0,83
386,229	0,83
386,688	0,83
387,147	0,82
387,606	0,82
388,065	0,82
388,524	0,82
388,983	0,82
389,442	0,82
389,901	0,82
390,36	0,82
390,819	0,82
391,277	0,82
391,736	0,82
392,195	0,82
392,654	0,82
393,112	0,82
393,571	0,82
394,03	0,82
394,488	0,82
394,947	0,82
395,405	0,82
395,864	0,82
396,322	0,82
396,781	0,82
397,239	0,82
397,698	0,82
398,156	0,82
398,614	0,82
399,073	0,82
399,531	0,82
399,989	0,81
400,447	0,81
400,905	0,81
401,364	0,81
401,822	0,81
402,28	0,81
402,738	0,81
403,196	0,81
403,654	0,81
404,112	0,81
404,57	0,81
405,028	0,81
405,486	0,81
405,944	0,81
406,402	0,81
406,859	0,81
407,317	0,81
407,775	0,81
408,233	0,81
408,691	0,81
409,148	0,81
409,606	0,81
410,064	0,81
410,521	0,81
410,979	0,81
411,436	0,81
411,894	0,81
412,351	0,81
412,809	0,81
413,266	0,81
413,724	0,81
414,181	0,81
414,638	0,81
415,096	0,81
415,553	0,81
416,01	0,81
416,467	0,8
416,925	0,8
417,382	0,8
417,839	0,8
418,296	0,8
418,753	0,8
419,21	0,8
419,667	0,8
420,124	0,8
420,581	0,8
421,038	0,8
421,495	0,8
421,952	0,8
422,409	0,8
422,866	0,8
423,322	0,8
423,779	0,8
424,236	0,8
424,693	0,8
425,149	0,8
425,606	0,8
426,063	0,8
426,519	0,8
426,976	0,8
427,433	0,8
427,889	0,8
428,346	0,8
428,802	0,8
429,258	0,8
429,715	0,8
430,171	0,8
430,628	0,8
431,084	0,8
431,54	0,8
431,997	0,8
432,453	0,8
432,909	0,8
433,365	0,8
433,821	0,8
434,277	0,8
434,734	0,8
435,19	0,8
435,646	0,8
436,102	0,8
436,558	0,8
437,014	0,8
437,47	0,8
437,925	0,8
438,381	0,8
438,837	0,8
439,293	0,8
439,749	0,8
440,205	0,8
440,66	0,8
441,116	0,8
441,572	0,8
442,027	0,8
442,483	0,8
442,939	0,8
443,394	0,8
443,85	0,8
444,305	0,8
444,761	0,8
445,216	0,8
445,672	0,8
446,127	0,8
446,582	0,8
447,038	0,8
447,493	0,8
447,948	0,8
448,403	0,8
448,859	0,81
449,314	0,81
449,769	0,81
450,224	0,81
450,679	0,81
451,134	0,81
451,589	0,81
452,044	0,81
452,499	0,81
452,954	0,81
453,409	0,81
453,864	0,81
454,319	0,81
454,774	0,81
455,229	0,81
455,684	0,81
456,138	0,81
456,593	0,81
457,048	0,81
457,503	0,81
457,957	0,81
458,412	0,81
458,866	0,81
459,321	0,81
459,776	0,81
460,23	0,81
460,685	0,81
461,139	0,81
461,593	0,82
462,048	0,82
462,502	0,82
462,957	0,82
463,411	0,82
463,865	0,82
464,319	0,82
464,774	0,82
465,228	0,82
465,682	0,82
466,136	0,82
466,59	0,83
467,044	0,83
467,499	0,83
467,953	0,83
468,407	0,83
468,861	0,83
469,315	0,83
469,768	0,83
470,222	0,83
470,676	0,83
471,13	0,83
471,584	0,83
472,038	0,84
472,491	0,84
472,945	0,84
473,399	0,84
473,852	0,84
474,306	0,84
474,76	0,84
475,213	0,84
475,667	0,85
476,12	0,85
476,574	0,85
477,027	0,85
477,481	0,85
477,934	0,85
478,388	0,86
478,841	0,86
479,294	0,86
479,748	0,86
480,201	0,86
480,654	0,87
481,107	0,87
481,561	0,87
482,014	0,87
482,467	0,87
482,92	0,87
483,373	0,88
483,826	0,88
484,279	0,88
484,732	0,88
485,185	0,89
485,638	0,89
486,091	0,89
486,544	0,89
486,997	0,89
487,449	0,9
487,902	0,9
488,355	0,9
488,808	0,91
489,26	0,91
489,713	0,91
490,166	0,91
490,618	0,92
491,071	0,92
491,523	0,92
491,976	0,93
492,429	0,93
492,881	0,93
493,333	0,94
493,786	0,94
494,238	0,94
494,691	0,95
495,143	0,95
495,595	0,95
496,048	0,96
496,5	0,96
496,952	0,97
497,404	0,97
497,856	0,97
498,309	0,98
498,761	0,98
499,213	0,99
499,665	0,99
500,117	1
500,569	1
501,021	1
501,473	1,01
501,925	1,01
502,377	1,02
502,828	1,02
503,28	1,03
503,732	1,03
504,184	1,04
504,636	1,04
505,087	1,04
505,539	1,05
505,991	1,05
506,442	1,06
506,894	1,06
507,345	1,06
507,797	1,07
508,249	1,07
508,7	1,08
509,151	1,08
509,603	1,09
510,054	1,09
510,506	1,1
510,957	1,1
511,408	1,1
511,86	1,11
512,311	1,11
512,762	1,12
513,213	1,12
513,665	1,12
514,116	1,13
514,567	1,13
515,018	1,13
515,469	1,14
515,92	1,14
516,371	1,14
516,822	1,15
517,273	1,15
517,724	1,15
518,175	1,16
518,626	1,16
519,076	1,16
519,527	1,16
519,978	1,17
520,429	1,17
520,88	1,17
521,33	1,17
521,781	1,18
522,232	1,18
522,682	1,18
523,133	1,18
523,583	1,18
524,034	1,18
524,484	1,19
524,935	1,19
525,385	1,19
525,836	1,19
526,286	1,19
526,736	1,19
527,187	1,19
527,637	1,19
528,087	1,19
528,538	1,18
528,988	1,18
529,438	1,18
529,888	1,18
530,338	1,18
530,788	1,18
531,238	1,18
531,688	1,18
532,139	1,18
532,589	1,17
533,038	1,17
533,488	1,17
533,938	1,17
534,388	1,16
534,838	1,16
535,288	1,16
535,738	1,15
536,187	1,15
536,637	1,14
537,087	1,14
537,537	1,14
537,986	1,13
538,436	1,13
538,885	1,12
539,335	1,12
539,785	1,11
540,234	1,11
540,684	1,1
541,133	1,1
541,582	1,09
542,032	1,09
542,481	1,08
542,931	1,08
543,38	1,07
543,829	1,06
544,278	1,06
544,728	1,05
545,177	1,05
545,626	1,04
546,075	1,04
546,524	1,03
546,973	1,03
547,422	1,02
547,871	1,02
548,32	1,01
548,769	1,01
549,218	1,01
549,667	1
550,116	1
550,565	0,99
551,014	0,99
551,463	0,98
551,911	0,98
552,36	0,97
552,809	0,97
553,258	0,96
553,706	0,96
554,155	0,95
554,603	0,95
555,052	0,94
555,501	0,94
555,949	0,93
556,398	0,93
556,846	0,92
557,294	0,92
557,743	0,91
558,191	0,9
558,64	0,9
559,088	0,89
559,536	0,89
559,985	0,88
560,433	0,88
560,881	0,87
561,329	0,87
561,777	0,86
562,225	0,86
562,674	0,85
563,122	0,85
563,57	0,84
564,018	0,84
564,466	0,83
564,914	0,83
565,362	0,82
565,809	0,82
566,257	0,81
566,705	0,81
567,153	0,8
567,601	0,8
568,048	0,79
568,496	0,79
568,944	0,79
569,392	0,78
569,839	0,78
570,287	0,77
570,734	0,77
571,182	0,77
571,63	0,76
572,077	0,76
572,525	0,75
572,972	0,75
573,419	0,75
573,867	0,74
574,314	0,74
574,761	0,73
575,209	0,73
575,656	0,72
576,103	0,72
576,551	0,72
576,998	0,72
577,445	0,71
577,892	0,71
578,339	0,7
578,786	0,7
579,233	0,7
579,68	0,69
580,127	0,69
580,574	0,69
581,021	0,68
581,468	0,68
581,915	0,68
582,362	0,67
582,809	0,67
583,255	0,67
583,702	0,67
584,149	0,66
584,596	0,66
585,042	0,66
585,489	0,65
585,936	0,65
586,382	0,65
586,829	0,65
587,275	0,65
587,722	0,64
588,168	0,64
588,615	0,64
589,061	0,63
589,508	0,63
589,954	0,63
590,4	0,63
590,847	0,62
591,293	0,62
591,739	0,62
592,185	0,62
592,632	0,62
593,078	0,62
593,524	0,61
593,97	0,61
594,416	0,61
594,862	0,61
595,308	0,61
595,754	0,61
596,2	0,6
596,646	0,6
597,092	0,6
597,538	0,6
597,984	0,6
598,43	0,59
598,876	0,59
599,321	0,59
599,767	0,59
600,213	0,59
600,659	0,59
601,104	0,58
601,55	0,58
601,995	0,58
602,441	0,58
602,887	0,58
603,332	0,58
603,778	0,57
604,223	0,57
604,668	0,57
605,114	0,57
605,559	0,57
606,005	0,57
606,45	0,57
606,895	0,57
607,341	0,57
607,786	0,56
608,231	0,56
608,676	0,56
609,121	0,55
609,566	0,54
610,012	0,54
610,457	0,54
610,902	0,53
611,347	0,53
611,792	0,53
612,237	0,52
612,682	0,52
613,127	0,52
613,571	0,52
614,016	0,53
614,461	0,53
614,906	0,53
615,351	0,53
615,795	0,53
616,24	0,53
616,685	0,53
617,129	0,53
617,574	0,53
618,019	0,53
618,463	0,53
618,908	0,53
619,352	0,53
619,797	0,53
620,241	0,53
620,686	0,53
621,13	0,53
621,574	0,53
622,019	0,52
622,463	0,52
622,907	0,52
623,352	0,52
623,796	0,52
624,24	0,52
624,684	0,52
625,128	0,52
625,572	0,52
626,016	0,52
626,461	0,52
626,905	0,52
627,349	0,52
627,793	0,52
628,236	0,52
628,68	0,52
629,124	0,52
629,568	0,51
630,012	0,51
630,456	0,51
630,9	0,51
631,343	0,51
631,787	0,51
632,231	0,51
632,674	0,51
633,118	0,51
633,562	0,51
634,005	0,51
634,449	0,51
634,892	0,51
635,336	0,51
635,779	0,51
636,223	0,51
636,666	0,51
637,109	0,51
637,553	0,51
637,996	0,51
638,439	0,51
638,883	0,5
639,326	0,5
639,769	0,5
640,212	0,5
640,655	0,5
641,099	0,5
641,542	0,5
641,985	0,5
642,428	0,5
642,871	0,5
643,314	0,5
643,757	0,5
644,2	0,5
644,643	0,5
645,085	0,5
645,528	0,49
645,971	0,49
646,414	0,49
646,857	0,49
647,299	0,49
647,742	0,49
648,185	0,49
648,627	0,49
649,07	0,49
649,513	0,49
649,955	0,49
650,398	0,49
650,84	0,49
651,283	0,49
651,725	0,49
652,168	0,49
652,61	0,49
653,052	0,49
653,495	0,49
653,937	0,4
654,379	0,34
654,821	0,35
655,264	0,35
655,706	0,35
656,148	0,35
656,59	0,35
657,032	0,35
657,474	0,35
657,916	0,35
658,358	0,34
658,8	0,41
659,242	0,49
659,684	0,49
660,126	0,48
660,568	0,48
661,01	0,48
661,452	0,48
661,894	0,48
662,335	0,48
662,777	0,48
663,219	0,48
663,661	0,48
664,102	0,48
664,544	0,48
664,985	0,48
665,427	0,48
665,869	0,48
666,31	0,48
666,752	0,48
667,193	0,48
667,634	0,48
668,076	0,48
668,517	0,48
668,959	0,48
669,4	0,48
669,841	0,48
670,282	0,48
670,724	0,48
671,165	0,48
671,606	0,48
672,047	0,48
672,488	0,48
672,929	0,48
673,37	0,48
673,811	0,48
674,252	0,48
674,693	0,47
675,134	0,47
675,575	0,47
676,016	0,47
676,457	0,47
676,898	0,47
677,339	0,47
677,78	0,47
678,22	0,47
678,661	0,47
679,102	0,47
679,542	0,47
679,983	0,47
680,424	0,47
680,864	0,47
681,305	0,47
681,745	0,47
682,186	0,47
682,626	0,48
683,067	0,48
683,507	0,47
683,948	0,47
684,388	0,47
684,828	0,47
685,269	0,47
685,709	0,47
686,149	0,47
686,589	0,47
687,029	0,47
687,47	0,47
687,91	0,47
688,35	0,46
688,79	0,46
689,23	0,46
689,67	0,46
690,11	0,46
690,55	0,46
690,99	0,46
691,43	0,46
691,87	0,46
692,31	0,46
692,749	0,46
693,189	0,46
693,629	0,46
694,069	0,45
694,508	0,45
694,948	0,45
695,388	0,45
695,827	0,45
696,267	0,46
696,706	0,46
697,146	0,46
697,586	0,46
698,025	0,46
698,464	0,46
698,904	0,46
699,343	0,46
699,783	0,46
700,222	0,46
700,661	0,46
701,101	0,46
701,54	0,46
701,979	0,46
702,418	0,46
702,857	0,46
703,297	0,46
703,736	0,46
704,175	0,46
704,614	0,46
705,053	0,46
705,492	0,46
705,931	0,46
706,37	0,46
706,809	0,46
707,248	0,46
707,687	0,46
708,125	0,46
708,564	0,46
709,003	0,46
709,442	0,46
709,88	0,46
710,319	0,45
710,758	0,45
711,196	0,45
711,635	0,45
712,074	0,45
712,512	0,45
712,951	0,45
713,389	0,45
713,828	0,45
714,266	0,45
714,705	0,45
715,143	0,45
715,581	0,45
716,02	0,45
716,458	0,45
716,896	0,45
717,334	0,45
717,773	0,45
718,211	0,45
718,649	0,45
719,087	0,45
719,525	0,45
719,963	0,45
720,401	0,45
720,839	0,45
721,277	0,45
721,715	0,45
722,153	0,45
722,591	0,45
723,029	0,45
723,467	0,45
723,905	0,45
724,342	0,45
724,78	0,45
725,218	0,45
725,656	0,45
726,093	0,45
726,531	0,45
726,969	0,45
727,406	0,45
727,844	0,45
728,281	0,45
728,719	0,45
729,156	0,45
729,594	0,45
730,031	0,45
730,469	0,45
730,906	0,44
731,343	0,44
731,781	0,44
732,218	0,44
732,655	0,44
733,092	0,44
733,53	0,44
733,967	0,44
734,404	0,44
734,841	0,44
735,278	0,44
735,715	0,44
736,152	0,44
736,589	0,44
737,026	0,44
737,463	0,44
737,9	0,44
738,337	0,44
738,774	0,44
739,211	0,44
739,647	0,44
740,084	0,44
740,521	0,44
740,958	0,44
741,394	0,44
741,831	0,44
742,268	0,44
742,704	0,44
743,141	0,44
743,577	0,44
744,014	0,44
744,45	0,44
744,887	0,44
745,323	0,44
745,76	0,43
746,196	0,43
746,632	0,43
747,069	0,43
747,505	0,43
747,941	0,43
748,378	0,43
748,814	0,43
749,25	0,43
749,686	0,43
750,122	0,43
750,558	0,44
750,994	0,44
751,43	0,44
751,866	0,44
752,302	0,44
752,738	0,44
753,174	0,44
753,61	0,44
754,046	0,44
754,482	0,44
754,918	0,44
755,354	0,44
755,789	0,44
756,225	0,44
756,661	0,43
757,096	0,43
757,532	0,43
757,968	0,43
758,403	0,43
758,839	0,43
759,274	0,42
759,71	0,42
760,145	0,41
760,581	0,41
761,016	0,4
761,452	0,4
761,887	0,39
762,322	0,39
762,758	0,38
763,193	0,38
763,628	0,37
764,063	0,37
764,499	0,36
764,934	0,35
765,369	0,35
765,804	0,34
766,239	0,34
766,674	0,33
767,109	0,32
767,544	0,31
767,979	0,3
768,414	0,3
768,849	0,28
769,284	0,28
769,719	0,26
770,154	0,26
770,588	0,25
771,023	0,23
771,458	0,22
771,893	0,21
772,327	0,19
772,762	0,19
773,197	0,18
773,631	0,17
774,066	0,16
774,5	0,15
774,935	0,13
775,369	0,12
775,804	0,11
776,238	0,1
776,673	0,09
777,107	0,08
777,541	0,07
777,976	0,05
778,41	0,05
778,844	0,04
779,279	0,03
779,713	0,02
780,147	0,01
780,581	0,01
781,015	0
781,449	-0,01
781,883	-0,01
782,317	-0,03
782,751	-0,04
783,185	-0,05
783,619	-0,05
784,053	-0,06
784,487	-0,06
784,921	-0,07
785,355	-0,08
785,789	-0,09
786,223	-0,1
786,656	-0,11
787,09	-0,12
787,524	-0,12
787,957	-0,13
788,391	-0,15
788,825	-0,17
789,258	-0,19
789,692	-0,2
790,125	-0,22
790,559	-0,23
790,992	-0,25
791,426	-0,27
791,859	-0,29
792,293	-0,32
792,726	-0,34
793,159	-0,36
793,593	-0,38
794,026	-0,4
794,459	-0,43
794,892	-0,46
795,326	-0,48
795,759	-0,52
796,192	-0,56
796,625	-0,61
797,058	-0,63
797,491	-0,67
797,924	-0,71
798,357	-0,76
798,79	-0,8
799,223	-0,84
799,656	-0,89
800,089	-0,94
800,522	-0,98
800,955	-1,02
801,387	-1,08
801,82	-1,13
802,253	-1,19
802,686	-1,27
803,118	-1,33
803,551	-1,38
803,984	-1,43
804,416	-1,46
804,849	-1,49
805,281	-1,57
805,714	-1,91
806,146	-2,41
806,579	-2,69
807,011	-2,85
807,444	-2,95
807,876	-3,03
808,308	-3,07
808,741	-3,1
809,173	-3,15
809,605	-3,17
810,037	-3,25
810,47	-3,17
810,902	-2,97
811,334	-2,82
811,766	-2,66
812,198	-2,4
812,63	-1,97
813,062	-1,77
813,494	-1,68
813,926	-1,59
814,358	-1,54
814,79	-1,46
815,222	-1,4
815,654	-1,35
816,086	-1,29
816,518	-1,23
816,949	-1,18
817,381	-1,14
817,813	-1,12
818,245	-1,08
818,676	-1,04
819,108	-1,01
819,54	-0,99
819,971	-0,97
820,403	-0,92
820,834	-0,91
821,266	-0,86
821,697	-0,84
822,129	-0,83
822,56	-0,8
822,991	-0,78
823,423	-0,75
823,854	-0,74
824,286	-0,72
824,717	-0,71
825,148	-0,69
825,579	-0,69
826,01	-0,68
826,442	-0,67
826,873	-0,65
827,304	-0,62
827,735	-0,61
828,166	-0,62
828,597	-0,62
829,028	-0,61
829,459	-0,62
829,89	-0,62
830,321	-0,58
830,752	-0,58
831,183	-0,57
831,613	-0,56
832,044	-0,56
832,475	-0,55
832,906	-0,56
833,336	-0,56
833,767	-0,56
834,198	-0,56
834,628	-0,54
835,059	-0,57
835,49	-0,58
835,92	-0,55
836,351	-0,55
836,781	-0,55
837,212	-0,57
837,642	-0,57
838,072	-0,55
838,503	-0,56
838,933	-0,54
839,364	-0,55
839,794	-0,52
840,224	-0,51
840,654	-0,55
841,085	-0,56
841,515	-0,53
841,945	-0,54
842,375	-0,49
842,805	-0,47
843,235	-0,46
843,665	-0,48
844,095	-0,46
844,525	-0,48
844,955	-0,49
845,385	-0,47
845,815	-0,46
846,245	-0,49
846,675	-0,49
847,105	-0,52
847,534	-0,53
847,964	-0,51
848,394	-0,5
848,824	-0,53
849,253	-0,52
849,683	-0,52
850,112	-0,54
850,542	-0,57
850,972	-0,57
851,401	-0,55
851,831	-0,53
852,26	-0,53
852,69	-0,56
853,119	-0,55
853,548	-0,56
853,978	-0,56
854,407	-0,54
854,836	-0,54
855,266	-0,53
855,695	-0,54
856,124	-0,56
856,553	-0,57
856,983	-0,59
857,412	-0,58
857,841	-0,59
858,27	-0,59
858,699	-0,59
859,128	-0,62
859,557	-0,62
859,986	-0,63
860,415	-0,61
860,844	-0,58
861,273	-0,59
861,702	-0,6
862,13	-0,58
862,559	-0,6
862,988	-0,58
863,417	-0,58
863,845	-0,57
864,274	-0,58
864,703	-0,57
865,131	-0,58
865,56	-0,59
865,989	-0,61
866,417	-0,58
866,846	-0,59
867,274	-0,58
867,703	-0,6
868,131	-0,6
868,559	-0,61
868,988	-0,63
869,416	-0,61
869,844	-0,63
870,273	-0,65
870,701	-0,63
871,129	-0,66
871,557	-0,68
871,986	-0,69
872,414	-0,7
872,842	-0,68
873,27	-0,65
873,698	-0,62
874,126	-0,66
874,554	-0,64
874,982	-0,64
875,41	-0,67
875,838	-0,62
876,266	-0,59
876,694	-0,6
877,122	-0,58
877,549	-0,63
877,977	-0,61
878,405	-0,64
878,833	-0,61
879,26	-0,59
879,688	-0,59
880,116	-0,58
880,543	-0,56
880,971	-0,54
881,399	-0,57
881,826	-0,58
882,254	-0,56
882,681	-0,6
883,109	-0,56
883,536	-0,57
883,963	-0,59
884,391	-0,57
884,818	-0,56
885,245	-0,59
885,673	-0,62
886,1	-0,59
886,527	-0,59
886,954	-0,55
887,381	-0,57
887,809	-0,58
888,236	-0,59
888,663	-0,59
889,09	-0,64
889,517	-0,65
889,944	-0,64
890,371	-0,63
890,798	-0,64
891,225	-0,64
891,652	-0,67
892,078	-0,64
892,505	-0,66
892,932	-0,61
893,359	-0,63
893,786	-0,62
894,212	-0,59
894,639	-0,61
895,066	-0,63
895,492	-0,57
895,919	-0,57
896,346	-0,57
896,772	-0,58
897,199	-0,55
897,625	-0,58
898,052	-0,54
898,478	-0,52
898,904	-0,54
899,331	-0,54
899,757	-0,56
900,183	-0,58
900,61	-0,57
901,036	-0,58
901,462	-0,57
901,888	-0,57
902,315	-0,55
902,741	-0,61
903,167	-0,59
903,593	-0,62
904,019	-0,59
904,445	-0,56
904,871	-0,59
905,297	-0,6
905,723	-0,6
906,149	-0,59
906,575	-0,6
907,001	-0,59
907,427	-0,56
907,852	-0,56
908,278	-0,56
908,704	-0,54
909,13	-0,53
909,555	-0,53
909,981	-0,52
910,407	-0,53
910,832	-0,53
911,258	-0,53
911,684	-0,54
912,109	-0,55
912,535	-0,56
912,96	-0,52
913,386	-0,56
913,811	-0,56
914,236	-0,58
914,662	-0,56
915,087	-0,59
915,512	-0,58
915,938	-0,6
916,363	-0,6
916,788	-0,61
917,213	-0,59
917,639	-0,65
918,064	-0,62
918,489	-0,62
918,914	-0,62
919,339	-0,63
919,764	-0,6
920,189	-0,6
920,614	-0,62
921,039	-0,62
921,464	-0,58
921,889	-0,61
922,314	-0,61
922,738	-0,63
923,163	-0,65
923,588	-0,66
924,013	-0,65
924,437	-0,65
924,862	-0,67
925,287	-0,63
925,711	-0,64
926,136	-0,65
926,561	-0,64
926,985	-0,62
927,41	-0,6
927,834	-0,58
928,259	-0,55
928,683	-0,53
929,108	-0,5
929,532	-0,5
929,956	-0,49
930,381	-0,49
930,805	-0,48
931,229	-0,47
931,653	-0,46
932,078	-0,45
932,502	-0,46
932,926	-0,47
933,35	-0,47
933,774	-0,48
934,198	-0,46
934,622	-0,45
935,046	-0,45
935,47	-0,46
935,894	-0,45
936,318	-0,45
936,742	-0,45
937,166	-0,46
937,59	-0,45
938,014	-0,47
938,437	-0,47
938,861	-0,49
939,285	-0,5
939,709	-0,49
940,132	-0,49
940,556	-0,5
940,98	-0,5
941,403	-0,48
941,827	-0,49
942,25	-0,5
942,674	-0,49
943,097	-0,49
943,521	-0,48
943,944	-0,49
944,368	-0,48
944,791	-0,46
945,214	-0,49
945,638	-0,49
946,061	-0,52
946,484	-0,53
946,907	-0,51
947,331	-0,5
947,754	-0,55
948,177	-0,53
948,6	-0,53
949,023	-0,53
949,446	-0,53
949,869	-0,51
950,292	-0,51
950,715	-0,48
951,138	-0,47
951,561	-0,45
951,984	-0,46
952,407	-0,44
952,83	-0,42
953,252	-0,38
953,675	-0,38
954,098	-0,38
954,521	-0,37
954,943	-0,36
955,366	-0,37
955,789	-0,35
956,211	-0,37
956,634	-0,37
957,056	-0,35
957,479	-0,35
957,902	-0,38
958,324	-0,39
958,746	-0,38
959,169	-0,39
959,591	-0,4
960,014	-0,4
960,436	-0,4
960,858	-0,4
961,281	-0,39
961,703	-0,41
962,125	-0,41
962,547	-0,39
962,969	-0,4
963,391	-0,4
963,814	-0,41
964,236	-0,4
964,658	-0,37
965,08	-0,38
965,502	-0,36
965,924	-0,34
966,346	-0,34
966,768	-0,33
967,189	-0,35
967,611	-0,34
968,033	-0,34
968,455	-0,32
968,877	-0,33
969,298	-0,33
969,72	-0,34
970,142	-0,34
970,563	-0,34
970,985	-0,33
971,407	-0,31
971,828	-0,29
972,25	-0,29
972,671	-0,27
973,093	-0,27
973,514	-0,26
973,936	-0,24
974,357	-0,23
974,778	-0,23
975,2	-0,22
975,621	-0,21
976,042	-0,2
976,464	-0,19
976,885	-0,18
977,306	-0,17
977,727	-0,16
978,148	-0,16
978,57	-0,15
978,991	-0,12
979,412	-0,11
979,833	-0,1
980,254	-0,1
980,675	-0,1
981,096	-0,09
981,517	-0,07
981,937	-0,07
982,358	-0,05
982,779	-0,04
983,2	-0,04
983,621	-0,03
984,042	-0,02
984,462	-0
984,883	0,02
985,304	0,04
985,724	0,05
986,145	0,05
986,565	0,07
986,986	0,08
987,407	0,09
987,827	0,11
988,248	0,12
988,668	0,13
989,088	0,14
989,509	0,16
989,929	0,17
990,35	0,18
990,77	0,2
991,19	0,21
991,61	0,22
992,031	0,23
992,451	0,24
992,871	0,24
993,291	0,26
993,711	0,27
994,131	0,27
994,551	0,28
994,971	0,29
995,391	0,29
995,811	0,3
996,231	0,31
996,651	0,31
997,071	0,32
997,491	0,33
997,911	0,34
998,331	0,35
998,75	0,36
999,17	0,36
999,59	0,37
1000,009	0,37
1000,429	0,38
1000,849	0,39
1001,268	0,39
1001,688	0,4
1002,107	0,4
1002,527	0,4
1002,946	0,41
1003,366	0,41
1003,785	0,42
1004,205	0,42
1004,624	0,42
1005,044	0,42
1005,463	0,43
1005,882	0,43
1006,301	0,43
1006,721	0,43
1007,14	0,43
1007,559	0,43
1007,978	0,43
1008,397	0,44
1008,816	0,44
1009,235	0,44
1009,655	0,44
1010,074	0,43
1010,492	0,43
1010,911	0,43
1011,33	0,43
1011,749	0,43
1012,168	0,43
1012,587	0,43
1013,006	0,43
1013,425	0,43
1013,843	0,43
1014,262	0,43
1014,681	0,43
1015,099	0,43
1015,518	0,43
1015,937	0,43
1016,355	0,43
1016,774	0,43
1017,192	0,43
1017,611	0,43
1018,029	0,43
1018,448	0,43
1018,866	0,43
1019,285	0,42
1019,703	0,42
1020,121	0,42
1020,54	0,42
1020,958	0,42
1021,376	0,42
1021,794	0,42
1022,213	0,42
1022,631	0,42
1023,049	0,42
1023,467	0,42
1023,885	0,42
1024,303	0,42
1024,721	0,42
1025,139	0,42
1025,557	0,42
1025,975	0,42
1026,393	0,41
1026,811	0,41
1027,229	0,41
1027,647	0,41
1028,065	0,41
1028,482	0,41
1028,9	0,41
1029,318	0,41
1029,735	0,41
1030,153	0,41
1030,571	0,41
1030,988	0,41
1031,406	0,41
1031,823	0,41
1032,241	0,41
1032,659	0,41
1033,076	0,41
1033,493	0,41
1033,911	0,41
1034,328	0,41
1034,746	0,42
1035,163	0,42
1035,58	0,42
1035,997	0,42
1036,415	0,42
1036,832	0,42
1037,249	0,42
1037,666	0,42
1038,083	0,42
1038,501	0,42
1038,918	0,42
1039,335	0,42
1039,752	0,41
1040,169	0,41
1040,586	0,41
1041,003	0,41
1041,419	0,41
1041,836	0,41
1042,253	0,41
1042,67	0,41
1043,087	0,41
1043,504	0,41
1043,92	0,41
1044,337	0,41
1044,754	0,41
1045,17	0,41
1045,587	0,41
1046,004	0,41
1046,42	0,41
1046,837	0,4
1047,253	0,4
1047,67	0,4
1048,086	0,4
1048,503	0,4
1048,919	0,4
1049,335	0,41
1049,752	0,41
1050,168	0,41
1050,584	0,41
1051,001	0,41
1051,417	0,41
1051,833	0,41
1052,249	0,41
1052,665	0,41
1053,081	0,41
1053,497	0,41
1053,914	0,41
1054,33	0,41
1054,746	0,42
1055,162	0,42
1055,578	0,42
1055,993	0,42
1056,409	0,42
1056,825	0,42
1057,241	0,42
1057,657	0,42
1058,073	0,42
1058,488	0,42
1058,904	0,42
1059,32	0,42
1059,736	0,42
1060,151	0,42
1060,567	0,42
1060,982	0,42
1061,398	0,42
1061,813	0,42
1062,229	0,42
1062,644	0,42
1063,06	0,42
1063,475	0,42
1063,891	0,42
1064,306	0,42
1064,721	0,42
1065,137	0,42
1065,552	0,42
1065,967	0,41
1066,382	0,41
1066,798	0,41
1067,213	0,41
1067,628	0,41
1068,043	0,41
1068,458	0,42
1068,873	0,42
1069,288	0,42
1069,703	0,41
1070,118	0,41
1070,533	0,41
1070,948	0,42
1071,363	0,42
1071,778	0,42
1072,193	0,42
1072,607	0,42
1073,022	0,42
1073,437	0,42
1073,852	0,42
1074,266	0,42
1074,681	0,42
1075,096	0,42
1075,51	0,42
1075,925	0,42
1076,339	0,42
1076,754	0,42
1077,168	0,42
1077,583	0,41
1077,997	0,41
1078,412	0,41
1078,826	0,41
1079,24	0,41
1079,655	0,41
1080,069	0,41
1080,483	0,41
1080,897	0,41
1081,312	0,41
1081,726	0,41
1082,14	0,41
1082,554	0,41
1082,968	0,41
1083,382	0,4
1083,796	0,4
1084,21	0,4
1084,624	0,4
1085,038	0,4
1085,452	0,4
1085,866	0,4
1086,28	0,39
1086,694	0,39
1087,108	0,39
1087,521	0,39
1087,935	0,39
1088,349	0,39
1088,763	0,38
1089,176	0,38
1089,59	0,38
1090,004	0,38
1090,417	0,37
1090,831	0,37
1091,244	0,37
1091,658	0,36
1092,071	0,36
1092,485	0,36
1092,898	0,35
1093,312	0,35
1093,725	0,35
1094,138	0,34
1094,552	0,34
1094,965	0,34
1095,378	0,34
1095,791	0,34
1096,205	0,33
1096,618	0,33
1097,031	0,33
1097,444	0,33
1097,857	0,32
1098,27	0,32
1098,683	0,32
1099,096	0,32
1099,509	0,31
1099,922	0,31
1100,335	0,3
1100,748	0,3
1101,161	0,29
1101,574	0,29
1101,986	0,28
1102,399	0,28
1102,812	0,28
1103,225	0,27
1103,637	0,27
1104,05	0,26
1104,463	0,26
1104,875	0,26
1105,288	0,26
1105,7	0,25
1106,113	0,25
1106,525	0,24
1106,938	0,24
1107,35	0,23
1107,763	0,23
1108,175	0,23
1108,588	0,22
1109	0,21
1109,412	0,21
1109,824	0,21
1110,237	0,21
1110,649	0,21
1111,061	0,2
