Data from 18C-808nm-8A-cont_Absorbance__690__02119.txt Node

Date: Mon Jul 17 17:45:20 CEST 2023
User: Laser008
Spectrometer: MAYP115816
Trigger mode: 0
Integration Time (sec): 2,500000E-1
Scans to average: 10
Electric dark correction enabled: true
Nonlinearity correction enabled: true
Boxcar width: 5
XAxis mode: Wavelengths
Number of Pixels in Spectrum: 2068
>>>>>Begin Spectral Data<<<<<
198,914	-0,66
199,384	-0,44
199,855	-0,32
200,325	-0,24
200,796	-0,21
201,266	-0,16
201,737	-0,15
202,207	-0,14
202,677	-0,13
203,147	-0,12
203,618	-0,08
204,088	-0,07
204,558	-0,06
205,028	-0,05
205,498	-0,06
205,968	-0,07
206,439	-0,08
206,909	-0,07
207,379	-0,07
207,849	-0,08
208,319	-0,09
208,789	-0,1
209,258	-0,1
209,728	-0,11
210,198	-0,11
210,668	-0,1
211,138	-0,1
211,608	-0,1
212,077	-0,11
212,547	-0,11
213,017	-0,1
213,486	-0,1
213,956	-0,1
214,426	-0,11
214,895	-0,1
215,365	-0,11
215,834	-0,11
216,304	-0,13
216,773	-0,13
217,243	-0,14
217,712	-0,15
218,181	-0,15
218,651	-0,15
219,12	-0,15
219,589	-0,15
220,058	-0,14
220,528	-0,16
220,997	-0,16
221,466	-0,16
221,935	-0,16
222,404	-0,15
222,873	-0,15
223,342	-0,15
223,812	-0,15
224,281	-0,15
224,749	-0,15
225,218	-0,16
225,687	-0,16
226,156	-0,14
226,625	-0,13
227,094	-0,14
227,563	-0,14
228,031	-0,16
228,5	-0,16
228,969	-0,17
229,438	-0,17
229,906	-0,15
230,375	-0,15
230,844	-0,15
231,312	-0,15
231,781	-0,15
232,249	-0,14
232,718	-0,14
233,186	-0,12
233,655	-0,12
234,123	-0,1
234,591	-0,1
235,06	-0,11
235,528	-0,12
235,996	-0,11
236,465	-0,11
236,933	-0,1
237,401	-0,11
237,869	-0,1
238,337	-0,09
238,805	-0,08
239,274	-0,08
239,742	-0,08
240,21	-0,07
240,678	-0,07
241,146	-0,06
241,614	-0,06
242,081	-0,06
242,549	-0,05
243,017	-0,05
243,485	-0,06
243,953	-0,06
244,421	-0,05
244,888	-0,05
245,356	-0,05
245,824	-0,05
246,291	-0,05
246,759	-0,06
247,227	-0,07
247,694	-0,07
248,162	-0,06
248,629	-0,05
249,097	-0,06
249,564	-0,08
250,032	-0,08
250,499	-0,08
250,967	-0,09
251,434	-0,09
251,901	-0,09
252,369	-0,08
252,836	-0,09
253,303	-0,11
253,77	-0,13
254,237	-0,12
254,705	-0,12
255,172	-0,12
255,639	-0,12
256,106	-0,12
256,573	-0,11
257,04	-0,12
257,507	-0,13
257,974	-0,13
258,441	-0,11
258,908	-0,11
259,375	-0,13
259,841	-0,12
260,308	-0,12
260,775	-0,13
261,242	-0,12
261,709	-0,14
262,175	-0,15
262,642	-0,13
263,109	-0,13
263,575	-0,15
264,042	-0,14
264,508	-0,14
264,975	-0,16
265,441	-0,16
265,908	-0,17
266,374	-0,16
266,841	-0,16
267,307	-0,17
267,773	-0,17
268,24	-0,18
268,706	-0,18
269,172	-0,19
269,639	-0,2
270,105	-0,18
270,571	-0,19
271,037	-0,19
271,503	-0,21
271,969	-0,2
272,435	-0,19
272,902	-0,21
273,368	-0,21
273,834	-0,2
274,3	-0,21
274,765	-0,22
275,231	-0,22
275,697	-0,21
276,163	-0,2
276,629	-0,2
277,095	-0,21
277,56	-0,21
278,026	-0,21
278,492	-0,19
278,958	-0,2
279,423	-0,19
279,889	-0,18
280,354	-0,19
280,82	-0,19
281,286	-0,22
281,751	-0,21
282,217	-0,2
282,682	-0,2
283,147	-0,2
283,613	-0,2
284,078	-0,2
284,544	-0,21
285,009	-0,21
285,474	-0,19
285,939	-0,19
286,405	-0,18
286,87	-0,18
287,335	-0,18
287,8	-0,17
288,265	-0,16
288,73	-0,18
289,195	-0,2
289,66	-0,2
290,125	-0,19
290,59	-0,19
291,055	-0,2
291,52	-0,2
291,985	-0,21
292,45	-0,22
292,915	-0,21
293,38	-0,22
293,844	-0,2
294,309	-0,19
294,774	-0,19
295,239	-0,2
295,703	-0,21
296,168	-0,2
296,632	-0,19
297,097	-0,18
297,562	-0,17
298,026	-0,17
298,491	-0,17
298,955	-0,17
299,419	-0,15
299,884	-0,14
300,348	-0,13
300,813	-0,12
301,277	-0,12
301,741	-0,12
302,205	-0,11
302,67	-0,1
303,134	-0,11
303,598	-0,11
304,062	-0,1
304,526	-0,09
304,99	-0,11
305,454	-0,1
305,919	-0,1
306,383	-0,1
306,847	-0,09
307,31	-0,1
307,774	-0,12
308,238	-0,11
308,702	-0,11
309,166	-0,13
309,63	-0,13
310,094	-0,1
310,557	-0,1
311,021	-0,09
311,485	-0,1
311,948	-0,09
312,412	-0,09
312,876	-0,09
313,339	-0,09
313,803	-0,09
314,266	-0,09
314,73	-0,09
315,193	-0,09
315,657	-0,08
316,12	-0,07
316,584	-0,05
317,047	-0,05
317,51	-0,04
317,973	-0,03
318,437	-0,02
318,9	-0,01
319,363	0
319,826	0,02
320,29	-0
320,753	-0
321,216	-0,01
321,679	-0,02
322,142	-0,01
322,605	-0,02
323,068	-0,02
323,531	-0,03
323,994	-0,02
324,457	-0,03
324,92	-0,02
325,382	-0,01
325,845	-0,01
326,308	0
326,771	0,01
327,233	0,02
327,696	0,04
328,159	0,05
328,622	0,06
329,084	0,06
329,547	0,06
330,009	0,07
330,472	0,08
330,934	0,08
331,397	0,09
331,859	0,08
332,322	0,08
332,784	0,08
333,246	0,08
333,709	0,09
334,171	0,1
334,633	0,11
335,096	0,11
335,558	0,11
336,02	0,12
336,482	0,12
336,944	0,14
337,406	0,15
337,868	0,15
338,331	0,16
338,793	0,17
339,255	0,17
339,717	0,17
340,178	0,17
340,64	0,18
341,102	0,18
341,564	0,19
342,026	0,21
342,488	0,21
342,949	0,23
343,411	0,25
343,873	0,29
344,335	0,32
344,796	0,36
345,258	0,41
345,719	0,46
346,181	0,51
346,643	0,56
347,104	0,6
347,566	0,64
348,027	0,68
348,488	0,7
348,95	0,73
349,411	0,76
349,873	0,79
350,334	0,82
350,795	0,84
351,256	0,86
351,718	0,87
352,179	0,88
352,64	0,88
353,101	0,89
353,562	0,89
354,023	0,89
354,484	0,9
354,945	0,9
355,406	0,91
355,867	0,91
356,328	0,91
356,789	0,92
357,25	0,92
357,711	0,92
358,172	0,92
358,633	0,93
359,093	0,93
359,554	0,93
360,015	0,93
360,476	0,93
360,936	0,94
361,397	0,94
361,858	0,94
362,318	0,94
362,779	0,94
363,239	0,94
363,7	0,94
364,16	0,95
364,621	0,95
365,081	0,95
365,541	0,95
366,002	0,95
366,462	0,95
366,922	0,95
367,383	0,95
367,843	0,95
368,303	0,95
368,763	0,95
369,223	0,95
369,684	0,95
370,144	0,95
370,604	0,95
371,064	0,95
371,524	0,95
371,984	0,95
372,444	0,95
372,904	0,95
373,363	0,94
373,823	0,94
374,283	0,94
374,743	0,94
375,203	0,94
375,663	0,94
376,122	0,94
376,582	0,94
377,042	0,94
377,501	0,94
377,961	0,94
378,42	0,94
378,88	0,94
379,34	0,94
379,799	0,94
380,259	0,94
380,718	0,94
381,177	0,94
381,637	0,94
382,096	0,94
382,555	0,94
383,015	0,94
383,474	0,94
383,933	0,94
384,393	0,94
384,852	0,94
385,311	0,94
385,77	0,94
386,229	0,94
386,688	0,94
387,147	0,94
387,606	0,94
388,065	0,94
388,524	0,94
388,983	0,94
389,442	0,93
389,901	0,93
390,36	0,93
390,819	0,93
391,277	0,93
391,736	0,93
392,195	0,93
392,654	0,93
393,112	0,93
393,571	0,93
394,03	0,93
394,488	0,93
394,947	0,93
395,405	0,93
395,864	0,93
396,322	0,93
396,781	0,93
397,239	0,93
397,698	0,93
398,156	0,93
398,614	0,93
399,073	0,93
399,531	0,93
399,989	0,93
400,447	0,93
400,905	0,93
401,364	0,93
401,822	0,93
402,28	0,93
402,738	0,93
403,196	0,92
403,654	0,92
404,112	0,92
404,57	0,92
405,028	0,92
405,486	0,92
405,944	0,92
406,402	0,92
406,859	0,92
407,317	0,92
407,775	0,92
408,233	0,92
408,691	0,92
409,148	0,92
409,606	0,92
410,064	0,92
410,521	0,92
410,979	0,92
411,436	0,92
411,894	0,92
412,351	0,92
412,809	0,92
413,266	0,92
413,724	0,92
414,181	0,92
414,638	0,92
415,096	0,92
415,553	0,92
416,01	0,92
416,467	0,92
416,925	0,92
417,382	0,92
417,839	0,92
418,296	0,92
418,753	0,92
419,21	0,92
419,667	0,92
420,124	0,92
420,581	0,92
421,038	0,92
421,495	0,92
421,952	0,92
422,409	0,92
422,866	0,92
423,322	0,92
423,779	0,92
424,236	0,92
424,693	0,92
425,149	0,92
425,606	0,92
426,063	0,92
426,519	0,92
426,976	0,92
427,433	0,92
427,889	0,92
428,346	0,92
428,802	0,92
429,258	0,92
429,715	0,92
430,171	0,92
430,628	0,92
431,084	0,92
431,54	0,92
431,997	0,92
432,453	0,92
432,909	0,92
433,365	0,92
433,821	0,91
434,277	0,91
434,734	0,91
435,19	0,91
435,646	0,91
436,102	0,91
436,558	0,91
437,014	0,91
437,47	0,91
437,925	0,91
438,381	0,91
438,837	0,92
439,293	0,92
439,749	0,92
440,205	0,92
440,66	0,92
441,116	0,92
441,572	0,92
442,027	0,92
442,483	0,92
442,939	0,92
443,394	0,92
443,85	0,92
444,305	0,92
444,761	0,92
445,216	0,92
445,672	0,92
446,127	0,92
446,582	0,92
447,038	0,92
447,493	0,92
447,948	0,92
448,403	0,92
448,859	0,92
449,314	0,92
449,769	0,92
450,224	0,92
450,679	0,92
451,134	0,93
451,589	0,93
452,044	0,93
452,499	0,93
452,954	0,93
453,409	0,93
453,864	0,93
454,319	0,93
454,774	0,93
455,229	0,93
455,684	0,93
456,138	0,93
456,593	0,93
457,048	0,93
457,503	0,93
457,957	0,93
458,412	0,93
458,866	0,93
459,321	0,93
459,776	0,93
460,23	0,93
460,685	0,93
461,139	0,93
461,593	0,94
462,048	0,94
462,502	0,94
462,957	0,94
463,411	0,94
463,865	0,94
464,319	0,94
464,774	0,94
465,228	0,94
465,682	0,95
466,136	0,95
466,59	0,95
467,044	0,95
467,499	0,95
467,953	0,95
468,407	0,95
468,861	0,95
469,315	0,95
469,768	0,95
470,222	0,95
470,676	0,95
471,13	0,95
471,584	0,96
472,038	0,96
472,491	0,96
472,945	0,96
473,399	0,96
473,852	0,96
474,306	0,96
474,76	0,96
475,213	0,97
475,667	0,97
476,12	0,97
476,574	0,97
477,027	0,97
477,481	0,97
477,934	0,98
478,388	0,98
478,841	0,98
479,294	0,98
479,748	0,98
480,201	0,99
480,654	0,99
481,107	0,99
481,561	0,99
482,014	0,99
482,467	1
482,92	1
483,373	1
483,826	1
484,279	1
484,732	1,01
485,185	1,01
485,638	1,01
486,091	1,01
486,544	1,02
486,997	1,02
487,449	1,02
487,902	1,02
488,355	1,03
488,808	1,03
489,26	1,03
489,713	1,03
490,166	1,04
490,618	1,04
491,071	1,04
491,523	1,05
491,976	1,05
492,429	1,05
492,881	1,06
493,333	1,06
493,786	1,06
494,238	1,07
494,691	1,07
495,143	1,08
495,595	1,08
496,048	1,08
496,5	1,09
496,952	1,09
497,404	1,09
497,856	1,1
498,309	1,1
498,761	1,11
499,213	1,11
499,665	1,12
500,117	1,12
500,569	1,12
501,021	1,13
501,473	1,13
501,925	1,14
502,377	1,14
502,828	1,15
503,28	1,15
503,732	1,16
504,184	1,16
504,636	1,16
505,087	1,17
505,539	1,17
505,991	1,18
506,442	1,18
506,894	1,19
507,345	1,19
507,797	1,2
508,249	1,2
508,7	1,2
509,151	1,21
509,603	1,22
510,054	1,22
510,506	1,22
510,957	1,23
511,408	1,23
511,86	1,24
512,311	1,24
512,762	1,24
513,213	1,25
513,665	1,25
514,116	1,25
514,567	1,26
515,018	1,26
515,469	1,26
515,92	1,27
516,371	1,27
516,822	1,27
517,273	1,28
517,724	1,28
518,175	1,28
518,626	1,28
519,076	1,29
519,527	1,29
519,978	1,29
520,429	1,29
520,88	1,3
521,33	1,3
521,781	1,3
522,232	1,3
522,682	1,3
523,133	1,31
523,583	1,31
524,034	1,31
524,484	1,31
524,935	1,31
525,385	1,31
525,836	1,31
526,286	1,31
526,736	1,31
527,187	1,31
527,637	1,31
528,087	1,31
528,538	1,31
528,988	1,31
529,438	1,31
529,888	1,31
530,338	1,31
530,788	1,3
531,238	1,3
531,688	1,3
532,139	1,3
532,589	1,3
533,038	1,3
533,488	1,29
533,938	1,29
534,388	1,29
534,838	1,29
535,288	1,28
535,738	1,28
536,187	1,27
536,637	1,27
537,087	1,26
537,537	1,26
537,986	1,26
538,436	1,25
538,885	1,24
539,335	1,24
539,785	1,23
540,234	1,23
540,684	1,22
541,133	1,22
541,582	1,21
542,032	1,2
542,481	1,2
542,931	1,19
543,38	1,19
543,829	1,18
544,278	1,17
544,728	1,17
545,177	1,16
545,626	1,16
546,075	1,15
546,524	1,15
546,973	1,14
547,422	1,14
547,871	1,13
548,32	1,13
548,769	1,13
549,218	1,12
549,667	1,12
550,116	1,12
550,565	1,11
551,014	1,11
551,463	1,1
551,911	1,1
552,36	1,1
552,809	1,09
553,258	1,09
553,706	1,08
554,155	1,08
554,603	1,07
555,052	1,07
555,501	1,06
555,949	1,06
556,398	1,05
556,846	1,04
557,294	1,04
557,743	1,03
558,191	1,03
558,64	1,02
559,088	1,01
559,536	1,01
559,985	1
560,433	1
560,881	0,99
561,329	0,99
561,777	0,98
562,225	0,98
562,674	0,97
563,122	0,97
563,57	0,97
564,018	0,96
564,466	0,96
564,914	0,95
565,362	0,95
565,809	0,94
566,257	0,93
566,705	0,93
567,153	0,92
567,601	0,92
568,048	0,92
568,496	0,91
568,944	0,91
569,392	0,9
569,839	0,9
570,287	0,89
570,734	0,89
571,182	0,89
571,63	0,88
572,077	0,88
572,525	0,87
572,972	0,87
573,419	0,87
573,867	0,86
574,314	0,86
574,761	0,85
575,209	0,85
575,656	0,84
576,103	0,84
576,551	0,84
576,998	0,83
577,445	0,83
577,892	0,83
578,339	0,82
578,786	0,82
579,233	0,82
579,68	0,81
580,127	0,81
580,574	0,81
581,021	0,8
581,468	0,8
581,915	0,8
582,362	0,79
582,809	0,79
583,255	0,79
583,702	0,78
584,149	0,78
584,596	0,78
585,042	0,77
585,489	0,77
585,936	0,77
586,382	0,76
586,829	0,76
587,275	0,76
587,722	0,76
588,168	0,75
588,615	0,75
589,061	0,75
589,508	0,75
589,954	0,75
590,4	0,74
590,847	0,74
591,293	0,74
591,739	0,74
592,185	0,73
592,632	0,73
593,078	0,73
593,524	0,73
593,97	0,73
594,416	0,73
594,862	0,73
595,308	0,72
595,754	0,72
596,2	0,72
596,646	0,72
597,092	0,71
597,538	0,71
597,984	0,71
598,43	0,71
598,876	0,71
599,321	0,71
599,767	0,7
600,213	0,7
600,659	0,7
601,104	0,7
601,55	0,7
601,995	0,7
602,441	0,7
602,887	0,69
603,332	0,69
603,778	0,69
604,223	0,69
604,668	0,69
605,114	0,69
605,559	0,69
606,005	0,69
606,45	0,69
606,895	0,69
607,341	0,68
607,786	0,68
608,231	0,68
608,676	0,67
609,121	0,66
609,566	0,65
610,012	0,65
610,457	0,64
610,902	0,64
611,347	0,63
611,792	0,63
612,237	0,63
612,682	0,63
613,127	0,63
613,571	0,63
614,016	0,63
614,461	0,64
614,906	0,64
615,351	0,64
615,795	0,65
616,24	0,65
616,685	0,65
617,129	0,65
617,574	0,65
618,019	0,65
618,463	0,65
618,908	0,65
619,352	0,65
619,797	0,65
620,241	0,65
620,686	0,64
621,13	0,64
621,574	0,64
622,019	0,64
622,463	0,64
622,907	0,64
623,352	0,64
623,796	0,64
624,24	0,64
624,684	0,63
625,128	0,63
625,572	0,63
626,016	0,63
626,461	0,63
626,905	0,63
627,349	0,63
627,793	0,63
628,236	0,63
628,68	0,63
629,124	0,63
629,568	0,63
630,012	0,63
630,456	0,63
630,9	0,63
631,343	0,63
631,787	0,63
632,231	0,63
632,674	0,63
633,118	0,63
633,562	0,63
634,005	0,63
634,449	0,63
634,892	0,63
635,336	0,63
635,779	0,63
636,223	0,62
636,666	0,62
637,109	0,62
637,553	0,62
637,996	0,62
638,439	0,62
638,883	0,62
639,326	0,62
639,769	0,62
640,212	0,62
640,655	0,62
641,099	0,62
641,542	0,62
641,985	0,62
642,428	0,62
642,871	0,62
643,314	0,62
643,757	0,62
644,2	0,62
644,643	0,62
645,085	0,61
645,528	0,61
645,971	0,61
646,414	0,61
646,857	0,61
647,299	0,61
647,742	0,61
648,185	0,61
648,627	0,61
649,07	0,61
649,513	0,61
649,955	0,6
650,398	0,6
650,84	0,6
651,283	0,6
651,725	0,6
652,168	0,6
652,61	0,6
653,052	0,6
653,495	0,6
653,937	0,51
654,379	0,46
654,821	0,46
655,264	0,46
655,706	0,46
656,148	0,46
656,59	0,46
657,032	0,46
657,474	0,46
657,916	0,46
658,358	0,46
658,8	0,52
659,242	0,6
659,684	0,6
660,126	0,6
660,568	0,6
661,01	0,6
661,452	0,6
661,894	0,6
662,335	0,6
662,777	0,6
663,219	0,6
663,661	0,6
664,102	0,6
664,544	0,6
664,985	0,6
665,427	0,6
665,869	0,6
666,31	0,6
666,752	0,6
667,193	0,6
667,634	0,6
668,076	0,6
668,517	0,6
668,959	0,6
669,4	0,6
669,841	0,6
670,282	0,6
670,724	0,6
671,165	0,6
671,606	0,6
672,047	0,6
672,488	0,59
672,929	0,59
673,37	0,59
673,811	0,59
674,252	0,59
674,693	0,59
675,134	0,59
675,575	0,59
676,016	0,59
676,457	0,59
676,898	0,59
677,339	0,59
677,78	0,59
678,22	0,59
678,661	0,59
679,102	0,59
679,542	0,59
679,983	0,59
680,424	0,59
680,864	0,59
681,305	0,59
681,745	0,59
682,186	0,6
682,626	0,6
683,067	0,6
683,507	0,6
683,948	0,6
684,388	0,59
684,828	0,59
685,269	0,59
685,709	0,59
686,149	0,59
686,589	0,59
687,029	0,59
687,47	0,59
687,91	0,59
688,35	0,59
688,79	0,59
689,23	0,59
689,67	0,58
690,11	0,58
690,55	0,58
690,99	0,58
691,43	0,58
691,87	0,58
692,31	0,58
692,749	0,58
693,189	0,58
693,629	0,58
694,069	0,58
694,508	0,58
694,948	0,58
695,388	0,58
695,827	0,58
696,267	0,58
696,706	0,58
697,146	0,58
697,586	0,58
698,025	0,58
698,464	0,58
698,904	0,59
699,343	0,59
699,783	0,59
700,222	0,59
700,661	0,59
701,101	0,59
701,54	0,59
701,979	0,59
702,418	0,59
702,857	0,59
703,297	0,59
703,736	0,59
704,175	0,59
704,614	0,59
705,053	0,59
705,492	0,58
705,931	0,58
706,37	0,58
706,809	0,58
707,248	0,58
707,687	0,58
708,125	0,58
708,564	0,58
709,003	0,57
709,442	0,57
709,88	0,57
710,319	0,57
710,758	0,57
711,196	0,57
711,635	0,57
712,074	0,57
712,512	0,57
712,951	0,57
713,389	0,57
713,828	0,57
714,266	0,57
714,705	0,57
715,143	0,57
715,581	0,57
716,02	0,57
716,458	0,57
716,896	0,57
717,334	0,57
717,773	0,57
718,211	0,57
718,649	0,57
719,087	0,57
719,525	0,57
719,963	0,57
720,401	0,57
720,839	0,57
721,277	0,57
721,715	0,57
722,153	0,57
722,591	0,57
723,029	0,57
723,467	0,57
723,905	0,57
724,342	0,57
724,78	0,57
725,218	0,57
725,656	0,57
726,093	0,57
726,531	0,57
726,969	0,57
727,406	0,57
727,844	0,57
728,281	0,57
728,719	0,56
729,156	0,56
729,594	0,56
730,031	0,56
730,469	0,56
730,906	0,56
731,343	0,56
731,781	0,56
732,218	0,56
732,655	0,56
733,092	0,56
733,53	0,56
733,967	0,56
734,404	0,56
734,841	0,56
735,278	0,56
735,715	0,56
736,152	0,56
736,589	0,56
737,026	0,56
737,463	0,56
737,9	0,56
738,337	0,56
738,774	0,56
739,211	0,56
739,647	0,56
740,084	0,56
740,521	0,56
740,958	0,56
741,394	0,56
741,831	0,56
742,268	0,56
742,704	0,56
743,141	0,56
743,577	0,56
744,014	0,56
744,45	0,56
744,887	0,56
745,323	0,55
745,76	0,55
746,196	0,55
746,632	0,55
747,069	0,55
747,505	0,55
747,941	0,55
748,378	0,55
748,814	0,55
749,25	0,55
749,686	0,55
750,122	0,55
750,558	0,55
750,994	0,55
751,43	0,55
751,866	0,55
752,302	0,55
752,738	0,55
753,174	0,55
753,61	0,55
754,046	0,55
754,482	0,54
754,918	0,54
755,354	0,54
755,789	0,54
756,225	0,54
756,661	0,54
757,096	0,54
757,532	0,54
757,968	0,53
758,403	0,53
758,839	0,53
759,274	0,52
759,71	0,52
760,145	0,51
760,581	0,5
761,016	0,5
761,452	0,49
761,887	0,49
762,322	0,48
762,758	0,48
763,193	0,47
763,628	0,46
764,063	0,45
764,499	0,45
764,934	0,44
765,369	0,43
765,804	0,42
766,239	0,41
766,674	0,4
767,109	0,39
767,544	0,39
767,979	0,37
768,414	0,36
768,849	0,35
769,284	0,34
769,719	0,33
770,154	0,32
770,588	0,31
771,023	0,3
771,458	0,29
771,893	0,27
772,327	0,26
772,762	0,25
773,197	0,24
773,631	0,24
774,066	0,22
774,5	0,21
774,935	0,2
775,369	0,18
775,804	0,17
776,238	0,17
776,673	0,16
777,107	0,14
777,541	0,13
777,976	0,11
778,41	0,1
778,844	0,09
779,279	0,09
779,713	0,08
780,147	0,07
780,581	0,06
781,015	0,04
781,449	0,03
781,883	0,02
782,317	0,01
782,751	-0
783,185	-0,01
783,619	-0,02
784,053	-0,04
784,487	-0,05
784,921	-0,05
785,355	-0,06
785,789	-0,06
786,223	-0,07
786,656	-0,09
787,09	-0,1
787,524	-0,11
787,957	-0,12
788,391	-0,14
788,825	-0,16
789,258	-0,18
789,692	-0,19
790,125	-0,21
790,559	-0,23
790,992	-0,25
791,426	-0,27
791,859	-0,29
792,293	-0,31
792,726	-0,33
793,159	-0,35
793,593	-0,36
794,026	-0,39
794,459	-0,42
794,892	-0,44
795,326	-0,47
795,759	-0,51
796,192	-0,55
796,625	-0,6
797,058	-0,63
797,491	-0,67
797,924	-0,71
798,357	-0,76
798,79	-0,8
799,223	-0,84
799,656	-0,9
800,089	-0,95
800,522	-0,99
800,955	-1,03
801,387	-1,09
801,82	-1,15
802,253	-1,21
802,686	-1,29
803,118	-1,34
803,551	-1,4
803,984	-1,44
804,416	-1,48
804,849	-1,51
805,281	-1,63
805,714	-1,99
806,146	-2,45
806,579	-2,71
807,011	-2,87
807,444	-2,96
807,876	-3,06
808,308	-3,1
808,741	-3,13
809,173	-3,18
809,605	-3,2
810,037	-3,28
810,47	-3,2
810,902	-3
811,334	-2,86
811,766	-2,71
812,198	-2,49
812,63	-2,05
813,062	-1,81
813,494	-1,71
813,926	-1,62
814,358	-1,56
814,79	-1,48
815,222	-1,42
815,654	-1,37
816,086	-1,31
816,518	-1,25
816,949	-1,2
817,381	-1,16
817,813	-1,14
818,245	-1,1
818,676	-1,06
819,108	-1,02
819,54	-1,01
819,971	-0,99
820,403	-0,93
820,834	-0,92
821,266	-0,88
821,697	-0,85
822,129	-0,84
822,56	-0,81
822,991	-0,78
823,423	-0,76
823,854	-0,75
824,286	-0,72
824,717	-0,71
825,148	-0,69
825,579	-0,68
826,01	-0,67
826,442	-0,66
826,873	-0,64
827,304	-0,61
827,735	-0,6
828,166	-0,6
828,597	-0,6
829,028	-0,59
829,459	-0,6
829,89	-0,6
830,321	-0,56
830,752	-0,56
831,183	-0,55
831,613	-0,54
832,044	-0,54
832,475	-0,53
832,906	-0,55
833,336	-0,54
833,767	-0,55
834,198	-0,54
834,628	-0,52
835,059	-0,56
835,49	-0,57
835,92	-0,54
836,351	-0,54
836,781	-0,55
837,212	-0,56
837,642	-0,56
838,072	-0,54
838,503	-0,55
838,933	-0,53
839,364	-0,54
839,794	-0,52
840,224	-0,51
840,654	-0,56
841,085	-0,56
841,515	-0,53
841,945	-0,53
842,375	-0,48
842,805	-0,47
843,235	-0,46
843,665	-0,47
844,095	-0,46
844,525	-0,48
844,955	-0,48
845,385	-0,46
845,815	-0,44
846,245	-0,45
846,675	-0,46
847,105	-0,48
847,534	-0,49
847,964	-0,47
848,394	-0,46
848,824	-0,49
849,253	-0,48
849,683	-0,47
850,112	-0,49
850,542	-0,52
850,972	-0,54
851,401	-0,51
851,831	-0,49
852,26	-0,49
852,69	-0,53
853,119	-0,52
853,548	-0,52
853,978	-0,52
854,407	-0,5
854,836	-0,5
855,266	-0,49
855,695	-0,5
856,124	-0,51
856,553	-0,53
856,983	-0,55
857,412	-0,54
857,841	-0,55
858,27	-0,55
858,699	-0,56
859,128	-0,6
859,557	-0,6
859,986	-0,62
860,415	-0,6
860,844	-0,57
861,273	-0,57
861,702	-0,57
862,13	-0,55
862,559	-0,57
862,988	-0,54
863,417	-0,54
863,845	-0,53
864,274	-0,54
864,703	-0,54
865,131	-0,54
865,56	-0,55
865,989	-0,58
866,417	-0,56
866,846	-0,57
867,274	-0,56
867,703	-0,58
868,131	-0,59
868,559	-0,59
868,988	-0,62
869,416	-0,61
869,844	-0,62
870,273	-0,65
870,701	-0,62
871,129	-0,66
871,557	-0,68
871,986	-0,68
872,414	-0,69
872,842	-0,66
873,27	-0,65
873,698	-0,61
874,126	-0,65
874,554	-0,63
874,982	-0,62
875,41	-0,64
875,838	-0,59
876,266	-0,55
876,694	-0,56
877,122	-0,55
877,549	-0,6
877,977	-0,57
878,405	-0,59
878,833	-0,56
879,26	-0,55
879,688	-0,55
880,116	-0,53
880,543	-0,53
880,971	-0,53
881,399	-0,55
881,826	-0,56
882,254	-0,54
882,681	-0,57
883,109	-0,53
883,536	-0,55
883,963	-0,57
884,391	-0,55
884,818	-0,53
885,245	-0,57
885,673	-0,58
886,1	-0,55
886,527	-0,55
886,954	-0,51
887,381	-0,53
887,809	-0,55
888,236	-0,56
888,663	-0,56
889,09	-0,61
889,517	-0,63
889,944	-0,62
890,371	-0,6
890,798	-0,62
891,225	-0,63
891,652	-0,65
892,078	-0,63
892,505	-0,66
892,932	-0,62
893,359	-0,62
893,786	-0,62
894,212	-0,59
894,639	-0,61
895,066	-0,63
895,492	-0,57
895,919	-0,57
896,346	-0,56
896,772	-0,57
897,199	-0,53
897,625	-0,57
898,052	-0,53
898,478	-0,51
898,904	-0,53
899,331	-0,52
899,757	-0,54
900,183	-0,56
900,61	-0,54
901,036	-0,55
901,462	-0,55
901,888	-0,55
902,315	-0,53
902,741	-0,58
903,167	-0,56
903,593	-0,58
904,019	-0,57
904,445	-0,54
904,871	-0,56
905,297	-0,57
905,723	-0,57
906,149	-0,57
906,575	-0,57
907,001	-0,56
907,427	-0,54
907,852	-0,54
908,278	-0,55
908,704	-0,53
909,13	-0,52
909,555	-0,51
909,981	-0,5
910,407	-0,5
910,832	-0,5
911,258	-0,5
911,684	-0,51
912,109	-0,51
912,535	-0,53
912,96	-0,48
913,386	-0,52
913,811	-0,52
914,236	-0,54
914,662	-0,53
915,087	-0,56
915,512	-0,56
915,938	-0,58
916,363	-0,57
916,788	-0,59
917,213	-0,57
917,639	-0,62
918,064	-0,59
918,489	-0,59
918,914	-0,58
919,339	-0,59
919,764	-0,56
920,189	-0,57
920,614	-0,59
921,039	-0,59
921,464	-0,54
921,889	-0,57
922,314	-0,58
922,738	-0,61
923,163	-0,63
923,588	-0,63
924,013	-0,62
924,437	-0,63
924,862	-0,64
925,287	-0,59
925,711	-0,6
926,136	-0,61
926,561	-0,6
926,985	-0,59
927,41	-0,55
927,834	-0,52
928,259	-0,51
928,683	-0,49
929,108	-0,46
929,532	-0,47
929,956	-0,46
930,381	-0,45
930,805	-0,45
931,229	-0,44
931,653	-0,43
932,078	-0,42
932,502	-0,44
932,926	-0,44
933,35	-0,45
933,774	-0,44
934,198	-0,42
934,622	-0,41
935,046	-0,42
935,47	-0,43
935,894	-0,42
936,318	-0,42
936,742	-0,43
937,166	-0,43
937,59	-0,42
938,014	-0,45
938,437	-0,46
938,861	-0,48
939,285	-0,49
939,709	-0,48
940,132	-0,48
940,556	-0,49
940,98	-0,48
941,403	-0,48
941,827	-0,48
942,25	-0,49
942,674	-0,47
943,097	-0,47
943,521	-0,47
943,944	-0,47
944,368	-0,46
944,791	-0,46
945,214	-0,48
945,638	-0,49
946,061	-0,51
946,484	-0,52
946,907	-0,5
947,331	-0,5
947,754	-0,53
948,177	-0,51
948,6	-0,52
949,023	-0,52
949,446	-0,5
949,869	-0,48
950,292	-0,47
950,715	-0,44
951,138	-0,43
951,561	-0,41
951,984	-0,4
952,407	-0,39
952,83	-0,38
953,252	-0,34
953,675	-0,34
954,098	-0,36
954,521	-0,35
954,943	-0,35
955,366	-0,35
955,789	-0,34
956,211	-0,35
956,634	-0,36
957,056	-0,35
957,479	-0,35
957,902	-0,37
958,324	-0,37
958,746	-0,35
959,169	-0,35
959,591	-0,35
960,014	-0,36
960,436	-0,35
960,858	-0,35
961,281	-0,35
961,703	-0,35
962,125	-0,35
962,547	-0,33
962,969	-0,35
963,391	-0,35
963,814	-0,37
964,236	-0,36
964,658	-0,33
965,08	-0,34
965,502	-0,34
965,924	-0,31
966,346	-0,31
966,768	-0,29
967,189	-0,32
967,611	-0,3
968,033	-0,29
968,455	-0,27
968,877	-0,28
969,298	-0,29
969,72	-0,3
970,142	-0,29
970,563	-0,29
970,985	-0,28
971,407	-0,27
971,828	-0,24
972,25	-0,24
972,671	-0,23
973,093	-0,22
973,514	-0,21
973,936	-0,2
974,357	-0,18
974,778	-0,18
975,2	-0,17
975,621	-0,16
976,042	-0,14
976,464	-0,14
976,885	-0,13
977,306	-0,12
977,727	-0,12
978,148	-0,11
978,57	-0,09
978,991	-0,08
979,412	-0,07
979,833	-0,07
980,254	-0,06
980,675	-0,07
981,096	-0,06
981,517	-0,04
981,937	-0,03
982,358	-0,01
982,779	0,01
983,2	0,01
983,621	0,03
984,042	0,04
984,462	0,06
984,883	0,07
985,304	0,09
985,724	0,11
986,145	0,12
986,565	0,14
986,986	0,15
987,407	0,16
987,827	0,17
988,248	0,18
988,668	0,2
989,088	0,22
989,509	0,23
989,929	0,24
990,35	0,26
990,77	0,27
991,19	0,28
991,61	0,3
992,031	0,31
992,451	0,32
992,871	0,33
993,291	0,34
993,711	0,35
994,131	0,36
994,551	0,37
994,971	0,38
995,391	0,39
995,811	0,4
996,231	0,41
996,651	0,41
997,071	0,42
997,491	0,43
997,911	0,44
998,331	0,45
998,75	0,46
999,17	0,47
999,59	0,47
1000,009	0,48
1000,429	0,48
1000,849	0,49
1001,268	0,5
1001,688	0,5
1002,107	0,51
1002,527	0,51
1002,946	0,51
1003,366	0,52
1003,785	0,52
1004,205	0,53
1004,624	0,53
1005,044	0,54
1005,463	0,54
1005,882	0,54
1006,301	0,55
1006,721	0,55
1007,14	0,55
1007,559	0,55
1007,978	0,56
1008,397	0,56
1008,816	0,56
1009,235	0,56
1009,655	0,56
1010,074	0,56
1010,492	0,56
1010,911	0,56
1011,33	0,56
1011,749	0,55
1012,168	0,55
1012,587	0,55
1013,006	0,55
1013,425	0,55
1013,843	0,55
1014,262	0,55
1014,681	0,55
1015,099	0,55
1015,518	0,55
1015,937	0,55
1016,355	0,55
1016,774	0,55
1017,192	0,55
1017,611	0,55
1018,029	0,55
1018,448	0,55
1018,866	0,55
1019,285	0,55
1019,703	0,55
1020,121	0,55
1020,54	0,55
1020,958	0,55
1021,376	0,55
1021,794	0,54
1022,213	0,54
1022,631	0,54
1023,049	0,54
1023,467	0,54
1023,885	0,54
1024,303	0,54
1024,721	0,54
1025,139	0,54
1025,557	0,53
1025,975	0,53
1026,393	0,53
1026,811	0,53
1027,229	0,53
1027,647	0,53
1028,065	0,53
1028,482	0,53
1028,9	0,53
1029,318	0,53
1029,735	0,53
1030,153	0,53
1030,571	0,53
1030,988	0,53
1031,406	0,53
1031,823	0,53
1032,241	0,53
1032,659	0,53
1033,076	0,53
1033,493	0,53
1033,911	0,53
1034,328	0,53
1034,746	0,53
1035,163	0,53
1035,58	0,53
1035,997	0,53
1036,415	0,53
1036,832	0,53
1037,249	0,53
1037,666	0,53
1038,083	0,53
1038,501	0,53
1038,918	0,53
1039,335	0,53
1039,752	0,53
1040,169	0,53
1040,586	0,53
1041,003	0,53
1041,419	0,53
1041,836	0,53
1042,253	0,53
1042,67	0,53
1043,087	0,53
1043,504	0,53
1043,92	0,53
1044,337	0,53
1044,754	0,52
1045,17	0,52
1045,587	0,52
1046,004	0,52
1046,42	0,52
1046,837	0,52
1047,253	0,52
1047,67	0,52
1048,086	0,52
1048,503	0,52
1048,919	0,52
1049,335	0,52
1049,752	0,53
1050,168	0,53
1050,584	0,52
1051,001	0,53
1051,417	0,53
1051,833	0,53
1052,249	0,53
1052,665	0,53
1053,081	0,53
1053,497	0,53
1053,914	0,53
1054,33	0,53
1054,746	0,54
1055,162	0,54
1055,578	0,54
1055,993	0,54
1056,409	0,54
1056,825	0,54
1057,241	0,54
1057,657	0,54
1058,073	0,54
1058,488	0,54
1058,904	0,54
1059,32	0,54
1059,736	0,54
1060,151	0,54
1060,567	0,54
1060,982	0,54
1061,398	0,54
1061,813	0,54
1062,229	0,54
1062,644	0,54
1063,06	0,54
1063,475	0,54
1063,891	0,54
1064,306	0,54
1064,721	0,54
1065,137	0,54
1065,552	0,54
1065,967	0,54
1066,382	0,54
1066,798	0,53
1067,213	0,53
1067,628	0,53
1068,043	0,53
1068,458	0,53
1068,873	0,53
1069,288	0,53
1069,703	0,53
1070,118	0,53
1070,533	0,53
1070,948	0,54
1071,363	0,54
1071,778	0,54
1072,193	0,54
1072,607	0,54
1073,022	0,54
1073,437	0,54
1073,852	0,54
1074,266	0,54
1074,681	0,54
1075,096	0,54
1075,51	0,54
1075,925	0,54
1076,339	0,53
1076,754	0,53
1077,168	0,53
1077,583	0,53
1077,997	0,53
1078,412	0,53
1078,826	0,53
1079,24	0,53
1079,655	0,53
1080,069	0,52
1080,483	0,52
1080,897	0,52
1081,312	0,52
1081,726	0,52
1082,14	0,52
1082,554	0,52
1082,968	0,51
1083,382	0,51
1083,796	0,51
1084,21	0,51
1084,624	0,51
1085,038	0,51
1085,452	0,51
1085,866	0,5
1086,28	0,5
1086,694	0,5
1087,108	0,5
1087,521	0,5
1087,935	0,5
1088,349	0,49
1088,763	0,49
1089,176	0,49
1089,59	0,48
1090,004	0,48
1090,417	0,48
1090,831	0,48
1091,244	0,47
1091,658	0,47
1092,071	0,47
1092,485	0,46
1092,898	0,46
1093,312	0,46
1093,725	0,45
1094,138	0,45
1094,552	0,45
1094,965	0,44
1095,378	0,44
1095,791	0,44
1096,205	0,44
1096,618	0,43
1097,031	0,43
1097,444	0,42
1097,857	0,42
1098,27	0,42
1098,683	0,41
1099,096	0,41
1099,509	0,4
1099,922	0,4
1100,335	0,39
1100,748	0,38
1101,161	0,38
1101,574	0,38
1101,986	0,37
1102,399	0,37
1102,812	0,36
1103,225	0,36
1103,637	0,35
1104,05	0,35
1104,463	0,35
1104,875	0,34
1105,288	0,34
1105,7	0,33
1106,113	0,33
1106,525	0,33
1106,938	0,32
1107,35	0,31
1107,763	0,31
1108,175	0,3
1108,588	0,3
1109	0,29
1109,412	0,29
1109,824	0,29
1110,237	0,29
1110,649	0,28
1111,061	0,27
