Data from 18C-808nm-8A-cont_Absorbance__132__01561.txt Node

Date: Mon Jul 17 17:22:05 CEST 2023
User: Laser008
Spectrometer: MAYP115816
Trigger mode: 0
Integration Time (sec): 2,500000E-1
Scans to average: 10
Electric dark correction enabled: true
Nonlinearity correction enabled: true
Boxcar width: 5
XAxis mode: Wavelengths
Number of Pixels in Spectrum: 2068
>>>>>Begin Spectral Data<<<<<
198,914	-0,68
199,384	-0,4
199,855	-0,3
200,325	-0,24
200,796	-0,22
201,266	-0,18
201,737	-0,16
202,207	-0,15
202,677	-0,14
203,147	-0,13
203,618	-0,1
204,088	-0,09
204,558	-0,09
205,028	-0,09
205,498	-0,1
205,968	-0,09
206,439	-0,1
206,909	-0,1
207,379	-0,1
207,849	-0,11
208,319	-0,11
208,789	-0,12
209,258	-0,11
209,728	-0,13
210,198	-0,12
210,668	-0,12
211,138	-0,11
211,608	-0,11
212,077	-0,12
212,547	-0,12
213,017	-0,11
213,486	-0,11
213,956	-0,12
214,426	-0,12
214,895	-0,11
215,365	-0,12
215,834	-0,12
216,304	-0,14
216,773	-0,13
217,243	-0,14
217,712	-0,15
218,181	-0,15
218,651	-0,15
219,12	-0,15
219,589	-0,16
220,058	-0,16
220,528	-0,17
220,997	-0,18
221,466	-0,19
221,935	-0,19
222,404	-0,19
222,873	-0,17
223,342	-0,18
223,812	-0,18
224,281	-0,17
224,749	-0,18
225,218	-0,19
225,687	-0,18
226,156	-0,17
226,625	-0,16
227,094	-0,16
227,563	-0,16
228,031	-0,17
228,5	-0,17
228,969	-0,18
229,438	-0,17
229,906	-0,16
230,375	-0,15
230,844	-0,15
231,312	-0,15
231,781	-0,15
232,249	-0,14
232,718	-0,14
233,186	-0,13
233,655	-0,13
234,123	-0,13
234,591	-0,13
235,06	-0,13
235,528	-0,13
235,996	-0,12
236,465	-0,11
236,933	-0,11
237,401	-0,12
237,869	-0,11
238,337	-0,11
238,805	-0,1
239,274	-0,1
239,742	-0,1
240,21	-0,1
240,678	-0,1
241,146	-0,1
241,614	-0,11
242,081	-0,11
242,549	-0,1
243,017	-0,11
243,485	-0,11
243,953	-0,11
244,421	-0,11
244,888	-0,11
245,356	-0,11
245,824	-0,1
246,291	-0,11
246,759	-0,11
247,227	-0,12
247,694	-0,09
248,162	-0,09
248,629	-0,08
249,097	-0,09
249,564	-0,1
250,032	-0,11
250,499	-0,11
250,967	-0,12
251,434	-0,11
251,901	-0,11
252,369	-0,11
252,836	-0,13
253,303	-0,15
253,77	-0,16
254,237	-0,15
254,705	-0,16
255,172	-0,15
255,639	-0,14
256,106	-0,16
256,573	-0,16
257,04	-0,17
257,507	-0,16
257,974	-0,17
258,441	-0,15
258,908	-0,15
259,375	-0,16
259,841	-0,16
260,308	-0,17
260,775	-0,17
261,242	-0,15
261,709	-0,16
262,175	-0,17
262,642	-0,17
263,109	-0,17
263,575	-0,18
264,042	-0,17
264,508	-0,17
264,975	-0,18
265,441	-0,19
265,908	-0,19
266,374	-0,18
266,841	-0,18
267,307	-0,17
267,773	-0,16
268,24	-0,17
268,706	-0,17
269,172	-0,18
269,639	-0,19
270,105	-0,17
270,571	-0,18
271,037	-0,18
271,503	-0,2
271,969	-0,2
272,435	-0,2
272,902	-0,22
273,368	-0,23
273,834	-0,22
274,3	-0,23
274,765	-0,22
275,231	-0,22
275,697	-0,21
276,163	-0,21
276,629	-0,19
277,095	-0,2
277,56	-0,19
278,026	-0,19
278,492	-0,18
278,958	-0,17
279,423	-0,18
279,889	-0,17
280,354	-0,18
280,82	-0,17
281,286	-0,19
281,751	-0,19
282,217	-0,18
282,682	-0,19
283,147	-0,2
283,613	-0,2
284,078	-0,21
284,544	-0,21
285,009	-0,22
285,474	-0,21
285,939	-0,23
286,405	-0,21
286,87	-0,21
287,335	-0,22
287,8	-0,21
288,265	-0,18
288,73	-0,2
289,195	-0,21
289,66	-0,21
290,125	-0,19
290,59	-0,2
291,055	-0,19
291,52	-0,19
291,985	-0,19
292,45	-0,21
292,915	-0,2
293,38	-0,21
293,844	-0,19
294,309	-0,18
294,774	-0,18
295,239	-0,19
295,703	-0,2
296,168	-0,19
296,632	-0,18
297,097	-0,18
297,562	-0,16
298,026	-0,17
298,491	-0,17
298,955	-0,17
299,419	-0,15
299,884	-0,15
300,348	-0,14
300,813	-0,14
301,277	-0,15
301,741	-0,14
302,205	-0,15
302,67	-0,14
303,134	-0,14
303,598	-0,14
304,062	-0,13
304,526	-0,13
304,99	-0,14
305,454	-0,14
305,919	-0,13
306,383	-0,13
306,847	-0,13
307,31	-0,14
307,774	-0,15
308,238	-0,14
308,702	-0,14
309,166	-0,15
309,63	-0,14
310,094	-0,12
310,557	-0,12
311,021	-0,12
311,485	-0,12
311,948	-0,11
312,412	-0,1
312,876	-0,09
313,339	-0,1
313,803	-0,11
314,266	-0,1
314,73	-0,11
315,193	-0,1
315,657	-0,09
316,12	-0,08
316,584	-0,08
317,047	-0,08
317,51	-0,07
317,973	-0,08
318,437	-0,07
318,9	-0,06
319,363	-0,05
319,826	-0,04
320,29	-0,05
320,753	-0,05
321,216	-0,05
321,679	-0,05
322,142	-0,05
322,605	-0,06
323,068	-0,05
323,531	-0,05
323,994	-0,05
324,457	-0,05
324,92	-0,04
325,382	-0,03
325,845	-0,03
326,308	-0,03
326,771	-0,02
327,233	-0,01
327,696	-0
328,159	0
328,622	0,01
329,084	0,01
329,547	0,02
330,009	0,02
330,472	0,03
330,934	0,04
331,397	0,04
331,859	0,05
332,322	0,05
332,784	0,05
333,246	0,06
333,709	0,06
334,171	0,06
334,633	0,06
335,096	0,06
335,558	0,06
336,02	0,05
336,482	0,05
336,944	0,06
337,406	0,07
337,868	0,07
338,331	0,07
338,793	0,08
339,255	0,09
339,717	0,09
340,178	0,1
340,64	0,11
341,102	0,12
341,564	0,13
342,026	0,14
342,488	0,14
342,949	0,16
343,411	0,19
343,873	0,21
344,335	0,24
344,796	0,27
345,258	0,31
345,719	0,35
346,181	0,39
346,643	0,42
347,104	0,45
347,566	0,48
348,027	0,5
348,488	0,52
348,95	0,53
349,411	0,55
349,873	0,57
350,334	0,58
350,795	0,6
351,256	0,61
351,718	0,62
352,179	0,62
352,64	0,62
353,101	0,63
353,562	0,63
354,023	0,63
354,484	0,63
354,945	0,64
355,406	0,64
355,867	0,64
356,328	0,64
356,789	0,64
357,25	0,64
357,711	0,64
358,172	0,65
358,633	0,65
359,093	0,65
359,554	0,65
360,015	0,65
360,476	0,65
360,936	0,65
361,397	0,65
361,858	0,65
362,318	0,65
362,779	0,65
363,239	0,65
363,7	0,66
364,16	0,66
364,621	0,66
365,081	0,66
365,541	0,66
366,002	0,66
366,462	0,65
366,922	0,65
367,383	0,65
367,843	0,65
368,303	0,65
368,763	0,65
369,223	0,65
369,684	0,65
370,144	0,65
370,604	0,65
371,064	0,66
371,524	0,65
371,984	0,65
372,444	0,65
372,904	0,65
373,363	0,65
373,823	0,65
374,283	0,65
374,743	0,65
375,203	0,65
375,663	0,65
376,122	0,65
376,582	0,65
377,042	0,65
377,501	0,65
377,961	0,65
378,42	0,65
378,88	0,65
379,34	0,65
379,799	0,65
380,259	0,65
380,718	0,65
381,177	0,65
381,637	0,65
382,096	0,65
382,555	0,65
383,015	0,65
383,474	0,65
383,933	0,65
384,393	0,65
384,852	0,65
385,311	0,65
385,77	0,64
386,229	0,64
386,688	0,64
387,147	0,64
387,606	0,64
388,065	0,64
388,524	0,64
388,983	0,64
389,442	0,64
389,901	0,64
390,36	0,64
390,819	0,64
391,277	0,64
391,736	0,64
392,195	0,64
392,654	0,64
393,112	0,64
393,571	0,64
394,03	0,64
394,488	0,64
394,947	0,64
395,405	0,64
395,864	0,64
396,322	0,64
396,781	0,64
397,239	0,64
397,698	0,64
398,156	0,64
398,614	0,64
399,073	0,64
399,531	0,64
399,989	0,64
400,447	0,64
400,905	0,64
401,364	0,64
401,822	0,63
402,28	0,63
402,738	0,63
403,196	0,63
403,654	0,63
404,112	0,63
404,57	0,63
405,028	0,63
405,486	0,63
405,944	0,63
406,402	0,63
406,859	0,63
407,317	0,63
407,775	0,63
408,233	0,63
408,691	0,63
409,148	0,63
409,606	0,63
410,064	0,63
410,521	0,63
410,979	0,63
411,436	0,63
411,894	0,63
412,351	0,63
412,809	0,63
413,266	0,63
413,724	0,63
414,181	0,63
414,638	0,63
415,096	0,63
415,553	0,63
416,01	0,63
416,467	0,63
416,925	0,63
417,382	0,63
417,839	0,63
418,296	0,63
418,753	0,63
419,21	0,63
419,667	0,63
420,124	0,63
420,581	0,63
421,038	0,63
421,495	0,63
421,952	0,63
422,409	0,63
422,866	0,63
423,322	0,63
423,779	0,63
424,236	0,63
424,693	0,63
425,149	0,63
425,606	0,63
426,063	0,63
426,519	0,63
426,976	0,63
427,433	0,63
427,889	0,63
428,346	0,63
428,802	0,63
429,258	0,63
429,715	0,63
430,171	0,62
430,628	0,62
431,084	0,62
431,54	0,62
431,997	0,62
432,453	0,62
432,909	0,62
433,365	0,62
433,821	0,62
434,277	0,62
434,734	0,62
435,19	0,62
435,646	0,62
436,102	0,62
436,558	0,62
437,014	0,62
437,47	0,62
437,925	0,62
438,381	0,62
438,837	0,62
439,293	0,62
439,749	0,62
440,205	0,62
440,66	0,62
441,116	0,62
441,572	0,62
442,027	0,62
442,483	0,62
442,939	0,62
443,394	0,62
443,85	0,62
444,305	0,62
444,761	0,62
445,216	0,62
445,672	0,62
446,127	0,62
446,582	0,62
447,038	0,63
447,493	0,63
447,948	0,63
448,403	0,63
448,859	0,63
449,314	0,63
449,769	0,63
450,224	0,63
450,679	0,63
451,134	0,63
451,589	0,63
452,044	0,63
452,499	0,63
452,954	0,63
453,409	0,63
453,864	0,63
454,319	0,63
454,774	0,63
455,229	0,63
455,684	0,63
456,138	0,63
456,593	0,63
457,048	0,63
457,503	0,63
457,957	0,63
458,412	0,63
458,866	0,63
459,321	0,63
459,776	0,63
460,23	0,63
460,685	0,63
461,139	0,63
461,593	0,63
462,048	0,63
462,502	0,63
462,957	0,64
463,411	0,64
463,865	0,64
464,319	0,64
464,774	0,64
465,228	0,64
465,682	0,64
466,136	0,64
466,59	0,64
467,044	0,64
467,499	0,64
467,953	0,64
468,407	0,64
468,861	0,64
469,315	0,64
469,768	0,64
470,222	0,64
470,676	0,65
471,13	0,65
471,584	0,65
472,038	0,65
472,491	0,65
472,945	0,65
473,399	0,65
473,852	0,65
474,306	0,65
474,76	0,65
475,213	0,65
475,667	0,65
476,12	0,66
476,574	0,66
477,027	0,66
477,481	0,66
477,934	0,66
478,388	0,66
478,841	0,66
479,294	0,66
479,748	0,66
480,201	0,67
480,654	0,67
481,107	0,67
481,561	0,67
482,014	0,67
482,467	0,67
482,92	0,67
483,373	0,68
483,826	0,68
484,279	0,68
484,732	0,68
485,185	0,68
485,638	0,68
486,091	0,69
486,544	0,69
486,997	0,69
487,449	0,69
487,902	0,69
488,355	0,69
488,808	0,7
489,26	0,7
489,713	0,7
490,166	0,7
490,618	0,71
491,071	0,71
491,523	0,71
491,976	0,71
492,429	0,71
492,881	0,72
493,333	0,72
493,786	0,72
494,238	0,72
494,691	0,73
495,143	0,73
495,595	0,73
496,048	0,74
496,5	0,74
496,952	0,74
497,404	0,74
497,856	0,75
498,309	0,75
498,761	0,75
499,213	0,76
499,665	0,76
500,117	0,76
500,569	0,77
501,021	0,77
501,473	0,77
501,925	0,78
502,377	0,78
502,828	0,78
503,28	0,79
503,732	0,79
504,184	0,79
504,636	0,8
505,087	0,8
505,539	0,8
505,991	0,8
506,442	0,81
506,894	0,81
507,345	0,81
507,797	0,82
508,249	0,82
508,7	0,82
509,151	0,83
509,603	0,83
510,054	0,83
510,506	0,84
510,957	0,84
511,408	0,84
511,86	0,85
512,311	0,85
512,762	0,85
513,213	0,85
513,665	0,86
514,116	0,86
514,567	0,86
515,018	0,87
515,469	0,87
515,92	0,87
516,371	0,87
516,822	0,88
517,273	0,88
517,724	0,88
518,175	0,88
518,626	0,89
519,076	0,89
519,527	0,89
519,978	0,89
520,429	0,89
520,88	0,9
521,33	0,9
521,781	0,9
522,232	0,9
522,682	0,9
523,133	0,9
523,583	0,91
524,034	0,91
524,484	0,91
524,935	0,91
525,385	0,91
525,836	0,91
526,286	0,91
526,736	0,91
527,187	0,91
527,637	0,91
528,087	0,91
528,538	0,91
528,988	0,91
529,438	0,91
529,888	0,91
530,338	0,91
530,788	0,9
531,238	0,9
531,688	0,9
532,139	0,9
532,589	0,9
533,038	0,9
533,488	0,9
533,938	0,9
534,388	0,89
534,838	0,89
535,288	0,89
535,738	0,89
536,187	0,88
536,637	0,88
537,087	0,88
537,537	0,88
537,986	0,87
538,436	0,87
538,885	0,86
539,335	0,86
539,785	0,86
540,234	0,85
540,684	0,85
541,133	0,85
541,582	0,84
542,032	0,84
542,481	0,83
542,931	0,83
543,38	0,83
543,829	0,82
544,278	0,82
544,728	0,82
545,177	0,81
545,626	0,81
546,075	0,81
546,524	0,8
546,973	0,8
547,422	0,8
547,871	0,79
548,32	0,79
548,769	0,79
549,218	0,79
549,667	0,79
550,116	0,78
550,565	0,78
551,014	0,78
551,463	0,77
551,911	0,77
552,36	0,77
552,809	0,76
553,258	0,76
553,706	0,76
554,155	0,75
554,603	0,75
555,052	0,75
555,501	0,74
555,949	0,74
556,398	0,73
556,846	0,73
557,294	0,73
557,743	0,72
558,191	0,72
558,64	0,72
559,088	0,71
559,536	0,71
559,985	0,7
560,433	0,7
560,881	0,7
561,329	0,69
561,777	0,69
562,225	0,69
562,674	0,69
563,122	0,68
563,57	0,68
564,018	0,68
564,466	0,67
564,914	0,67
565,362	0,67
565,809	0,66
566,257	0,66
566,705	0,66
567,153	0,65
567,601	0,65
568,048	0,65
568,496	0,65
568,944	0,64
569,392	0,64
569,839	0,64
570,287	0,63
570,734	0,63
571,182	0,63
571,63	0,63
572,077	0,62
572,525	0,62
572,972	0,62
573,419	0,61
573,867	0,61
574,314	0,61
574,761	0,61
575,209	0,6
575,656	0,6
576,103	0,6
576,551	0,6
576,998	0,59
577,445	0,59
577,892	0,59
578,339	0,59
578,786	0,59
579,233	0,58
579,68	0,58
580,127	0,58
580,574	0,58
581,021	0,57
581,468	0,57
581,915	0,57
582,362	0,57
582,809	0,57
583,255	0,56
583,702	0,56
584,149	0,56
584,596	0,56
585,042	0,56
585,489	0,55
585,936	0,55
586,382	0,55
586,829	0,55
587,275	0,55
587,722	0,55
588,168	0,54
588,615	0,54
589,061	0,54
589,508	0,54
589,954	0,54
590,4	0,54
590,847	0,54
591,293	0,53
591,739	0,53
592,185	0,53
592,632	0,53
593,078	0,53
593,524	0,53
593,97	0,53
594,416	0,53
594,862	0,53
595,308	0,52
595,754	0,52
596,2	0,52
596,646	0,52
597,092	0,52
597,538	0,52
597,984	0,52
598,43	0,52
598,876	0,52
599,321	0,51
599,767	0,51
600,213	0,51
600,659	0,51
601,104	0,51
601,55	0,51
601,995	0,51
602,441	0,51
602,887	0,5
603,332	0,5
603,778	0,5
604,223	0,5
604,668	0,5
605,114	0,5
605,559	0,5
606,005	0,5
606,45	0,5
606,895	0,5
607,341	0,5
607,786	0,5
608,231	0,49
608,676	0,49
609,121	0,48
609,566	0,48
610,012	0,48
610,457	0,47
610,902	0,47
611,347	0,47
611,792	0,47
612,237	0,46
612,682	0,46
613,127	0,46
613,571	0,46
614,016	0,47
614,461	0,47
614,906	0,47
615,351	0,47
615,795	0,47
616,24	0,47
616,685	0,47
617,129	0,47
617,574	0,47
618,019	0,48
618,463	0,47
618,908	0,47
619,352	0,47
619,797	0,47
620,241	0,47
620,686	0,47
621,13	0,47
621,574	0,47
622,019	0,47
622,463	0,47
622,907	0,47
623,352	0,47
623,796	0,46
624,24	0,46
624,684	0,46
625,128	0,46
625,572	0,46
626,016	0,46
626,461	0,46
626,905	0,46
627,349	0,46
627,793	0,46
628,236	0,46
628,68	0,46
629,124	0,46
629,568	0,46
630,012	0,46
630,456	0,46
630,9	0,46
631,343	0,46
631,787	0,46
632,231	0,46
632,674	0,46
633,118	0,46
633,562	0,46
634,005	0,46
634,449	0,46
634,892	0,46
635,336	0,46
635,779	0,46
636,223	0,46
636,666	0,46
637,109	0,46
637,553	0,46
637,996	0,46
638,439	0,46
638,883	0,46
639,326	0,46
639,769	0,46
640,212	0,45
640,655	0,45
641,099	0,45
641,542	0,45
641,985	0,45
642,428	0,45
642,871	0,45
643,314	0,45
643,757	0,45
644,2	0,45
644,643	0,45
645,085	0,45
645,528	0,45
645,971	0,45
646,414	0,45
646,857	0,45
647,299	0,45
647,742	0,45
648,185	0,45
648,627	0,45
649,07	0,44
649,513	0,44
649,955	0,45
650,398	0,45
650,84	0,45
651,283	0,45
651,725	0,45
652,168	0,45
652,61	0,45
653,052	0,45
653,495	0,45
653,937	0,36
654,379	0,3
654,821	0,31
655,264	0,31
655,706	0,31
656,148	0,31
656,59	0,31
657,032	0,31
657,474	0,31
657,916	0,31
658,358	0,3
658,8	0,36
659,242	0,44
659,684	0,44
660,126	0,44
660,568	0,44
661,01	0,44
661,452	0,44
661,894	0,44
662,335	0,44
662,777	0,44
663,219	0,44
663,661	0,44
664,102	0,44
664,544	0,44
664,985	0,44
665,427	0,44
665,869	0,44
666,31	0,44
666,752	0,44
667,193	0,44
667,634	0,44
668,076	0,44
668,517	0,44
668,959	0,44
669,4	0,44
669,841	0,44
670,282	0,44
670,724	0,44
671,165	0,44
671,606	0,44
672,047	0,44
672,488	0,44
672,929	0,44
673,37	0,44
673,811	0,44
674,252	0,44
674,693	0,43
675,134	0,43
675,575	0,43
676,016	0,43
676,457	0,43
676,898	0,43
677,339	0,43
677,78	0,43
678,22	0,43
678,661	0,43
679,102	0,43
679,542	0,43
679,983	0,43
680,424	0,43
680,864	0,43
681,305	0,43
681,745	0,43
682,186	0,43
682,626	0,43
683,067	0,43
683,507	0,43
683,948	0,43
684,388	0,43
684,828	0,43
685,269	0,43
685,709	0,43
686,149	0,43
686,589	0,43
687,029	0,42
687,47	0,42
687,91	0,42
688,35	0,42
688,79	0,42
689,23	0,42
689,67	0,42
690,11	0,42
690,55	0,42
690,99	0,42
691,43	0,42
691,87	0,42
692,31	0,42
692,749	0,42
693,189	0,42
693,629	0,42
694,069	0,42
694,508	0,42
694,948	0,41
695,388	0,41
695,827	0,42
696,267	0,42
696,706	0,42
697,146	0,42
697,586	0,42
698,025	0,42
698,464	0,42
698,904	0,42
699,343	0,42
699,783	0,42
700,222	0,42
700,661	0,42
701,101	0,42
701,54	0,42
701,979	0,42
702,418	0,42
702,857	0,42
703,297	0,42
703,736	0,42
704,175	0,42
704,614	0,42
705,053	0,42
705,492	0,42
705,931	0,42
706,37	0,42
706,809	0,42
707,248	0,42
707,687	0,42
708,125	0,42
708,564	0,42
709,003	0,42
709,442	0,42
709,88	0,42
710,319	0,41
710,758	0,41
711,196	0,41
711,635	0,41
712,074	0,41
712,512	0,41
712,951	0,41
713,389	0,41
713,828	0,41
714,266	0,41
714,705	0,41
715,143	0,41
715,581	0,41
716,02	0,41
716,458	0,41
716,896	0,4
717,334	0,41
717,773	0,41
718,211	0,41
718,649	0,41
719,087	0,41
719,525	0,41
719,963	0,41
720,401	0,41
720,839	0,41
721,277	0,41
721,715	0,41
722,153	0,41
722,591	0,41
723,029	0,41
723,467	0,41
723,905	0,41
724,342	0,41
724,78	0,41
725,218	0,41
725,656	0,41
726,093	0,41
726,531	0,41
726,969	0,41
727,406	0,41
727,844	0,41
728,281	0,41
728,719	0,41
729,156	0,41
729,594	0,41
730,031	0,4
730,469	0,4
730,906	0,4
731,343	0,4
731,781	0,4
732,218	0,4
732,655	0,4
733,092	0,4
733,53	0,4
733,967	0,4
734,404	0,4
734,841	0,4
735,278	0,4
735,715	0,4
736,152	0,4
736,589	0,39
737,026	0,39
737,463	0,39
737,9	0,39
738,337	0,39
738,774	0,39
739,211	0,39
739,647	0,39
740,084	0,39
740,521	0,39
740,958	0,39
741,394	0,39
741,831	0,39
742,268	0,39
742,704	0,39
743,141	0,39
743,577	0,39
744,014	0,39
744,45	0,39
744,887	0,39
745,323	0,39
745,76	0,39
746,196	0,38
746,632	0,38
747,069	0,38
747,505	0,38
747,941	0,38
748,378	0,38
748,814	0,38
749,25	0,38
749,686	0,38
750,122	0,39
750,558	0,39
750,994	0,39
751,43	0,39
751,866	0,39
752,302	0,39
752,738	0,39
753,174	0,4
753,61	0,4
754,046	0,4
754,482	0,39
754,918	0,39
755,354	0,39
755,789	0,39
756,225	0,39
756,661	0,39
757,096	0,39
757,532	0,39
757,968	0,39
758,403	0,38
758,839	0,38
759,274	0,38
759,71	0,38
760,145	0,37
760,581	0,36
761,016	0,36
761,452	0,36
761,887	0,35
762,322	0,35
762,758	0,34
763,193	0,34
763,628	0,33
764,063	0,33
764,499	0,32
764,934	0,32
765,369	0,31
765,804	0,3
766,239	0,3
766,674	0,29
767,109	0,28
767,544	0,28
767,979	0,27
768,414	0,26
768,849	0,25
769,284	0,24
769,719	0,23
770,154	0,23
770,588	0,22
771,023	0,21
771,458	0,2
771,893	0,19
772,327	0,17
772,762	0,17
773,197	0,16
773,631	0,15
774,066	0,14
774,5	0,13
774,935	0,12
775,369	0,11
775,804	0,1
776,238	0,09
776,673	0,08
777,107	0,07
777,541	0,07
777,976	0,06
778,41	0,05
778,844	0,04
779,279	0,03
779,713	0,02
780,147	0,02
780,581	0,01
781,015	-0
781,449	-0,01
781,883	-0,01
782,317	-0,03
782,751	-0,04
783,185	-0,04
783,619	-0,05
784,053	-0,06
784,487	-0,07
784,921	-0,08
785,355	-0,09
785,789	-0,1
786,223	-0,11
786,656	-0,12
787,09	-0,13
787,524	-0,14
787,957	-0,15
788,391	-0,17
788,825	-0,18
789,258	-0,19
789,692	-0,2
790,125	-0,22
790,559	-0,23
790,992	-0,25
791,426	-0,28
791,859	-0,3
792,293	-0,33
792,726	-0,34
793,159	-0,36
793,593	-0,38
794,026	-0,41
794,459	-0,44
794,892	-0,47
795,326	-0,5
795,759	-0,54
796,192	-0,58
796,625	-0,62
797,058	-0,65
797,491	-0,69
797,924	-0,73
798,357	-0,78
798,79	-0,83
799,223	-0,87
799,656	-0,92
800,089	-0,97
800,522	-1,01
800,955	-1,05
801,387	-1,11
801,82	-1,17
802,253	-1,23
802,686	-1,31
803,118	-1,36
803,551	-1,42
803,984	-1,46
804,416	-1,5
804,849	-1,53
805,281	-1,64
805,714	-2,01
806,146	-2,46
806,579	-2,72
807,011	-2,87
807,444	-2,97
807,876	-3,05
808,308	-3,09
808,741	-3,12
809,173	-3,17
809,605	-3,19
810,037	-3,27
810,47	-3,18
810,902	-2,98
811,334	-2,83
811,766	-2,68
812,198	-2,43
812,63	-2,01
813,062	-1,8
813,494	-1,71
813,926	-1,62
814,358	-1,56
814,79	-1,48
815,222	-1,42
815,654	-1,37
816,086	-1,31
816,518	-1,25
816,949	-1,2
817,381	-1,16
817,813	-1,14
818,245	-1,1
818,676	-1,06
819,108	-1,02
819,54	-1,01
819,971	-0,99
820,403	-0,94
820,834	-0,92
821,266	-0,88
821,697	-0,86
822,129	-0,84
822,56	-0,82
822,991	-0,8
823,423	-0,77
823,854	-0,76
824,286	-0,73
824,717	-0,72
825,148	-0,7
825,579	-0,69
826,01	-0,68
826,442	-0,67
826,873	-0,65
827,304	-0,61
827,735	-0,6
828,166	-0,6
828,597	-0,6
829,028	-0,59
829,459	-0,6
829,89	-0,6
830,321	-0,55
830,752	-0,56
831,183	-0,55
831,613	-0,55
832,044	-0,55
832,475	-0,53
832,906	-0,54
833,336	-0,55
833,767	-0,55
834,198	-0,54
834,628	-0,53
835,059	-0,55
835,49	-0,55
835,92	-0,53
836,351	-0,53
836,781	-0,53
837,212	-0,54
837,642	-0,55
838,072	-0,53
838,503	-0,54
838,933	-0,51
839,364	-0,52
839,794	-0,5
840,224	-0,49
840,654	-0,54
841,085	-0,54
841,515	-0,51
841,945	-0,52
842,375	-0,47
842,805	-0,46
843,235	-0,45
843,665	-0,47
844,095	-0,47
844,525	-0,48
844,955	-0,48
845,385	-0,45
845,815	-0,43
846,245	-0,45
846,675	-0,46
847,105	-0,48
847,534	-0,47
847,964	-0,45
848,394	-0,43
848,824	-0,46
849,253	-0,46
849,683	-0,46
850,112	-0,47
850,542	-0,51
850,972	-0,5
851,401	-0,49
851,831	-0,47
852,26	-0,48
852,69	-0,52
853,119	-0,5
853,548	-0,5
853,978	-0,5
854,407	-0,49
854,836	-0,49
855,266	-0,49
855,695	-0,51
856,124	-0,52
856,553	-0,54
856,983	-0,55
857,412	-0,54
857,841	-0,56
858,27	-0,56
858,699	-0,56
859,128	-0,59
859,557	-0,6
859,986	-0,61
860,415	-0,59
860,844	-0,56
861,273	-0,56
861,702	-0,57
862,13	-0,55
862,559	-0,58
862,988	-0,56
863,417	-0,55
863,845	-0,54
864,274	-0,55
864,703	-0,54
865,131	-0,54
865,56	-0,55
865,989	-0,58
866,417	-0,55
866,846	-0,56
867,274	-0,55
867,703	-0,57
868,131	-0,58
868,559	-0,58
868,988	-0,61
869,416	-0,59
869,844	-0,62
870,273	-0,65
870,701	-0,63
871,129	-0,66
871,557	-0,68
871,986	-0,68
872,414	-0,69
872,842	-0,66
873,27	-0,64
873,698	-0,6
874,126	-0,64
874,554	-0,61
874,982	-0,61
875,41	-0,63
875,838	-0,58
876,266	-0,56
876,694	-0,56
877,122	-0,55
877,549	-0,6
877,977	-0,57
878,405	-0,59
878,833	-0,57
879,26	-0,56
879,688	-0,56
880,116	-0,53
880,543	-0,53
880,971	-0,52
881,399	-0,55
881,826	-0,56
882,254	-0,55
882,681	-0,59
883,109	-0,55
883,536	-0,56
883,963	-0,58
884,391	-0,56
884,818	-0,55
885,245	-0,58
885,673	-0,6
886,1	-0,57
886,527	-0,56
886,954	-0,52
887,381	-0,54
887,809	-0,55
888,236	-0,57
888,663	-0,57
889,09	-0,6
889,517	-0,63
889,944	-0,63
890,371	-0,6
890,798	-0,6
891,225	-0,61
891,652	-0,64
892,078	-0,61
892,505	-0,65
892,932	-0,6
893,359	-0,61
893,786	-0,61
894,212	-0,56
894,639	-0,58
895,066	-0,61
895,492	-0,55
895,919	-0,56
896,346	-0,55
896,772	-0,55
897,199	-0,51
897,625	-0,54
898,052	-0,5
898,478	-0,49
898,904	-0,51
899,331	-0,5
899,757	-0,52
900,183	-0,55
900,61	-0,52
901,036	-0,53
901,462	-0,53
901,888	-0,53
902,315	-0,51
902,741	-0,57
903,167	-0,56
903,593	-0,59
904,019	-0,56
904,445	-0,53
904,871	-0,56
905,297	-0,59
905,723	-0,59
906,149	-0,57
906,575	-0,58
907,001	-0,58
907,427	-0,54
907,852	-0,53
908,278	-0,53
908,704	-0,52
909,13	-0,51
909,555	-0,51
909,981	-0,49
910,407	-0,49
910,832	-0,49
911,258	-0,49
911,684	-0,5
912,109	-0,5
912,535	-0,52
912,96	-0,48
913,386	-0,53
913,811	-0,52
914,236	-0,54
914,662	-0,52
915,087	-0,57
915,512	-0,57
915,938	-0,59
916,363	-0,57
916,788	-0,59
917,213	-0,57
917,639	-0,62
918,064	-0,59
918,489	-0,6
918,914	-0,59
919,339	-0,6
919,764	-0,57
920,189	-0,56
920,614	-0,58
921,039	-0,58
921,464	-0,54
921,889	-0,57
922,314	-0,57
922,738	-0,59
923,163	-0,61
923,588	-0,62
924,013	-0,61
924,437	-0,61
924,862	-0,63
925,287	-0,59
925,711	-0,61
926,136	-0,62
926,561	-0,59
926,985	-0,59
927,41	-0,56
927,834	-0,53
928,259	-0,5
928,683	-0,48
929,108	-0,45
929,532	-0,46
929,956	-0,45
930,381	-0,45
930,805	-0,46
931,229	-0,45
931,653	-0,44
932,078	-0,44
932,502	-0,45
932,926	-0,47
933,35	-0,47
933,774	-0,46
934,198	-0,44
934,622	-0,43
935,046	-0,43
935,47	-0,43
935,894	-0,42
936,318	-0,42
936,742	-0,41
937,166	-0,41
937,59	-0,4
938,014	-0,43
938,437	-0,43
938,861	-0,45
939,285	-0,47
939,709	-0,46
940,132	-0,46
940,556	-0,47
940,98	-0,47
941,403	-0,46
941,827	-0,48
942,25	-0,49
942,674	-0,47
943,097	-0,47
943,521	-0,46
943,944	-0,48
944,368	-0,47
944,791	-0,46
945,214	-0,48
945,638	-0,49
946,061	-0,52
946,484	-0,52
946,907	-0,5
947,331	-0,5
947,754	-0,54
948,177	-0,51
948,6	-0,5
949,023	-0,5
949,446	-0,5
949,869	-0,49
950,292	-0,48
950,715	-0,45
951,138	-0,44
951,561	-0,42
951,984	-0,43
952,407	-0,41
952,83	-0,4
953,252	-0,38
953,675	-0,37
954,098	-0,38
954,521	-0,37
954,943	-0,36
955,366	-0,37
955,789	-0,35
956,211	-0,36
956,634	-0,37
957,056	-0,35
957,479	-0,36
957,902	-0,38
958,324	-0,39
958,746	-0,37
959,169	-0,36
959,591	-0,37
960,014	-0,38
960,436	-0,38
960,858	-0,37
961,281	-0,37
961,703	-0,38
962,125	-0,38
962,547	-0,35
962,969	-0,36
963,391	-0,37
963,814	-0,38
964,236	-0,38
964,658	-0,36
965,08	-0,36
965,502	-0,35
965,924	-0,33
966,346	-0,33
966,768	-0,32
967,189	-0,34
967,611	-0,33
968,033	-0,33
968,455	-0,31
968,877	-0,32
969,298	-0,33
969,72	-0,33
970,142	-0,33
970,563	-0,33
970,985	-0,32
971,407	-0,31
971,828	-0,28
972,25	-0,27
972,671	-0,25
973,093	-0,25
973,514	-0,24
973,936	-0,22
974,357	-0,2
974,778	-0,2
975,2	-0,19
975,621	-0,19
976,042	-0,17
976,464	-0,16
976,885	-0,16
977,306	-0,16
977,727	-0,15
978,148	-0,14
978,57	-0,13
978,991	-0,12
979,412	-0,11
979,833	-0,1
980,254	-0,09
980,675	-0,1
981,096	-0,1
981,517	-0,08
981,937	-0,07
982,358	-0,06
982,779	-0,04
983,2	-0,04
983,621	-0,03
984,042	-0,01
984,462	0
984,883	0,02
985,304	0,04
985,724	0,05
986,145	0,06
986,565	0,08
986,986	0,09
987,407	0,1
987,827	0,11
988,248	0,12
988,668	0,13
989,088	0,13
989,509	0,14
989,929	0,15
990,35	0,16
990,77	0,17
991,19	0,18
991,61	0,19
992,031	0,19
992,451	0,2
992,871	0,21
993,291	0,22
993,711	0,23
994,131	0,24
994,551	0,25
994,971	0,26
995,391	0,26
995,811	0,27
996,231	0,27
996,651	0,28
997,071	0,29
997,491	0,29
997,911	0,3
998,331	0,3
998,75	0,31
999,17	0,31
999,59	0,32
1000,009	0,32
1000,429	0,33
1000,849	0,33
1001,268	0,34
1001,688	0,34
1002,107	0,34
1002,527	0,35
1002,946	0,35
1003,366	0,35
1003,785	0,36
1004,205	0,36
1004,624	0,36
1005,044	0,36
1005,463	0,36
1005,882	0,37
1006,301	0,37
1006,721	0,37
1007,14	0,37
1007,559	0,37
1007,978	0,37
1008,397	0,37
1008,816	0,37
1009,235	0,37
1009,655	0,37
1010,074	0,37
1010,492	0,37
1010,911	0,37
1011,33	0,37
1011,749	0,37
1012,168	0,37
1012,587	0,37
1013,006	0,37
1013,425	0,36
1013,843	0,36
1014,262	0,36
1014,681	0,36
1015,099	0,36
1015,518	0,36
1015,937	0,36
1016,355	0,36
1016,774	0,36
1017,192	0,36
1017,611	0,36
1018,029	0,36
1018,448	0,36
1018,866	0,36
1019,285	0,36
1019,703	0,36
1020,121	0,36
1020,54	0,36
1020,958	0,36
1021,376	0,36
1021,794	0,36
1022,213	0,36
1022,631	0,36
1023,049	0,36
1023,467	0,36
1023,885	0,36
1024,303	0,35
1024,721	0,35
1025,139	0,35
1025,557	0,35
1025,975	0,35
1026,393	0,35
1026,811	0,35
1027,229	0,35
1027,647	0,35
1028,065	0,35
1028,482	0,35
1028,9	0,35
1029,318	0,35
1029,735	0,35
1030,153	0,35
1030,571	0,35
1030,988	0,35
1031,406	0,35
1031,823	0,35
1032,241	0,35
1032,659	0,35
1033,076	0,35
1033,493	0,35
1033,911	0,35
1034,328	0,35
1034,746	0,35
1035,163	0,35
1035,58	0,35
1035,997	0,35
1036,415	0,35
1036,832	0,35
1037,249	0,35
1037,666	0,35
1038,083	0,35
1038,501	0,35
1038,918	0,35
1039,335	0,35
1039,752	0,35
1040,169	0,35
1040,586	0,35
1041,003	0,35
1041,419	0,35
1041,836	0,35
1042,253	0,35
1042,67	0,35
1043,087	0,35
1043,504	0,35
1043,92	0,35
1044,337	0,35
1044,754	0,35
1045,17	0,35
1045,587	0,34
1046,004	0,34
1046,42	0,34
1046,837	0,34
1047,253	0,34
1047,67	0,34
1048,086	0,34
1048,503	0,34
1048,919	0,35
1049,335	0,35
1049,752	0,35
1050,168	0,35
1050,584	0,35
1051,001	0,35
1051,417	0,35
1051,833	0,35
1052,249	0,35
1052,665	0,35
1053,081	0,35
1053,497	0,35
1053,914	0,35
1054,33	0,35
1054,746	0,35
1055,162	0,35
1055,578	0,35
1055,993	0,36
1056,409	0,36
1056,825	0,36
1057,241	0,36
1057,657	0,36
1058,073	0,36
1058,488	0,36
1058,904	0,35
1059,32	0,35
1059,736	0,35
1060,151	0,35
1060,567	0,35
1060,982	0,35
1061,398	0,35
1061,813	0,35
1062,229	0,35
1062,644	0,35
1063,06	0,35
1063,475	0,35
1063,891	0,35
1064,306	0,35
1064,721	0,35
1065,137	0,35
1065,552	0,35
1065,967	0,35
1066,382	0,35
1066,798	0,35
1067,213	0,35
1067,628	0,35
1068,043	0,35
1068,458	0,35
1068,873	0,35
1069,288	0,35
1069,703	0,35
1070,118	0,35
1070,533	0,35
1070,948	0,35
1071,363	0,35
1071,778	0,35
1072,193	0,35
1072,607	0,35
1073,022	0,35
1073,437	0,35
1073,852	0,35
1074,266	0,35
1074,681	0,35
1075,096	0,35
1075,51	0,35
1075,925	0,35
1076,339	0,35
1076,754	0,35
1077,168	0,35
1077,583	0,35
1077,997	0,35
1078,412	0,35
1078,826	0,35
1079,24	0,35
1079,655	0,35
1080,069	0,35
1080,483	0,34
1080,897	0,34
1081,312	0,34
1081,726	0,34
1082,14	0,34
1082,554	0,34
1082,968	0,34
1083,382	0,34
1083,796	0,34
1084,21	0,34
1084,624	0,34
1085,038	0,34
1085,452	0,34
1085,866	0,34
1086,28	0,33
1086,694	0,33
1087,108	0,33
1087,521	0,33
1087,935	0,33
1088,349	0,33
1088,763	0,33
1089,176	0,32
1089,59	0,32
1090,004	0,32
1090,417	0,31
1090,831	0,31
1091,244	0,31
1091,658	0,31
1092,071	0,3
1092,485	0,3
1092,898	0,3
1093,312	0,3
1093,725	0,3
1094,138	0,29
1094,552	0,29
1094,965	0,29
1095,378	0,29
1095,791	0,29
1096,205	0,29
1096,618	0,28
1097,031	0,28
1097,444	0,28
1097,857	0,27
1098,27	0,27
1098,683	0,27
1099,096	0,27
1099,509	0,26
1099,922	0,26
1100,335	0,25
1100,748	0,25
1101,161	0,24
1101,574	0,24
1101,986	0,24
1102,399	0,24
1102,812	0,23
1103,225	0,23
1103,637	0,22
1104,05	0,22
1104,463	0,22
1104,875	0,22
1105,288	0,21
1105,7	0,21
1106,113	0,21
1106,525	0,2
1106,938	0,2
1107,35	0,19
1107,763	0,19
1108,175	0,18
1108,588	0,18
1109	0,17
1109,412	0,17
1109,824	0,17
1110,237	0,17
1110,649	0,17
1111,061	0,15
