Data from 18C-808nm-8A-cont_Absorbance__372__01801.txt Node

Date: Mon Jul 17 17:32:05 CEST 2023
User: Laser008
Spectrometer: MAYP115816
Trigger mode: 0
Integration Time (sec): 2,500000E-1
Scans to average: 10
Electric dark correction enabled: true
Nonlinearity correction enabled: true
Boxcar width: 5
XAxis mode: Wavelengths
Number of Pixels in Spectrum: 2068
>>>>>Begin Spectral Data<<<<<
198,914	-0,68
199,384	-0,48
199,855	-0,36
200,325	-0,29
200,796	-0,27
201,266	-0,22
201,737	-0,21
202,207	-0,19
202,677	-0,19
203,147	-0,17
203,618	-0,14
204,088	-0,13
204,558	-0,12
205,028	-0,11
205,498	-0,11
205,968	-0,11
206,439	-0,13
206,909	-0,11
207,379	-0,12
207,849	-0,11
208,319	-0,13
208,789	-0,13
209,258	-0,13
209,728	-0,14
210,198	-0,14
210,668	-0,14
211,138	-0,13
211,608	-0,13
212,077	-0,14
212,547	-0,14
213,017	-0,14
213,486	-0,14
213,956	-0,15
214,426	-0,16
214,895	-0,15
215,365	-0,16
215,834	-0,16
216,304	-0,17
216,773	-0,17
217,243	-0,17
217,712	-0,18
218,181	-0,17
218,651	-0,18
219,12	-0,17
219,589	-0,17
220,058	-0,16
220,528	-0,17
220,997	-0,19
221,466	-0,19
221,935	-0,2
222,404	-0,21
222,873	-0,2
223,342	-0,2
223,812	-0,2
224,281	-0,2
224,749	-0,21
225,218	-0,22
225,687	-0,23
226,156	-0,21
226,625	-0,2
227,094	-0,19
227,563	-0,19
228,031	-0,2
228,5	-0,21
228,969	-0,22
229,438	-0,21
229,906	-0,19
230,375	-0,19
230,844	-0,17
231,312	-0,18
231,781	-0,19
232,249	-0,18
232,718	-0,18
233,186	-0,17
233,655	-0,16
234,123	-0,15
234,591	-0,16
235,06	-0,16
235,528	-0,16
235,996	-0,16
236,465	-0,16
236,933	-0,14
237,401	-0,14
237,869	-0,14
238,337	-0,14
238,805	-0,13
239,274	-0,13
239,742	-0,12
240,21	-0,12
240,678	-0,11
241,146	-0,11
241,614	-0,11
242,081	-0,11
242,549	-0,11
243,017	-0,11
243,485	-0,12
243,953	-0,12
244,421	-0,12
244,888	-0,13
245,356	-0,13
245,824	-0,13
246,291	-0,13
246,759	-0,13
247,227	-0,14
247,694	-0,13
248,162	-0,12
248,629	-0,12
249,097	-0,12
249,564	-0,13
250,032	-0,13
250,499	-0,13
250,967	-0,13
251,434	-0,13
251,901	-0,13
252,369	-0,12
252,836	-0,13
253,303	-0,15
253,77	-0,16
254,237	-0,15
254,705	-0,15
255,172	-0,14
255,639	-0,15
256,106	-0,16
256,573	-0,16
257,04	-0,17
257,507	-0,17
257,974	-0,17
258,441	-0,15
258,908	-0,16
259,375	-0,17
259,841	-0,17
260,308	-0,18
260,775	-0,17
261,242	-0,17
261,709	-0,17
262,175	-0,19
262,642	-0,19
263,109	-0,19
263,575	-0,21
264,042	-0,19
264,508	-0,19
264,975	-0,21
265,441	-0,21
265,908	-0,21
266,374	-0,21
266,841	-0,21
267,307	-0,2
267,773	-0,2
268,24	-0,2
268,706	-0,2
269,172	-0,22
269,639	-0,22
270,105	-0,2
270,571	-0,21
271,037	-0,21
271,503	-0,22
271,969	-0,22
272,435	-0,22
272,902	-0,23
273,368	-0,24
273,834	-0,24
274,3	-0,23
274,765	-0,24
275,231	-0,24
275,697	-0,24
276,163	-0,23
276,629	-0,23
277,095	-0,23
277,56	-0,23
278,026	-0,24
278,492	-0,22
278,958	-0,21
279,423	-0,22
279,889	-0,21
280,354	-0,22
280,82	-0,21
281,286	-0,22
281,751	-0,23
282,217	-0,22
282,682	-0,22
283,147	-0,22
283,613	-0,23
284,078	-0,23
284,544	-0,24
285,009	-0,25
285,474	-0,23
285,939	-0,25
286,405	-0,24
286,87	-0,23
287,335	-0,23
287,8	-0,22
288,265	-0,21
288,73	-0,22
289,195	-0,25
289,66	-0,24
290,125	-0,22
290,59	-0,22
291,055	-0,22
291,52	-0,22
291,985	-0,22
292,45	-0,24
292,915	-0,24
293,38	-0,24
293,844	-0,21
294,309	-0,2
294,774	-0,18
295,239	-0,2
295,703	-0,22
296,168	-0,21
296,632	-0,2
297,097	-0,18
297,562	-0,17
298,026	-0,17
298,491	-0,17
298,955	-0,18
299,419	-0,17
299,884	-0,18
300,348	-0,17
300,813	-0,15
301,277	-0,16
301,741	-0,16
302,205	-0,16
302,67	-0,14
303,134	-0,14
303,598	-0,14
304,062	-0,13
304,526	-0,13
304,99	-0,14
305,454	-0,14
305,919	-0,13
306,383	-0,13
306,847	-0,13
307,31	-0,14
307,774	-0,15
308,238	-0,14
308,702	-0,14
309,166	-0,16
309,63	-0,15
310,094	-0,12
310,557	-0,12
311,021	-0,12
311,485	-0,13
311,948	-0,13
312,412	-0,12
312,876	-0,12
313,339	-0,12
313,803	-0,12
314,266	-0,12
314,73	-0,11
315,193	-0,11
315,657	-0,1
316,12	-0,09
316,584	-0,07
317,047	-0,07
317,51	-0,06
317,973	-0,06
318,437	-0,05
318,9	-0,04
319,363	-0,03
319,826	-0,04
320,29	-0,05
320,753	-0,06
321,216	-0,06
321,679	-0,06
322,142	-0,05
322,605	-0,06
323,068	-0,07
323,531	-0,07
323,994	-0,07
324,457	-0,07
324,92	-0,05
325,382	-0,05
325,845	-0,05
326,308	-0,04
326,771	-0,04
327,233	-0,04
327,696	-0,03
328,159	-0,02
328,622	-0,01
329,084	-0,02
329,547	-0,01
330,009	-0,01
330,472	0,01
330,934	0,01
331,397	0,01
331,859	0,03
332,322	0,03
332,784	0,04
333,246	0,05
333,709	0,05
334,171	0,06
334,633	0,06
335,096	0,06
335,558	0,07
336,02	0,06
336,482	0,06
336,944	0,07
337,406	0,08
337,868	0,08
338,331	0,08
338,793	0,09
339,255	0,09
339,717	0,1
340,178	0,11
340,64	0,11
341,102	0,13
341,564	0,14
342,026	0,15
342,488	0,16
342,949	0,17
343,411	0,2
343,873	0,23
344,335	0,26
344,796	0,3
345,258	0,35
345,719	0,39
346,181	0,44
346,643	0,48
347,104	0,51
347,566	0,54
348,027	0,58
348,488	0,6
348,95	0,62
349,411	0,65
349,873	0,67
350,334	0,69
350,795	0,71
351,256	0,72
351,718	0,73
352,179	0,74
352,64	0,74
353,101	0,75
353,562	0,75
354,023	0,75
354,484	0,75
354,945	0,76
355,406	0,76
355,867	0,76
356,328	0,76
356,789	0,77
357,25	0,78
357,711	0,78
358,172	0,78
358,633	0,78
359,093	0,78
359,554	0,78
360,015	0,78
360,476	0,79
360,936	0,79
361,397	0,79
361,858	0,79
362,318	0,79
362,779	0,79
363,239	0,79
363,7	0,79
364,16	0,79
364,621	0,79
365,081	0,79
365,541	0,79
366,002	0,79
366,462	0,79
366,922	0,79
367,383	0,79
367,843	0,79
368,303	0,79
368,763	0,79
369,223	0,79
369,684	0,79
370,144	0,79
370,604	0,79
371,064	0,79
371,524	0,79
371,984	0,79
372,444	0,79
372,904	0,79
373,363	0,79
373,823	0,78
374,283	0,78
374,743	0,78
375,203	0,78
375,663	0,78
376,122	0,78
376,582	0,78
377,042	0,78
377,501	0,78
377,961	0,78
378,42	0,78
378,88	0,78
379,34	0,78
379,799	0,78
380,259	0,78
380,718	0,78
381,177	0,78
381,637	0,78
382,096	0,78
382,555	0,78
383,015	0,78
383,474	0,78
383,933	0,78
384,393	0,78
384,852	0,78
385,311	0,78
385,77	0,78
386,229	0,78
386,688	0,78
387,147	0,78
387,606	0,78
388,065	0,78
388,524	0,77
388,983	0,77
389,442	0,77
389,901	0,77
390,36	0,77
390,819	0,77
391,277	0,77
391,736	0,77
392,195	0,77
392,654	0,77
393,112	0,77
393,571	0,77
394,03	0,77
394,488	0,77
394,947	0,77
395,405	0,77
395,864	0,77
396,322	0,77
396,781	0,77
397,239	0,77
397,698	0,77
398,156	0,77
398,614	0,77
399,073	0,77
399,531	0,77
399,989	0,77
400,447	0,77
400,905	0,77
401,364	0,76
401,822	0,76
402,28	0,76
402,738	0,76
403,196	0,76
403,654	0,76
404,112	0,76
404,57	0,76
405,028	0,76
405,486	0,76
405,944	0,76
406,402	0,76
406,859	0,76
407,317	0,76
407,775	0,76
408,233	0,76
408,691	0,76
409,148	0,76
409,606	0,76
410,064	0,76
410,521	0,76
410,979	0,76
411,436	0,76
411,894	0,76
412,351	0,76
412,809	0,76
413,266	0,76
413,724	0,76
414,181	0,76
414,638	0,76
415,096	0,76
415,553	0,76
416,01	0,75
416,467	0,75
416,925	0,75
417,382	0,75
417,839	0,75
418,296	0,75
418,753	0,75
419,21	0,75
419,667	0,75
420,124	0,75
420,581	0,75
421,038	0,75
421,495	0,75
421,952	0,75
422,409	0,75
422,866	0,75
423,322	0,75
423,779	0,75
424,236	0,75
424,693	0,75
425,149	0,75
425,606	0,75
426,063	0,75
426,519	0,75
426,976	0,75
427,433	0,75
427,889	0,75
428,346	0,75
428,802	0,75
429,258	0,75
429,715	0,75
430,171	0,75
430,628	0,75
431,084	0,75
431,54	0,75
431,997	0,75
432,453	0,75
432,909	0,75
433,365	0,75
433,821	0,75
434,277	0,75
434,734	0,75
435,19	0,75
435,646	0,75
436,102	0,75
436,558	0,75
437,014	0,75
437,47	0,75
437,925	0,75
438,381	0,75
438,837	0,75
439,293	0,75
439,749	0,75
440,205	0,75
440,66	0,75
441,116	0,75
441,572	0,75
442,027	0,75
442,483	0,75
442,939	0,75
443,394	0,75
443,85	0,75
444,305	0,75
444,761	0,75
445,216	0,75
445,672	0,75
446,127	0,75
446,582	0,75
447,038	0,75
447,493	0,75
447,948	0,75
448,403	0,75
448,859	0,75
449,314	0,76
449,769	0,76
450,224	0,76
450,679	0,76
451,134	0,76
451,589	0,76
452,044	0,76
452,499	0,76
452,954	0,76
453,409	0,76
453,864	0,76
454,319	0,76
454,774	0,76
455,229	0,76
455,684	0,76
456,138	0,76
456,593	0,76
457,048	0,76
457,503	0,76
457,957	0,76
458,412	0,76
458,866	0,76
459,321	0,76
459,776	0,76
460,23	0,76
460,685	0,76
461,139	0,76
461,593	0,76
462,048	0,76
462,502	0,77
462,957	0,77
463,411	0,77
463,865	0,77
464,319	0,77
464,774	0,77
465,228	0,77
465,682	0,77
466,136	0,77
466,59	0,77
467,044	0,77
467,499	0,78
467,953	0,78
468,407	0,78
468,861	0,78
469,315	0,78
469,768	0,78
470,222	0,78
470,676	0,78
471,13	0,78
471,584	0,78
472,038	0,78
472,491	0,78
472,945	0,79
473,399	0,79
473,852	0,79
474,306	0,79
474,76	0,79
475,213	0,79
475,667	0,79
476,12	0,79
476,574	0,8
477,027	0,8
477,481	0,8
477,934	0,8
478,388	0,8
478,841	0,8
479,294	0,81
479,748	0,81
480,201	0,81
480,654	0,81
481,107	0,81
481,561	0,81
482,014	0,82
482,467	0,82
482,92	0,82
483,373	0,82
483,826	0,82
484,279	0,83
484,732	0,83
485,185	0,83
485,638	0,83
486,091	0,83
486,544	0,84
486,997	0,84
487,449	0,84
487,902	0,84
488,355	0,85
488,808	0,85
489,26	0,85
489,713	0,85
490,166	0,86
490,618	0,86
491,071	0,86
491,523	0,87
491,976	0,87
492,429	0,87
492,881	0,87
493,333	0,88
493,786	0,88
494,238	0,88
494,691	0,89
495,143	0,89
495,595	0,89
496,048	0,9
496,5	0,9
496,952	0,9
497,404	0,91
497,856	0,91
498,309	0,91
498,761	0,92
499,213	0,92
499,665	0,93
500,117	0,93
500,569	0,94
501,021	0,94
501,473	0,94
501,925	0,95
502,377	0,95
502,828	0,96
503,28	0,96
503,732	0,97
504,184	0,97
504,636	0,97
505,087	0,98
505,539	0,98
505,991	0,98
506,442	0,99
506,894	0,99
507,345	1
507,797	1
508,249	1
508,7	1,01
509,151	1,01
509,603	1,02
510,054	1,02
510,506	1,03
510,957	1,03
511,408	1,03
511,86	1,04
512,311	1,04
512,762	1,05
513,213	1,05
513,665	1,05
514,116	1,05
514,567	1,06
515,018	1,06
515,469	1,06
515,92	1,07
516,371	1,07
516,822	1,07
517,273	1,07
517,724	1,08
518,175	1,08
518,626	1,08
519,076	1,09
519,527	1,09
519,978	1,09
520,429	1,09
520,88	1,09
521,33	1,1
521,781	1,1
522,232	1,1
522,682	1,1
523,133	1,11
523,583	1,11
524,034	1,11
524,484	1,11
524,935	1,11
525,385	1,11
525,836	1,11
526,286	1,11
526,736	1,11
527,187	1,11
527,637	1,11
528,087	1,11
528,538	1,11
528,988	1,11
529,438	1,11
529,888	1,11
530,338	1,11
530,788	1,1
531,238	1,1
531,688	1,1
532,139	1,1
532,589	1,1
533,038	1,1
533,488	1,09
533,938	1,09
534,388	1,09
534,838	1,09
535,288	1,08
535,738	1,08
536,187	1,08
536,637	1,07
537,087	1,07
537,537	1,07
537,986	1,06
538,436	1,06
538,885	1,05
539,335	1,05
539,785	1,04
540,234	1,04
540,684	1,03
541,133	1,03
541,582	1,02
542,032	1,02
542,481	1,02
542,931	1,01
543,38	1
543,829	1
544,278	0,99
544,728	0,99
545,177	0,99
545,626	0,98
546,075	0,98
546,524	0,97
546,973	0,97
547,422	0,96
547,871	0,96
548,32	0,96
548,769	0,95
549,218	0,95
549,667	0,95
550,116	0,94
550,565	0,94
551,014	0,93
551,463	0,93
551,911	0,92
552,36	0,92
552,809	0,91
553,258	0,91
553,706	0,9
554,155	0,9
554,603	0,89
555,052	0,89
555,501	0,88
555,949	0,88
556,398	0,88
556,846	0,87
557,294	0,87
557,743	0,86
558,191	0,86
558,64	0,85
559,088	0,84
559,536	0,84
559,985	0,83
560,433	0,83
560,881	0,82
561,329	0,82
561,777	0,82
562,225	0,81
562,674	0,81
563,122	0,8
563,57	0,8
564,018	0,79
564,466	0,79
564,914	0,78
565,362	0,78
565,809	0,78
566,257	0,77
566,705	0,77
567,153	0,76
567,601	0,76
568,048	0,76
568,496	0,75
568,944	0,75
569,392	0,74
569,839	0,74
570,287	0,74
570,734	0,73
571,182	0,73
571,63	0,73
572,077	0,72
572,525	0,72
572,972	0,71
573,419	0,71
573,867	0,71
574,314	0,7
574,761	0,7
575,209	0,69
575,656	0,69
576,103	0,69
576,551	0,69
576,998	0,68
577,445	0,68
577,892	0,68
578,339	0,67
578,786	0,67
579,233	0,67
579,68	0,66
580,127	0,66
580,574	0,66
581,021	0,65
581,468	0,65
581,915	0,65
582,362	0,65
582,809	0,64
583,255	0,64
583,702	0,64
584,149	0,64
584,596	0,63
585,042	0,63
585,489	0,63
585,936	0,63
586,382	0,62
586,829	0,62
587,275	0,62
587,722	0,62
588,168	0,61
588,615	0,61
589,061	0,61
589,508	0,61
589,954	0,61
590,4	0,6
590,847	0,6
591,293	0,6
591,739	0,6
592,185	0,6
592,632	0,59
593,078	0,59
593,524	0,59
593,97	0,59
594,416	0,59
594,862	0,59
595,308	0,59
595,754	0,58
596,2	0,58
596,646	0,58
597,092	0,58
597,538	0,58
597,984	0,57
598,43	0,57
598,876	0,57
599,321	0,57
599,767	0,57
600,213	0,57
600,659	0,57
601,104	0,57
601,55	0,56
601,995	0,56
602,441	0,56
602,887	0,56
603,332	0,56
603,778	0,56
604,223	0,55
604,668	0,55
605,114	0,55
605,559	0,55
606,005	0,55
606,45	0,55
606,895	0,55
607,341	0,55
607,786	0,55
608,231	0,54
608,676	0,54
609,121	0,53
609,566	0,53
610,012	0,52
610,457	0,52
610,902	0,52
611,347	0,51
611,792	0,51
612,237	0,51
612,682	0,51
613,127	0,51
613,571	0,51
614,016	0,51
614,461	0,52
614,906	0,52
615,351	0,52
615,795	0,52
616,24	0,52
616,685	0,52
617,129	0,52
617,574	0,52
618,019	0,52
618,463	0,52
618,908	0,52
619,352	0,52
619,797	0,52
620,241	0,52
620,686	0,51
621,13	0,51
621,574	0,51
622,019	0,51
622,463	0,51
622,907	0,51
623,352	0,51
623,796	0,51
624,24	0,51
624,684	0,51
625,128	0,5
625,572	0,5
626,016	0,5
626,461	0,5
626,905	0,5
627,349	0,5
627,793	0,5
628,236	0,5
628,68	0,5
629,124	0,5
629,568	0,5
630,012	0,5
630,456	0,5
630,9	0,5
631,343	0,5
631,787	0,5
632,231	0,5
632,674	0,5
633,118	0,5
633,562	0,5
634,005	0,5
634,449	0,5
634,892	0,5
635,336	0,5
635,779	0,5
636,223	0,5
636,666	0,5
637,109	0,5
637,553	0,5
637,996	0,5
638,439	0,49
638,883	0,49
639,326	0,49
639,769	0,49
640,212	0,49
640,655	0,49
641,099	0,49
641,542	0,49
641,985	0,49
642,428	0,49
642,871	0,49
643,314	0,49
643,757	0,48
644,2	0,48
644,643	0,48
645,085	0,48
645,528	0,48
645,971	0,48
646,414	0,48
646,857	0,48
647,299	0,48
647,742	0,48
648,185	0,48
648,627	0,48
649,07	0,48
649,513	0,48
649,955	0,48
650,398	0,48
650,84	0,48
651,283	0,48
651,725	0,48
652,168	0,48
652,61	0,48
653,052	0,48
653,495	0,48
653,937	0,4
654,379	0,34
654,821	0,34
655,264	0,34
655,706	0,34
656,148	0,34
656,59	0,34
657,032	0,34
657,474	0,34
657,916	0,34
658,358	0,33
658,8	0,4
659,242	0,48
659,684	0,48
660,126	0,48
660,568	0,48
661,01	0,48
661,452	0,47
661,894	0,47
662,335	0,47
662,777	0,47
663,219	0,47
663,661	0,47
664,102	0,47
664,544	0,47
664,985	0,47
665,427	0,47
665,869	0,47
666,31	0,47
666,752	0,47
667,193	0,47
667,634	0,47
668,076	0,47
668,517	0,47
668,959	0,47
669,4	0,47
669,841	0,47
670,282	0,47
670,724	0,47
671,165	0,47
671,606	0,47
672,047	0,47
672,488	0,47
672,929	0,47
673,37	0,47
673,811	0,47
674,252	0,47
674,693	0,46
675,134	0,46
675,575	0,46
676,016	0,46
676,457	0,46
676,898	0,46
677,339	0,46
677,78	0,46
678,22	0,46
678,661	0,46
679,102	0,46
679,542	0,46
679,983	0,46
680,424	0,46
680,864	0,46
681,305	0,46
681,745	0,46
682,186	0,46
682,626	0,46
683,067	0,46
683,507	0,46
683,948	0,46
684,388	0,46
684,828	0,46
685,269	0,46
685,709	0,46
686,149	0,46
686,589	0,46
687,029	0,46
687,47	0,46
687,91	0,45
688,35	0,45
688,79	0,45
689,23	0,45
689,67	0,45
690,11	0,45
690,55	0,45
690,99	0,45
691,43	0,45
691,87	0,45
692,31	0,45
692,749	0,45
693,189	0,45
693,629	0,44
694,069	0,44
694,508	0,44
694,948	0,44
695,388	0,44
695,827	0,44
696,267	0,44
696,706	0,44
697,146	0,45
697,586	0,45
698,025	0,45
698,464	0,45
698,904	0,45
699,343	0,45
699,783	0,45
700,222	0,45
700,661	0,45
701,101	0,45
701,54	0,45
701,979	0,45
702,418	0,45
702,857	0,45
703,297	0,45
703,736	0,45
704,175	0,45
704,614	0,45
705,053	0,45
705,492	0,45
705,931	0,45
706,37	0,45
706,809	0,45
707,248	0,45
707,687	0,44
708,125	0,44
708,564	0,44
709,003	0,44
709,442	0,44
709,88	0,44
710,319	0,44
710,758	0,44
711,196	0,44
711,635	0,44
712,074	0,44
712,512	0,44
712,951	0,44
713,389	0,44
713,828	0,43
714,266	0,43
714,705	0,43
715,143	0,43
715,581	0,43
716,02	0,43
716,458	0,43
716,896	0,44
717,334	0,44
717,773	0,44
718,211	0,44
718,649	0,44
719,087	0,44
719,525	0,44
719,963	0,44
720,401	0,44
720,839	0,44
721,277	0,44
721,715	0,44
722,153	0,44
722,591	0,44
723,029	0,44
723,467	0,44
723,905	0,44
724,342	0,44
724,78	0,44
725,218	0,44
725,656	0,44
726,093	0,44
726,531	0,44
726,969	0,44
727,406	0,44
727,844	0,44
728,281	0,44
728,719	0,44
729,156	0,44
729,594	0,44
730,031	0,44
730,469	0,44
730,906	0,44
731,343	0,43
731,781	0,43
732,218	0,43
732,655	0,43
733,092	0,43
733,53	0,43
733,967	0,43
734,404	0,43
734,841	0,43
735,278	0,42
735,715	0,42
736,152	0,42
736,589	0,42
737,026	0,42
737,463	0,42
737,9	0,42
738,337	0,42
738,774	0,42
739,211	0,42
739,647	0,42
740,084	0,42
740,521	0,42
740,958	0,42
741,394	0,42
741,831	0,42
742,268	0,42
742,704	0,42
743,141	0,42
743,577	0,42
744,014	0,42
744,45	0,42
744,887	0,42
745,323	0,42
745,76	0,42
746,196	0,42
746,632	0,41
747,069	0,41
747,505	0,41
747,941	0,41
748,378	0,41
748,814	0,41
749,25	0,41
749,686	0,41
750,122	0,42
750,558	0,42
750,994	0,42
751,43	0,42
751,866	0,42
752,302	0,42
752,738	0,42
753,174	0,43
753,61	0,43
754,046	0,43
754,482	0,43
754,918	0,43
755,354	0,43
755,789	0,43
756,225	0,42
756,661	0,42
757,096	0,42
757,532	0,42
757,968	0,42
758,403	0,42
758,839	0,41
759,274	0,41
759,71	0,4
760,145	0,4
760,581	0,39
761,016	0,39
761,452	0,38
761,887	0,38
762,322	0,37
762,758	0,37
763,193	0,36
763,628	0,36
764,063	0,35
764,499	0,35
764,934	0,34
765,369	0,33
765,804	0,32
766,239	0,32
766,674	0,31
767,109	0,3
767,544	0,3
767,979	0,29
768,414	0,28
768,849	0,27
769,284	0,26
769,719	0,25
770,154	0,24
770,588	0,23
771,023	0,22
771,458	0,21
771,893	0,2
772,327	0,19
772,762	0,18
773,197	0,18
773,631	0,17
774,066	0,16
774,5	0,15
774,935	0,14
775,369	0,13
775,804	0,12
776,238	0,11
776,673	0,1
777,107	0,09
777,541	0,07
777,976	0,06
778,41	0,05
778,844	0,04
779,279	0,03
779,713	0,02
780,147	0
780,581	-0
781,015	-0,01
781,449	-0,03
781,883	-0,03
782,317	-0,05
782,751	-0,06
783,185	-0,06
783,619	-0,07
784,053	-0,08
784,487	-0,08
784,921	-0,09
785,355	-0,09
785,789	-0,1
786,223	-0,11
786,656	-0,12
787,09	-0,13
787,524	-0,14
787,957	-0,15
788,391	-0,17
788,825	-0,19
789,258	-0,2
789,692	-0,22
790,125	-0,23
790,559	-0,25
790,992	-0,27
791,426	-0,3
791,859	-0,31
792,293	-0,34
792,726	-0,35
793,159	-0,37
793,593	-0,39
794,026	-0,41
794,459	-0,44
794,892	-0,47
795,326	-0,49
795,759	-0,53
796,192	-0,57
796,625	-0,61
797,058	-0,64
797,491	-0,68
797,924	-0,72
798,357	-0,77
798,79	-0,81
799,223	-0,85
799,656	-0,9
800,089	-0,95
800,522	-0,99
800,955	-1,03
801,387	-1,09
801,82	-1,14
802,253	-1,21
802,686	-1,29
803,118	-1,34
803,551	-1,39
803,984	-1,44
804,416	-1,47
804,849	-1,51
805,281	-1,61
805,714	-1,97
806,146	-2,44
806,579	-2,7
807,011	-2,87
807,444	-2,96
807,876	-3,04
808,308	-3,08
808,741	-3,1
809,173	-3,16
809,605	-3,18
810,037	-3,25
810,47	-3,17
810,902	-2,97
811,334	-2,82
811,766	-2,66
812,198	-2,4
812,63	-1,98
813,062	-1,78
813,494	-1,69
813,926	-1,6
814,358	-1,55
814,79	-1,47
815,222	-1,41
815,654	-1,36
816,086	-1,29
816,518	-1,24
816,949	-1,19
817,381	-1,15
817,813	-1,13
818,245	-1,09
818,676	-1,05
819,108	-1,02
819,54	-1,01
819,971	-0,98
820,403	-0,93
820,834	-0,92
821,266	-0,88
821,697	-0,86
822,129	-0,84
822,56	-0,82
822,991	-0,79
823,423	-0,76
823,854	-0,75
824,286	-0,73
824,717	-0,72
825,148	-0,7
825,579	-0,7
826,01	-0,68
826,442	-0,67
826,873	-0,65
827,304	-0,62
827,735	-0,61
828,166	-0,62
828,597	-0,62
829,028	-0,61
829,459	-0,62
829,89	-0,61
830,321	-0,57
830,752	-0,58
831,183	-0,57
831,613	-0,56
832,044	-0,56
832,475	-0,55
832,906	-0,55
833,336	-0,56
833,767	-0,56
834,198	-0,55
834,628	-0,52
835,059	-0,55
835,49	-0,56
835,92	-0,53
836,351	-0,53
836,781	-0,54
837,212	-0,56
837,642	-0,57
838,072	-0,55
838,503	-0,57
838,933	-0,54
839,364	-0,56
839,794	-0,53
840,224	-0,52
840,654	-0,56
841,085	-0,57
841,515	-0,54
841,945	-0,54
842,375	-0,49
842,805	-0,49
843,235	-0,47
843,665	-0,49
844,095	-0,48
844,525	-0,49
844,955	-0,5
845,385	-0,48
845,815	-0,47
846,245	-0,49
846,675	-0,5
847,105	-0,52
847,534	-0,52
847,964	-0,5
848,394	-0,49
848,824	-0,52
849,253	-0,51
849,683	-0,51
850,112	-0,52
850,542	-0,55
850,972	-0,56
851,401	-0,53
851,831	-0,51
852,26	-0,51
852,69	-0,55
853,119	-0,55
853,548	-0,55
853,978	-0,55
854,407	-0,53
854,836	-0,54
855,266	-0,52
855,695	-0,53
856,124	-0,55
856,553	-0,56
856,983	-0,57
857,412	-0,56
857,841	-0,57
858,27	-0,58
858,699	-0,59
859,128	-0,62
859,557	-0,63
859,986	-0,65
860,415	-0,63
860,844	-0,6
861,273	-0,61
861,702	-0,62
862,13	-0,6
862,559	-0,62
862,988	-0,59
863,417	-0,57
863,845	-0,57
864,274	-0,57
864,703	-0,57
865,131	-0,57
865,56	-0,58
865,989	-0,6
866,417	-0,57
866,846	-0,57
867,274	-0,57
867,703	-0,59
868,131	-0,61
868,559	-0,61
868,988	-0,64
869,416	-0,63
869,844	-0,64
870,273	-0,67
870,701	-0,64
871,129	-0,68
871,557	-0,71
871,986	-0,71
872,414	-0,73
872,842	-0,69
873,27	-0,67
873,698	-0,64
874,126	-0,68
874,554	-0,67
874,982	-0,66
875,41	-0,69
875,838	-0,64
876,266	-0,62
876,694	-0,62
877,122	-0,61
877,549	-0,66
877,977	-0,63
878,405	-0,66
878,833	-0,64
879,26	-0,61
879,688	-0,62
880,116	-0,6
880,543	-0,58
880,971	-0,56
881,399	-0,59
881,826	-0,59
882,254	-0,58
882,681	-0,61
883,109	-0,57
883,536	-0,58
883,963	-0,6
884,391	-0,58
884,818	-0,56
885,245	-0,6
885,673	-0,63
886,1	-0,6
886,527	-0,6
886,954	-0,56
887,381	-0,59
887,809	-0,6
888,236	-0,61
888,663	-0,62
889,09	-0,66
889,517	-0,68
889,944	-0,67
890,371	-0,65
890,798	-0,66
891,225	-0,66
891,652	-0,68
892,078	-0,64
892,505	-0,67
892,932	-0,62
893,359	-0,63
893,786	-0,63
894,212	-0,59
894,639	-0,61
895,066	-0,64
895,492	-0,6
895,919	-0,59
896,346	-0,59
896,772	-0,6
897,199	-0,56
897,625	-0,59
898,052	-0,55
898,478	-0,53
898,904	-0,55
899,331	-0,54
899,757	-0,55
900,183	-0,56
900,61	-0,54
901,036	-0,54
901,462	-0,54
901,888	-0,54
902,315	-0,53
902,741	-0,59
903,167	-0,57
903,593	-0,61
904,019	-0,59
904,445	-0,57
904,871	-0,6
905,297	-0,62
905,723	-0,62
906,149	-0,61
906,575	-0,61
907,001	-0,62
907,427	-0,58
907,852	-0,57
908,278	-0,58
908,704	-0,56
909,13	-0,55
909,555	-0,54
909,981	-0,54
910,407	-0,54
910,832	-0,54
911,258	-0,54
911,684	-0,54
912,109	-0,55
912,535	-0,57
912,96	-0,53
913,386	-0,57
913,811	-0,56
914,236	-0,58
914,662	-0,57
915,087	-0,6
915,512	-0,61
915,938	-0,62
916,363	-0,61
916,788	-0,61
917,213	-0,6
917,639	-0,64
918,064	-0,62
918,489	-0,62
918,914	-0,62
919,339	-0,63
919,764	-0,59
920,189	-0,59
920,614	-0,61
921,039	-0,62
921,464	-0,58
921,889	-0,6
922,314	-0,61
922,738	-0,64
923,163	-0,66
923,588	-0,66
924,013	-0,65
924,437	-0,65
924,862	-0,67
925,287	-0,62
925,711	-0,63
926,136	-0,64
926,561	-0,63
926,985	-0,61
927,41	-0,59
927,834	-0,57
928,259	-0,54
928,683	-0,52
929,108	-0,49
929,532	-0,49
929,956	-0,49
930,381	-0,48
930,805	-0,48
931,229	-0,48
931,653	-0,46
932,078	-0,45
932,502	-0,46
932,926	-0,47
933,35	-0,47
933,774	-0,48
934,198	-0,46
934,622	-0,45
935,046	-0,46
935,47	-0,47
935,894	-0,46
936,318	-0,46
936,742	-0,46
937,166	-0,46
937,59	-0,46
938,014	-0,48
938,437	-0,48
938,861	-0,51
939,285	-0,52
939,709	-0,51
940,132	-0,51
940,556	-0,52
940,98	-0,52
941,403	-0,5
941,827	-0,51
942,25	-0,52
942,674	-0,5
943,097	-0,49
943,521	-0,48
943,944	-0,49
944,368	-0,48
944,791	-0,47
945,214	-0,48
945,638	-0,49
946,061	-0,52
946,484	-0,52
946,907	-0,51
947,331	-0,51
947,754	-0,56
948,177	-0,53
948,6	-0,53
949,023	-0,53
949,446	-0,54
949,869	-0,52
950,292	-0,51
950,715	-0,49
951,138	-0,47
951,561	-0,45
951,984	-0,46
952,407	-0,44
952,83	-0,43
953,252	-0,38
953,675	-0,38
954,098	-0,39
954,521	-0,39
954,943	-0,38
955,366	-0,4
955,789	-0,38
956,211	-0,4
956,634	-0,4
957,056	-0,38
957,479	-0,39
957,902	-0,42
958,324	-0,42
958,746	-0,4
959,169	-0,41
959,591	-0,4
960,014	-0,41
960,436	-0,4
960,858	-0,39
961,281	-0,39
961,703	-0,4
962,125	-0,4
962,547	-0,39
962,969	-0,39
963,391	-0,4
963,814	-0,41
964,236	-0,4
964,658	-0,38
965,08	-0,38
965,502	-0,38
965,924	-0,35
966,346	-0,35
966,768	-0,34
967,189	-0,36
967,611	-0,35
968,033	-0,35
968,455	-0,32
968,877	-0,33
969,298	-0,35
969,72	-0,36
970,142	-0,35
970,563	-0,35
970,985	-0,34
971,407	-0,34
971,828	-0,32
972,25	-0,31
972,671	-0,29
973,093	-0,28
973,514	-0,27
973,936	-0,25
974,357	-0,24
974,778	-0,24
975,2	-0,24
975,621	-0,23
976,042	-0,21
976,464	-0,2
976,885	-0,19
977,306	-0,18
977,727	-0,17
978,148	-0,16
978,57	-0,15
978,991	-0,13
979,412	-0,12
979,833	-0,11
980,254	-0,1
980,675	-0,1
981,096	-0,1
981,517	-0,09
981,937	-0,08
982,358	-0,07
982,779	-0,06
983,2	-0,05
983,621	-0,04
984,042	-0,03
984,462	-0,01
984,883	0,01
985,304	0,02
985,724	0,03
986,145	0,05
986,565	0,07
986,986	0,07
987,407	0,09
987,827	0,09
988,248	0,11
988,668	0,12
989,088	0,13
989,509	0,14
989,929	0,15
990,35	0,17
990,77	0,18
991,19	0,19
991,61	0,2
992,031	0,22
992,451	0,23
992,871	0,24
993,291	0,25
993,711	0,26
994,131	0,27
994,551	0,28
994,971	0,28
995,391	0,29
995,811	0,3
996,231	0,3
996,651	0,31
997,071	0,32
997,491	0,32
997,911	0,33
998,331	0,34
998,75	0,35
999,17	0,35
999,59	0,36
1000,009	0,36
1000,429	0,36
1000,849	0,37
1001,268	0,38
1001,688	0,38
1002,107	0,38
1002,527	0,39
1002,946	0,39
1003,366	0,39
1003,785	0,4
1004,205	0,4
1004,624	0,4
1005,044	0,4
1005,463	0,41
1005,882	0,41
1006,301	0,41
1006,721	0,41
1007,14	0,41
1007,559	0,41
1007,978	0,42
1008,397	0,42
1008,816	0,42
1009,235	0,42
1009,655	0,42
1010,074	0,42
1010,492	0,42
1010,911	0,42
1011,33	0,42
1011,749	0,42
1012,168	0,41
1012,587	0,41
1013,006	0,41
1013,425	0,41
1013,843	0,41
1014,262	0,41
1014,681	0,41
1015,099	0,41
1015,518	0,41
1015,937	0,41
1016,355	0,41
1016,774	0,41
1017,192	0,41
1017,611	0,41
1018,029	0,41
1018,448	0,41
1018,866	0,4
1019,285	0,4
1019,703	0,4
1020,121	0,4
1020,54	0,4
1020,958	0,4
1021,376	0,4
1021,794	0,4
1022,213	0,4
1022,631	0,4
1023,049	0,4
1023,467	0,4
1023,885	0,4
1024,303	0,4
1024,721	0,4
1025,139	0,4
1025,557	0,39
1025,975	0,39
1026,393	0,39
1026,811	0,39
1027,229	0,39
1027,647	0,39
1028,065	0,39
1028,482	0,39
1028,9	0,39
1029,318	0,39
1029,735	0,39
1030,153	0,39
1030,571	0,39
1030,988	0,39
1031,406	0,39
1031,823	0,39
1032,241	0,39
1032,659	0,39
1033,076	0,39
1033,493	0,39
1033,911	0,39
1034,328	0,39
1034,746	0,39
1035,163	0,39
1035,58	0,39
1035,997	0,39
1036,415	0,39
1036,832	0,4
1037,249	0,4
1037,666	0,4
1038,083	0,39
1038,501	0,39
1038,918	0,39
1039,335	0,39
1039,752	0,4
1040,169	0,4
1040,586	0,39
1041,003	0,39
1041,419	0,39
1041,836	0,39
1042,253	0,39
1042,67	0,4
1043,087	0,39
1043,504	0,4
1043,92	0,39
1044,337	0,39
1044,754	0,39
1045,17	0,39
1045,587	0,39
1046,004	0,39
1046,42	0,39
1046,837	0,39
1047,253	0,39
1047,67	0,39
1048,086	0,39
1048,503	0,39
1048,919	0,39
1049,335	0,39
1049,752	0,39
1050,168	0,39
1050,584	0,39
1051,001	0,39
1051,417	0,39
1051,833	0,39
1052,249	0,4
1052,665	0,4
1053,081	0,4
1053,497	0,4
1053,914	0,4
1054,33	0,4
1054,746	0,4
1055,162	0,4
1055,578	0,4
1055,993	0,4
1056,409	0,4
1056,825	0,4
1057,241	0,4
1057,657	0,4
1058,073	0,4
1058,488	0,4
1058,904	0,4
1059,32	0,4
1059,736	0,4
1060,151	0,4
1060,567	0,4
1060,982	0,4
1061,398	0,4
1061,813	0,4
1062,229	0,4
1062,644	0,4
1063,06	0,4
1063,475	0,4
1063,891	0,4
1064,306	0,4
1064,721	0,4
1065,137	0,4
1065,552	0,39
1065,967	0,39
1066,382	0,39
1066,798	0,39
1067,213	0,39
1067,628	0,39
1068,043	0,39
1068,458	0,39
1068,873	0,4
1069,288	0,39
1069,703	0,39
1070,118	0,4
1070,533	0,4
1070,948	0,4
1071,363	0,39
1071,778	0,39
1072,193	0,39
1072,607	0,39
1073,022	0,39
1073,437	0,39
1073,852	0,39
1074,266	0,39
1074,681	0,39
1075,096	0,39
1075,51	0,39
1075,925	0,39
1076,339	0,39
1076,754	0,39
1077,168	0,39
1077,583	0,39
1077,997	0,39
1078,412	0,39
1078,826	0,39
1079,24	0,39
1079,655	0,39
1080,069	0,39
1080,483	0,39
1080,897	0,39
1081,312	0,39
1081,726	0,39
1082,14	0,39
1082,554	0,39
1082,968	0,39
1083,382	0,39
1083,796	0,38
1084,21	0,38
1084,624	0,38
1085,038	0,38
1085,452	0,38
1085,866	0,38
1086,28	0,38
1086,694	0,38
1087,108	0,37
1087,521	0,37
1087,935	0,37
1088,349	0,37
1088,763	0,37
1089,176	0,36
1089,59	0,36
1090,004	0,36
1090,417	0,35
1090,831	0,35
1091,244	0,35
1091,658	0,34
1092,071	0,34
1092,485	0,34
1092,898	0,34
1093,312	0,33
1093,725	0,33
1094,138	0,33
1094,552	0,32
1094,965	0,32
1095,378	0,32
1095,791	0,32
1096,205	0,32
1096,618	0,32
1097,031	0,31
1097,444	0,31
1097,857	0,31
1098,27	0,3
1098,683	0,3
1099,096	0,29
1099,509	0,29
1099,922	0,29
1100,335	0,28
1100,748	0,28
1101,161	0,27
1101,574	0,27
1101,986	0,27
1102,399	0,26
1102,812	0,26
1103,225	0,26
1103,637	0,25
1104,05	0,25
1104,463	0,25
1104,875	0,24
1105,288	0,24
1105,7	0,24
1106,113	0,23
1106,525	0,22
1106,938	0,22
1107,35	0,22
1107,763	0,21
1108,175	0,21
1108,588	0,21
1109	0,2
1109,412	0,19
1109,824	0,19
1110,237	0,18
1110,649	0,18
1111,061	0,17
