Data from 18C-808nm-8A-cont_Absorbance__288__01717.txt Node

Date: Mon Jul 17 17:28:35 CEST 2023
User: Laser008
Spectrometer: MAYP115816
Trigger mode: 0
Integration Time (sec): 2,500000E-1
Scans to average: 10
Electric dark correction enabled: true
Nonlinearity correction enabled: true
Boxcar width: 5
XAxis mode: Wavelengths
Number of Pixels in Spectrum: 2068
>>>>>Begin Spectral Data<<<<<
198,914	-0,76
199,384	-0,51
199,855	-0,37
200,325	-0,27
200,796	-0,24
201,266	-0,19
201,737	-0,19
202,207	-0,17
202,677	-0,16
203,147	-0,14
203,618	-0,11
204,088	-0,09
204,558	-0,08
205,028	-0,08
205,498	-0,08
205,968	-0,08
206,439	-0,09
206,909	-0,08
207,379	-0,08
207,849	-0,08
208,319	-0,09
208,789	-0,1
209,258	-0,09
209,728	-0,1
210,198	-0,1
210,668	-0,1
211,138	-0,11
211,608	-0,1
212,077	-0,1
212,547	-0,09
213,017	-0,1
213,486	-0,11
213,956	-0,1
214,426	-0,12
214,895	-0,11
215,365	-0,12
215,834	-0,12
216,304	-0,13
216,773	-0,14
217,243	-0,16
217,712	-0,17
218,181	-0,16
218,651	-0,16
219,12	-0,16
219,589	-0,16
220,058	-0,16
220,528	-0,17
220,997	-0,18
221,466	-0,18
221,935	-0,19
222,404	-0,18
222,873	-0,18
223,342	-0,18
223,812	-0,17
224,281	-0,17
224,749	-0,17
225,218	-0,19
225,687	-0,19
226,156	-0,17
226,625	-0,16
227,094	-0,15
227,563	-0,15
228,031	-0,16
228,5	-0,16
228,969	-0,16
229,438	-0,15
229,906	-0,14
230,375	-0,13
230,844	-0,13
231,312	-0,13
231,781	-0,13
232,249	-0,12
232,718	-0,13
233,186	-0,1
233,655	-0,11
234,123	-0,11
234,591	-0,12
235,06	-0,12
235,528	-0,13
235,996	-0,13
236,465	-0,13
236,933	-0,12
237,401	-0,13
237,869	-0,11
238,337	-0,12
238,805	-0,11
239,274	-0,1
239,742	-0,1
240,21	-0,1
240,678	-0,09
241,146	-0,09
241,614	-0,09
242,081	-0,09
242,549	-0,08
243,017	-0,09
243,485	-0,09
243,953	-0,09
244,421	-0,08
244,888	-0,09
245,356	-0,08
245,824	-0,09
246,291	-0,08
246,759	-0,1
247,227	-0,1
247,694	-0,09
248,162	-0,08
248,629	-0,07
249,097	-0,07
249,564	-0,08
250,032	-0,09
250,499	-0,1
250,967	-0,09
251,434	-0,1
251,901	-0,09
252,369	-0,09
252,836	-0,11
253,303	-0,13
253,77	-0,14
254,237	-0,14
254,705	-0,14
255,172	-0,13
255,639	-0,13
256,106	-0,14
256,573	-0,14
257,04	-0,16
257,507	-0,16
257,974	-0,17
258,441	-0,15
258,908	-0,15
259,375	-0,16
259,841	-0,17
260,308	-0,17
260,775	-0,17
261,242	-0,16
261,709	-0,17
262,175	-0,18
262,642	-0,17
263,109	-0,16
263,575	-0,18
264,042	-0,17
264,508	-0,16
264,975	-0,17
265,441	-0,19
265,908	-0,19
266,374	-0,18
266,841	-0,18
267,307	-0,17
267,773	-0,17
268,24	-0,17
268,706	-0,17
269,172	-0,18
269,639	-0,19
270,105	-0,18
270,571	-0,18
271,037	-0,18
271,503	-0,19
271,969	-0,19
272,435	-0,19
272,902	-0,21
273,368	-0,22
273,834	-0,23
274,3	-0,23
274,765	-0,22
275,231	-0,22
275,697	-0,21
276,163	-0,21
276,629	-0,21
277,095	-0,21
277,56	-0,21
278,026	-0,22
278,492	-0,19
278,958	-0,19
279,423	-0,19
279,889	-0,19
280,354	-0,19
280,82	-0,2
281,286	-0,21
281,751	-0,21
282,217	-0,2
282,682	-0,21
283,147	-0,2
283,613	-0,21
284,078	-0,21
284,544	-0,21
285,009	-0,22
285,474	-0,22
285,939	-0,24
286,405	-0,22
286,87	-0,22
287,335	-0,22
287,8	-0,2
288,265	-0,18
288,73	-0,2
289,195	-0,23
289,66	-0,22
290,125	-0,21
290,59	-0,21
291,055	-0,2
291,52	-0,2
291,985	-0,21
292,45	-0,22
292,915	-0,23
293,38	-0,23
293,844	-0,21
294,309	-0,19
294,774	-0,18
295,239	-0,19
295,703	-0,2
296,168	-0,18
296,632	-0,18
297,097	-0,17
297,562	-0,16
298,026	-0,16
298,491	-0,16
298,955	-0,15
299,419	-0,15
299,884	-0,15
300,348	-0,14
300,813	-0,12
301,277	-0,13
301,741	-0,13
302,205	-0,13
302,67	-0,11
303,134	-0,12
303,598	-0,11
304,062	-0,11
304,526	-0,11
304,99	-0,12
305,454	-0,13
305,919	-0,12
306,383	-0,12
306,847	-0,11
307,31	-0,12
307,774	-0,13
308,238	-0,13
308,702	-0,12
309,166	-0,15
309,63	-0,15
310,094	-0,12
310,557	-0,11
311,021	-0,1
311,485	-0,1
311,948	-0,1
312,412	-0,09
312,876	-0,08
313,339	-0,09
313,803	-0,09
314,266	-0,08
314,73	-0,08
315,193	-0,08
315,657	-0,07
316,12	-0,07
316,584	-0,06
317,047	-0,07
317,51	-0,05
317,973	-0,06
318,437	-0,04
318,9	-0,04
319,363	-0,03
319,826	-0,03
320,29	-0,03
320,753	-0,04
321,216	-0,04
321,679	-0,04
322,142	-0,03
322,605	-0,05
323,068	-0,04
323,531	-0,05
323,994	-0,03
324,457	-0,03
324,92	-0,02
325,382	-0,01
325,845	-0
326,308	0,01
326,771	0
327,233	0
327,696	0,02
328,159	0,03
328,622	0,04
329,084	0,03
329,547	0,04
330,009	0,04
330,472	0,05
330,934	0,06
331,397	0,06
331,859	0,06
332,322	0,06
332,784	0,06
333,246	0,06
333,709	0,07
334,171	0,07
334,633	0,08
335,096	0,07
335,558	0,07
336,02	0,07
336,482	0,07
336,944	0,09
337,406	0,09
337,868	0,1
338,331	0,1
338,793	0,11
339,255	0,12
339,717	0,12
340,178	0,14
340,64	0,15
341,102	0,16
341,564	0,17
342,026	0,18
342,488	0,19
342,949	0,2
343,411	0,23
343,873	0,26
344,335	0,28
344,796	0,32
345,258	0,36
345,719	0,4
346,181	0,45
346,643	0,49
347,104	0,53
347,566	0,56
348,027	0,59
348,488	0,61
348,95	0,63
349,411	0,65
349,873	0,68
350,334	0,7
350,795	0,71
351,256	0,73
351,718	0,73
352,179	0,74
352,64	0,75
353,101	0,75
353,562	0,75
354,023	0,76
354,484	0,76
354,945	0,76
355,406	0,77
355,867	0,77
356,328	0,77
356,789	0,77
357,25	0,78
357,711	0,78
358,172	0,78
358,633	0,78
359,093	0,78
359,554	0,78
360,015	0,79
360,476	0,79
360,936	0,79
361,397	0,79
361,858	0,79
362,318	0,79
362,779	0,79
363,239	0,79
363,7	0,79
364,16	0,79
364,621	0,79
365,081	0,79
365,541	0,79
366,002	0,79
366,462	0,79
366,922	0,79
367,383	0,79
367,843	0,79
368,303	0,79
368,763	0,79
369,223	0,79
369,684	0,79
370,144	0,8
370,604	0,8
371,064	0,8
371,524	0,79
371,984	0,79
372,444	0,79
372,904	0,79
373,363	0,79
373,823	0,79
374,283	0,79
374,743	0,79
375,203	0,79
375,663	0,79
376,122	0,79
376,582	0,79
377,042	0,79
377,501	0,79
377,961	0,79
378,42	0,79
378,88	0,79
379,34	0,79
379,799	0,79
380,259	0,79
380,718	0,79
381,177	0,79
381,637	0,79
382,096	0,79
382,555	0,79
383,015	0,79
383,474	0,78
383,933	0,78
384,393	0,78
384,852	0,78
385,311	0,78
385,77	0,78
386,229	0,78
386,688	0,78
387,147	0,78
387,606	0,78
388,065	0,78
388,524	0,78
388,983	0,78
389,442	0,78
389,901	0,78
390,36	0,78
390,819	0,78
391,277	0,78
391,736	0,78
392,195	0,78
392,654	0,78
393,112	0,78
393,571	0,78
394,03	0,78
394,488	0,78
394,947	0,78
395,405	0,78
395,864	0,78
396,322	0,78
396,781	0,78
397,239	0,78
397,698	0,78
398,156	0,78
398,614	0,78
399,073	0,78
399,531	0,78
399,989	0,78
400,447	0,78
400,905	0,78
401,364	0,77
401,822	0,77
402,28	0,77
402,738	0,77
403,196	0,77
403,654	0,77
404,112	0,77
404,57	0,77
405,028	0,77
405,486	0,77
405,944	0,77
406,402	0,77
406,859	0,77
407,317	0,77
407,775	0,77
408,233	0,77
408,691	0,77
409,148	0,77
409,606	0,77
410,064	0,77
410,521	0,77
410,979	0,77
411,436	0,77
411,894	0,77
412,351	0,77
412,809	0,77
413,266	0,77
413,724	0,77
414,181	0,77
414,638	0,77
415,096	0,77
415,553	0,77
416,01	0,77
416,467	0,77
416,925	0,77
417,382	0,77
417,839	0,77
418,296	0,77
418,753	0,77
419,21	0,77
419,667	0,77
420,124	0,77
420,581	0,77
421,038	0,77
421,495	0,77
421,952	0,77
422,409	0,77
422,866	0,77
423,322	0,77
423,779	0,77
424,236	0,77
424,693	0,77
425,149	0,77
425,606	0,77
426,063	0,77
426,519	0,77
426,976	0,77
427,433	0,77
427,889	0,76
428,346	0,76
428,802	0,76
429,258	0,76
429,715	0,76
430,171	0,76
430,628	0,76
431,084	0,76
431,54	0,76
431,997	0,76
432,453	0,76
432,909	0,76
433,365	0,76
433,821	0,76
434,277	0,76
434,734	0,76
435,19	0,76
435,646	0,76
436,102	0,76
436,558	0,76
437,014	0,76
437,47	0,76
437,925	0,76
438,381	0,76
438,837	0,76
439,293	0,76
439,749	0,76
440,205	0,76
440,66	0,76
441,116	0,76
441,572	0,76
442,027	0,76
442,483	0,76
442,939	0,76
443,394	0,76
443,85	0,76
444,305	0,77
444,761	0,77
445,216	0,77
445,672	0,77
446,127	0,77
446,582	0,77
447,038	0,77
447,493	0,77
447,948	0,77
448,403	0,77
448,859	0,77
449,314	0,77
449,769	0,77
450,224	0,77
450,679	0,77
451,134	0,77
451,589	0,77
452,044	0,77
452,499	0,77
452,954	0,77
453,409	0,77
453,864	0,77
454,319	0,77
454,774	0,77
455,229	0,77
455,684	0,77
456,138	0,77
456,593	0,77
457,048	0,77
457,503	0,77
457,957	0,77
458,412	0,77
458,866	0,77
459,321	0,77
459,776	0,77
460,23	0,77
460,685	0,78
461,139	0,78
461,593	0,78
462,048	0,78
462,502	0,78
462,957	0,78
463,411	0,78
463,865	0,78
464,319	0,78
464,774	0,78
465,228	0,78
465,682	0,78
466,136	0,78
466,59	0,79
467,044	0,79
467,499	0,79
467,953	0,79
468,407	0,79
468,861	0,79
469,315	0,79
469,768	0,79
470,222	0,79
470,676	0,79
471,13	0,79
471,584	0,79
472,038	0,79
472,491	0,8
472,945	0,8
473,399	0,8
473,852	0,8
474,306	0,8
474,76	0,8
475,213	0,8
475,667	0,8
476,12	0,8
476,574	0,81
477,027	0,81
477,481	0,81
477,934	0,81
478,388	0,81
478,841	0,81
479,294	0,81
479,748	0,82
480,201	0,82
480,654	0,82
481,107	0,82
481,561	0,82
482,014	0,82
482,467	0,83
482,92	0,83
483,373	0,83
483,826	0,83
484,279	0,83
484,732	0,83
485,185	0,84
485,638	0,84
486,091	0,84
486,544	0,84
486,997	0,84
487,449	0,85
487,902	0,85
488,355	0,85
488,808	0,85
489,26	0,86
489,713	0,86
490,166	0,86
490,618	0,86
491,071	0,87
491,523	0,87
491,976	0,87
492,429	0,87
492,881	0,88
493,333	0,88
493,786	0,88
494,238	0,89
494,691	0,89
495,143	0,89
495,595	0,9
496,048	0,9
496,5	0,9
496,952	0,91
497,404	0,91
497,856	0,91
498,309	0,92
498,761	0,92
499,213	0,92
499,665	0,93
500,117	0,93
500,569	0,93
501,021	0,94
501,473	0,94
501,925	0,95
502,377	0,95
502,828	0,95
503,28	0,96
503,732	0,96
504,184	0,97
504,636	0,97
505,087	0,97
505,539	0,98
505,991	0,98
506,442	0,98
506,894	0,99
507,345	0,99
507,797	1
508,249	1
508,7	1
509,151	1,01
509,603	1,01
510,054	1,01
510,506	1,02
510,957	1,02
511,408	1,02
511,86	1,03
512,311	1,03
512,762	1,03
513,213	1,04
513,665	1,04
514,116	1,04
514,567	1,05
515,018	1,05
515,469	1,05
515,92	1,05
516,371	1,06
516,822	1,06
517,273	1,06
517,724	1,07
518,175	1,07
518,626	1,07
519,076	1,07
519,527	1,08
519,978	1,08
520,429	1,08
520,88	1,08
521,33	1,09
521,781	1,09
522,232	1,09
522,682	1,09
523,133	1,09
523,583	1,1
524,034	1,1
524,484	1,1
524,935	1,1
525,385	1,1
525,836	1,1
526,286	1,1
526,736	1,1
527,187	1,1
527,637	1,1
528,087	1,1
528,538	1,09
528,988	1,09
529,438	1,09
529,888	1,09
530,338	1,09
530,788	1,09
531,238	1,09
531,688	1,09
532,139	1,09
532,589	1,09
533,038	1,08
533,488	1,08
533,938	1,08
534,388	1,08
534,838	1,08
535,288	1,07
535,738	1,07
536,187	1,07
536,637	1,06
537,087	1,06
537,537	1,06
537,986	1,05
538,436	1,05
538,885	1,04
539,335	1,04
539,785	1,03
540,234	1,03
540,684	1,03
541,133	1,02
541,582	1,02
542,032	1,01
542,481	1,01
542,931	1
543,38	1
543,829	0,99
544,278	0,99
544,728	0,98
545,177	0,98
545,626	0,98
546,075	0,97
546,524	0,97
546,973	0,97
547,422	0,96
547,871	0,96
548,32	0,96
548,769	0,95
549,218	0,95
549,667	0,95
550,116	0,94
550,565	0,94
551,014	0,93
551,463	0,93
551,911	0,93
552,36	0,92
552,809	0,92
553,258	0,91
553,706	0,91
554,155	0,91
554,603	0,9
555,052	0,9
555,501	0,89
555,949	0,89
556,398	0,89
556,846	0,88
557,294	0,88
557,743	0,87
558,191	0,87
558,64	0,86
559,088	0,86
559,536	0,85
559,985	0,85
560,433	0,84
560,881	0,84
561,329	0,84
561,777	0,83
562,225	0,83
562,674	0,82
563,122	0,82
563,57	0,82
564,018	0,81
564,466	0,81
564,914	0,81
565,362	0,8
565,809	0,8
566,257	0,79
566,705	0,79
567,153	0,79
567,601	0,78
568,048	0,78
568,496	0,78
568,944	0,77
569,392	0,77
569,839	0,77
570,287	0,76
570,734	0,76
571,182	0,76
571,63	0,75
572,077	0,75
572,525	0,75
572,972	0,74
573,419	0,74
573,867	0,73
574,314	0,73
574,761	0,73
575,209	0,72
575,656	0,72
576,103	0,72
576,551	0,72
576,998	0,71
577,445	0,71
577,892	0,71
578,339	0,7
578,786	0,7
579,233	0,7
579,68	0,69
580,127	0,69
580,574	0,69
581,021	0,69
581,468	0,68
581,915	0,68
582,362	0,68
582,809	0,68
583,255	0,68
583,702	0,67
584,149	0,67
584,596	0,67
585,042	0,67
585,489	0,66
585,936	0,66
586,382	0,66
586,829	0,66
587,275	0,66
587,722	0,65
588,168	0,65
588,615	0,65
589,061	0,65
589,508	0,65
589,954	0,64
590,4	0,64
590,847	0,64
591,293	0,64
591,739	0,64
592,185	0,63
592,632	0,63
593,078	0,63
593,524	0,63
593,97	0,63
594,416	0,63
594,862	0,63
595,308	0,63
595,754	0,62
596,2	0,62
596,646	0,62
597,092	0,62
597,538	0,62
597,984	0,62
598,43	0,62
598,876	0,61
599,321	0,61
599,767	0,61
600,213	0,61
600,659	0,61
601,104	0,61
601,55	0,61
601,995	0,61
602,441	0,6
602,887	0,6
603,332	0,6
603,778	0,6
604,223	0,6
604,668	0,6
605,114	0,6
605,559	0,6
606,005	0,6
606,45	0,6
606,895	0,59
607,341	0,59
607,786	0,59
608,231	0,59
608,676	0,58
609,121	0,58
609,566	0,57
610,012	0,57
610,457	0,56
610,902	0,56
611,347	0,56
611,792	0,56
612,237	0,55
612,682	0,55
613,127	0,55
613,571	0,55
614,016	0,56
614,461	0,56
614,906	0,56
615,351	0,56
615,795	0,57
616,24	0,57
616,685	0,57
617,129	0,57
617,574	0,57
618,019	0,57
618,463	0,57
618,908	0,57
619,352	0,57
619,797	0,56
620,241	0,56
620,686	0,56
621,13	0,56
621,574	0,56
622,019	0,56
622,463	0,56
622,907	0,56
623,352	0,56
623,796	0,55
624,24	0,55
624,684	0,55
625,128	0,55
625,572	0,55
626,016	0,55
626,461	0,55
626,905	0,55
627,349	0,55
627,793	0,55
628,236	0,55
628,68	0,55
629,124	0,55
629,568	0,55
630,012	0,55
630,456	0,55
630,9	0,55
631,343	0,55
631,787	0,55
632,231	0,55
632,674	0,55
633,118	0,55
633,562	0,55
634,005	0,55
634,449	0,55
634,892	0,55
635,336	0,55
635,779	0,55
636,223	0,55
636,666	0,55
637,109	0,55
637,553	0,55
637,996	0,55
638,439	0,55
638,883	0,55
639,326	0,55
639,769	0,55
640,212	0,54
640,655	0,54
641,099	0,54
641,542	0,54
641,985	0,54
642,428	0,54
642,871	0,54
643,314	0,54
643,757	0,54
644,2	0,54
644,643	0,54
645,085	0,54
645,528	0,54
645,971	0,54
646,414	0,53
646,857	0,53
647,299	0,53
647,742	0,53
648,185	0,53
648,627	0,53
649,07	0,53
649,513	0,53
649,955	0,53
650,398	0,53
650,84	0,53
651,283	0,53
651,725	0,53
652,168	0,53
652,61	0,54
653,052	0,54
653,495	0,53
653,937	0,45
654,379	0,39
654,821	0,4
655,264	0,4
655,706	0,4
656,148	0,4
656,59	0,4
657,032	0,4
657,474	0,4
657,916	0,4
658,358	0,39
658,8	0,45
659,242	0,53
659,684	0,53
660,126	0,53
660,568	0,53
661,01	0,53
661,452	0,53
661,894	0,53
662,335	0,53
662,777	0,53
663,219	0,53
663,661	0,53
664,102	0,53
664,544	0,53
664,985	0,52
665,427	0,53
665,869	0,52
666,31	0,52
666,752	0,52
667,193	0,52
667,634	0,52
668,076	0,52
668,517	0,52
668,959	0,52
669,4	0,53
669,841	0,53
670,282	0,53
670,724	0,53
671,165	0,53
671,606	0,53
672,047	0,53
672,488	0,53
672,929	0,52
673,37	0,52
673,811	0,52
674,252	0,52
674,693	0,52
675,134	0,52
675,575	0,52
676,016	0,51
676,457	0,51
676,898	0,51
677,339	0,51
677,78	0,51
678,22	0,51
678,661	0,51
679,102	0,51
679,542	0,51
679,983	0,51
680,424	0,51
680,864	0,51
681,305	0,51
681,745	0,51
682,186	0,52
682,626	0,52
683,067	0,52
683,507	0,52
683,948	0,52
684,388	0,52
684,828	0,52
685,269	0,52
685,709	0,51
686,149	0,51
686,589	0,51
687,029	0,51
687,47	0,51
687,91	0,51
688,35	0,51
688,79	0,51
689,23	0,51
689,67	0,51
690,11	0,51
690,55	0,51
690,99	0,51
691,43	0,51
691,87	0,51
692,31	0,5
692,749	0,5
693,189	0,5
693,629	0,5
694,069	0,5
694,508	0,5
694,948	0,5
695,388	0,5
695,827	0,5
696,267	0,5
696,706	0,5
697,146	0,5
697,586	0,5
698,025	0,5
698,464	0,5
698,904	0,5
699,343	0,5
699,783	0,5
700,222	0,51
700,661	0,51
701,101	0,51
701,54	0,51
701,979	0,51
702,418	0,51
702,857	0,51
703,297	0,51
703,736	0,51
704,175	0,51
704,614	0,51
705,053	0,5
705,492	0,5
705,931	0,5
706,37	0,5
706,809	0,5
707,248	0,5
707,687	0,5
708,125	0,5
708,564	0,5
709,003	0,5
709,442	0,5
709,88	0,5
710,319	0,5
710,758	0,5
711,196	0,5
711,635	0,49
712,074	0,49
712,512	0,49
712,951	0,49
713,389	0,49
713,828	0,49
714,266	0,49
714,705	0,49
715,143	0,49
715,581	0,49
716,02	0,49
716,458	0,49
716,896	0,49
717,334	0,49
717,773	0,49
718,211	0,49
718,649	0,49
719,087	0,49
719,525	0,49
719,963	0,49
720,401	0,49
720,839	0,49
721,277	0,49
721,715	0,49
722,153	0,49
722,591	0,49
723,029	0,49
723,467	0,49
723,905	0,49
724,342	0,49
724,78	0,49
725,218	0,49
725,656	0,49
726,093	0,49
726,531	0,49
726,969	0,49
727,406	0,49
727,844	0,49
728,281	0,49
728,719	0,49
729,156	0,49
729,594	0,49
730,031	0,49
730,469	0,49
730,906	0,49
731,343	0,49
731,781	0,49
732,218	0,49
732,655	0,49
733,092	0,48
733,53	0,48
733,967	0,48
734,404	0,48
734,841	0,48
735,278	0,48
735,715	0,48
736,152	0,48
736,589	0,48
737,026	0,47
737,463	0,47
737,9	0,47
738,337	0,47
738,774	0,47
739,211	0,47
739,647	0,47
740,084	0,47
740,521	0,48
740,958	0,48
741,394	0,48
741,831	0,48
742,268	0,48
742,704	0,48
743,141	0,47
743,577	0,47
744,014	0,47
744,45	0,47
744,887	0,47
745,323	0,47
745,76	0,47
746,196	0,47
746,632	0,47
747,069	0,47
747,505	0,47
747,941	0,47
748,378	0,47
748,814	0,46
749,25	0,47
749,686	0,47
750,122	0,47
750,558	0,47
750,994	0,47
751,43	0,47
751,866	0,47
752,302	0,47
752,738	0,47
753,174	0,48
753,61	0,48
754,046	0,48
754,482	0,48
754,918	0,47
755,354	0,47
755,789	0,47
756,225	0,47
756,661	0,47
757,096	0,47
757,532	0,47
757,968	0,46
758,403	0,46
758,839	0,46
759,274	0,45
759,71	0,45
760,145	0,44
760,581	0,43
761,016	0,43
761,452	0,43
761,887	0,42
762,322	0,42
762,758	0,41
763,193	0,41
763,628	0,4
764,063	0,39
764,499	0,38
764,934	0,38
765,369	0,37
765,804	0,37
766,239	0,36
766,674	0,35
767,109	0,34
767,544	0,33
767,979	0,32
768,414	0,31
768,849	0,31
769,284	0,3
769,719	0,28
770,154	0,28
770,588	0,27
771,023	0,25
771,458	0,24
771,893	0,22
772,327	0,21
772,762	0,2
773,197	0,19
773,631	0,18
774,066	0,17
774,5	0,17
774,935	0,15
775,369	0,14
775,804	0,14
776,238	0,13
776,673	0,12
777,107	0,11
777,541	0,1
777,976	0,09
778,41	0,08
778,844	0,07
779,279	0,07
779,713	0,05
780,147	0,04
780,581	0,03
781,015	0,01
781,449	-0
781,883	-0,01
782,317	-0,03
782,751	-0,03
783,185	-0,04
783,619	-0,05
784,053	-0,05
784,487	-0,06
784,921	-0,07
785,355	-0,07
785,789	-0,07
786,223	-0,09
786,656	-0,1
787,09	-0,11
787,524	-0,12
787,957	-0,13
788,391	-0,16
788,825	-0,17
789,258	-0,19
789,692	-0,2
790,125	-0,21
790,559	-0,23
790,992	-0,25
791,426	-0,27
791,859	-0,28
792,293	-0,31
792,726	-0,33
793,159	-0,35
793,593	-0,37
794,026	-0,39
794,459	-0,43
794,892	-0,45
795,326	-0,48
795,759	-0,52
796,192	-0,57
796,625	-0,61
797,058	-0,64
797,491	-0,69
797,924	-0,73
798,357	-0,78
798,79	-0,82
799,223	-0,86
799,656	-0,92
800,089	-0,96
800,522	-1,01
800,955	-1,05
801,387	-1,11
801,82	-1,16
802,253	-1,23
802,686	-1,3
803,118	-1,36
803,551	-1,41
803,984	-1,46
804,416	-1,5
804,849	-1,54
805,281	-1,68
805,714	-2,05
806,146	-2,48
806,579	-2,73
807,011	-2,88
807,444	-2,97
807,876	-3,06
808,308	-3,1
808,741	-3,13
809,173	-3,18
809,605	-3,2
810,037	-3,27
810,47	-3,19
810,902	-2,99
811,334	-2,84
811,766	-2,69
812,198	-2,45
812,63	-2,03
813,062	-1,81
813,494	-1,71
813,926	-1,62
814,358	-1,57
814,79	-1,48
815,222	-1,43
815,654	-1,38
816,086	-1,31
816,518	-1,26
816,949	-1,2
817,381	-1,16
817,813	-1,14
818,245	-1,1
818,676	-1,06
819,108	-1,03
819,54	-1,01
819,971	-0,99
820,403	-0,93
820,834	-0,92
821,266	-0,88
821,697	-0,85
822,129	-0,84
822,56	-0,81
822,991	-0,79
823,423	-0,76
823,854	-0,76
824,286	-0,73
824,717	-0,72
825,148	-0,7
825,579	-0,69
826,01	-0,68
826,442	-0,67
826,873	-0,65
827,304	-0,62
827,735	-0,61
828,166	-0,61
828,597	-0,6
829,028	-0,6
829,459	-0,6
829,89	-0,6
830,321	-0,55
830,752	-0,57
831,183	-0,56
831,613	-0,54
832,044	-0,54
832,475	-0,53
832,906	-0,55
833,336	-0,55
833,767	-0,55
834,198	-0,54
834,628	-0,52
835,059	-0,55
835,49	-0,55
835,92	-0,53
836,351	-0,53
836,781	-0,53
837,212	-0,54
837,642	-0,54
838,072	-0,52
838,503	-0,54
838,933	-0,51
839,364	-0,52
839,794	-0,5
840,224	-0,5
840,654	-0,54
841,085	-0,55
841,515	-0,52
841,945	-0,52
842,375	-0,49
842,805	-0,48
843,235	-0,47
843,665	-0,49
844,095	-0,48
844,525	-0,5
844,955	-0,51
845,385	-0,48
845,815	-0,47
846,245	-0,49
846,675	-0,49
847,105	-0,51
847,534	-0,51
847,964	-0,49
848,394	-0,48
848,824	-0,5
849,253	-0,49
849,683	-0,49
850,112	-0,5
850,542	-0,53
850,972	-0,53
851,401	-0,51
851,831	-0,48
852,26	-0,49
852,69	-0,53
853,119	-0,52
853,548	-0,53
853,978	-0,53
854,407	-0,52
854,836	-0,52
855,266	-0,51
855,695	-0,52
856,124	-0,53
856,553	-0,55
856,983	-0,56
857,412	-0,55
857,841	-0,57
858,27	-0,56
858,699	-0,57
859,128	-0,6
859,557	-0,61
859,986	-0,62
860,415	-0,59
860,844	-0,57
861,273	-0,58
861,702	-0,58
862,13	-0,55
862,559	-0,57
862,988	-0,54
863,417	-0,52
863,845	-0,51
864,274	-0,52
864,703	-0,52
865,131	-0,52
865,56	-0,53
865,989	-0,55
866,417	-0,53
866,846	-0,54
867,274	-0,53
867,703	-0,56
868,131	-0,57
868,559	-0,57
868,988	-0,6
869,416	-0,59
869,844	-0,6
870,273	-0,62
870,701	-0,6
871,129	-0,64
871,557	-0,67
871,986	-0,67
872,414	-0,69
872,842	-0,66
873,27	-0,65
873,698	-0,61
874,126	-0,65
874,554	-0,63
874,982	-0,63
875,41	-0,67
875,838	-0,62
876,266	-0,58
876,694	-0,59
877,122	-0,57
877,549	-0,62
877,977	-0,59
878,405	-0,61
878,833	-0,58
879,26	-0,56
879,688	-0,56
880,116	-0,53
880,543	-0,52
880,971	-0,52
881,399	-0,54
881,826	-0,56
882,254	-0,54
882,681	-0,57
883,109	-0,54
883,536	-0,56
883,963	-0,58
884,391	-0,56
884,818	-0,55
885,245	-0,58
885,673	-0,59
886,1	-0,56
886,527	-0,56
886,954	-0,52
887,381	-0,54
887,809	-0,55
888,236	-0,55
888,663	-0,56
889,09	-0,6
889,517	-0,62
889,944	-0,61
890,371	-0,61
890,798	-0,61
891,225	-0,61
891,652	-0,64
892,078	-0,61
892,505	-0,65
892,932	-0,61
893,359	-0,62
893,786	-0,62
894,212	-0,59
894,639	-0,61
895,066	-0,62
895,492	-0,57
895,919	-0,57
896,346	-0,57
896,772	-0,57
897,199	-0,53
897,625	-0,55
898,052	-0,52
898,478	-0,5
898,904	-0,51
899,331	-0,51
899,757	-0,53
900,183	-0,54
900,61	-0,53
901,036	-0,54
901,462	-0,54
901,888	-0,54
902,315	-0,53
902,741	-0,57
903,167	-0,55
903,593	-0,58
904,019	-0,58
904,445	-0,55
904,871	-0,58
905,297	-0,6
905,723	-0,59
906,149	-0,57
906,575	-0,58
907,001	-0,57
907,427	-0,55
907,852	-0,55
908,278	-0,56
908,704	-0,53
909,13	-0,52
909,555	-0,52
909,981	-0,5
910,407	-0,51
910,832	-0,51
911,258	-0,52
911,684	-0,52
912,109	-0,52
912,535	-0,54
912,96	-0,5
913,386	-0,54
913,811	-0,53
914,236	-0,54
914,662	-0,52
915,087	-0,55
915,512	-0,55
915,938	-0,56
916,363	-0,56
916,788	-0,57
917,213	-0,55
917,639	-0,6
918,064	-0,58
918,489	-0,58
918,914	-0,59
919,339	-0,61
919,764	-0,59
920,189	-0,58
920,614	-0,6
921,039	-0,61
921,464	-0,57
921,889	-0,59
922,314	-0,59
922,738	-0,62
923,163	-0,63
923,588	-0,62
924,013	-0,61
924,437	-0,6
924,862	-0,61
925,287	-0,58
925,711	-0,58
926,136	-0,6
926,561	-0,58
926,985	-0,57
927,41	-0,54
927,834	-0,52
928,259	-0,49
928,683	-0,48
929,108	-0,45
929,532	-0,47
929,956	-0,45
930,381	-0,45
930,805	-0,45
931,229	-0,45
931,653	-0,44
932,078	-0,43
932,502	-0,45
932,926	-0,46
933,35	-0,46
933,774	-0,45
934,198	-0,43
934,622	-0,42
935,046	-0,42
935,47	-0,42
935,894	-0,42
936,318	-0,41
936,742	-0,42
937,166	-0,42
937,59	-0,41
938,014	-0,43
938,437	-0,44
938,861	-0,47
939,285	-0,48
939,709	-0,47
940,132	-0,48
940,556	-0,48
940,98	-0,48
941,403	-0,46
941,827	-0,47
942,25	-0,48
942,674	-0,47
943,097	-0,47
943,521	-0,46
943,944	-0,47
944,368	-0,47
944,791	-0,45
945,214	-0,47
945,638	-0,48
946,061	-0,52
946,484	-0,52
946,907	-0,5
947,331	-0,5
947,754	-0,55
948,177	-0,52
948,6	-0,52
949,023	-0,52
949,446	-0,52
949,869	-0,5
950,292	-0,5
950,715	-0,47
951,138	-0,45
951,561	-0,43
951,984	-0,44
952,407	-0,42
952,83	-0,42
953,252	-0,37
953,675	-0,37
954,098	-0,38
954,521	-0,36
954,943	-0,35
955,366	-0,36
955,789	-0,35
956,211	-0,36
956,634	-0,37
957,056	-0,35
957,479	-0,35
957,902	-0,37
958,324	-0,37
958,746	-0,35
959,169	-0,37
959,591	-0,37
960,014	-0,38
960,436	-0,38
960,858	-0,38
961,281	-0,37
961,703	-0,38
962,125	-0,39
962,547	-0,37
962,969	-0,37
963,391	-0,37
963,814	-0,39
964,236	-0,37
964,658	-0,34
965,08	-0,34
965,502	-0,34
965,924	-0,31
966,346	-0,31
966,768	-0,29
967,189	-0,32
967,611	-0,31
968,033	-0,31
968,455	-0,29
968,877	-0,3
969,298	-0,31
969,72	-0,32
970,142	-0,31
970,563	-0,32
970,985	-0,3
971,407	-0,3
971,828	-0,27
972,25	-0,27
972,671	-0,25
973,093	-0,26
973,514	-0,24
973,936	-0,23
974,357	-0,21
974,778	-0,22
975,2	-0,21
975,621	-0,21
976,042	-0,19
976,464	-0,18
976,885	-0,17
977,306	-0,16
977,727	-0,15
978,148	-0,14
978,57	-0,13
978,991	-0,11
979,412	-0,1
979,833	-0,09
980,254	-0,07
980,675	-0,07
981,096	-0,06
981,517	-0,04
981,937	-0,04
982,358	-0,03
982,779	-0,01
983,2	-0,01
983,621	-0,01
984,042	0,01
984,462	0,03
984,883	0,04
985,304	0,05
985,724	0,06
986,145	0,07
986,565	0,08
986,986	0,09
987,407	0,11
987,827	0,13
988,248	0,14
988,668	0,15
989,088	0,16
989,509	0,18
989,929	0,19
990,35	0,2
990,77	0,21
991,19	0,22
991,61	0,24
992,031	0,25
992,451	0,26
992,871	0,28
993,291	0,29
993,711	0,29
994,131	0,3
994,551	0,31
994,971	0,32
995,391	0,33
995,811	0,34
996,231	0,34
996,651	0,35
997,071	0,35
997,491	0,36
997,911	0,37
998,331	0,38
998,75	0,38
999,17	0,39
999,59	0,4
1000,009	0,4
1000,429	0,4
1000,849	0,41
1001,268	0,42
1001,688	0,42
1002,107	0,42
1002,527	0,43
1002,946	0,43
1003,366	0,44
1003,785	0,44
1004,205	0,45
1004,624	0,45
1005,044	0,45
1005,463	0,46
1005,882	0,46
1006,301	0,46
1006,721	0,46
1007,14	0,46
1007,559	0,46
1007,978	0,46
1008,397	0,47
1008,816	0,47
1009,235	0,47
1009,655	0,47
1010,074	0,47
1010,492	0,47
1010,911	0,46
1011,33	0,46
1011,749	0,46
1012,168	0,46
1012,587	0,46
1013,006	0,46
1013,425	0,46
1013,843	0,46
1014,262	0,46
1014,681	0,46
1015,099	0,46
1015,518	0,45
1015,937	0,45
1016,355	0,45
1016,774	0,45
1017,192	0,45
1017,611	0,45
1018,029	0,45
1018,448	0,45
1018,866	0,45
1019,285	0,45
1019,703	0,45
1020,121	0,45
1020,54	0,45
1020,958	0,45
1021,376	0,45
1021,794	0,45
1022,213	0,45
1022,631	0,45
1023,049	0,44
1023,467	0,44
1023,885	0,44
1024,303	0,44
1024,721	0,44
1025,139	0,44
1025,557	0,44
1025,975	0,44
1026,393	0,44
1026,811	0,44
1027,229	0,44
1027,647	0,44
1028,065	0,44
1028,482	0,43
1028,9	0,43
1029,318	0,43
1029,735	0,43
1030,153	0,43
1030,571	0,43
1030,988	0,43
1031,406	0,43
1031,823	0,43
1032,241	0,43
1032,659	0,43
1033,076	0,43
1033,493	0,44
1033,911	0,44
1034,328	0,44
1034,746	0,44
1035,163	0,44
1035,58	0,44
1035,997	0,44
1036,415	0,44
1036,832	0,44
1037,249	0,44
1037,666	0,44
1038,083	0,44
1038,501	0,44
1038,918	0,44
1039,335	0,44
1039,752	0,44
1040,169	0,44
1040,586	0,44
1041,003	0,44
1041,419	0,44
1041,836	0,44
1042,253	0,44
1042,67	0,44
1043,087	0,44
1043,504	0,44
1043,92	0,44
1044,337	0,44
1044,754	0,44
1045,17	0,44
1045,587	0,44
1046,004	0,44
1046,42	0,44
1046,837	0,44
1047,253	0,44
1047,67	0,44
1048,086	0,44
1048,503	0,44
1048,919	0,44
1049,335	0,44
1049,752	0,44
1050,168	0,44
1050,584	0,44
1051,001	0,44
1051,417	0,44
1051,833	0,44
1052,249	0,44
1052,665	0,44
1053,081	0,44
1053,497	0,44
1053,914	0,44
1054,33	0,45
1054,746	0,45
1055,162	0,45
1055,578	0,45
1055,993	0,45
1056,409	0,45
1056,825	0,45
1057,241	0,45
1057,657	0,45
1058,073	0,45
1058,488	0,45
1058,904	0,45
1059,32	0,45
1059,736	0,45
1060,151	0,45
1060,567	0,45
1060,982	0,45
1061,398	0,45
1061,813	0,45
1062,229	0,45
1062,644	0,45
1063,06	0,44
1063,475	0,44
1063,891	0,44
1064,306	0,44
1064,721	0,44
1065,137	0,44
1065,552	0,44
1065,967	0,44
1066,382	0,44
1066,798	0,44
1067,213	0,44
1067,628	0,44
1068,043	0,44
1068,458	0,44
1068,873	0,44
1069,288	0,44
1069,703	0,44
1070,118	0,44
1070,533	0,44
1070,948	0,44
1071,363	0,44
1071,778	0,44
1072,193	0,44
1072,607	0,44
1073,022	0,44
1073,437	0,44
1073,852	0,44
1074,266	0,44
1074,681	0,44
1075,096	0,44
1075,51	0,44
1075,925	0,44
1076,339	0,43
1076,754	0,43
1077,168	0,43
1077,583	0,43
1077,997	0,44
1078,412	0,43
1078,826	0,43
1079,24	0,43
1079,655	0,43
1080,069	0,43
1080,483	0,43
1080,897	0,43
1081,312	0,43
1081,726	0,43
1082,14	0,43
1082,554	0,43
1082,968	0,43
1083,382	0,43
1083,796	0,43
1084,21	0,43
1084,624	0,43
1085,038	0,42
1085,452	0,42
1085,866	0,42
1086,28	0,42
1086,694	0,42
1087,108	0,42
1087,521	0,42
1087,935	0,42
1088,349	0,41
1088,763	0,41
1089,176	0,41
1089,59	0,41
1090,004	0,4
1090,417	0,4
1090,831	0,39
1091,244	0,39
1091,658	0,39
1092,071	0,39
1092,485	0,38
1092,898	0,38
1093,312	0,38
1093,725	0,38
1094,138	0,37
1094,552	0,37
1094,965	0,37
1095,378	0,37
1095,791	0,36
1096,205	0,36
1096,618	0,36
1097,031	0,35
1097,444	0,35
1097,857	0,35
1098,27	0,34
1098,683	0,34
1099,096	0,33
1099,509	0,33
1099,922	0,33
1100,335	0,32
1100,748	0,31
1101,161	0,31
1101,574	0,31
1101,986	0,31
1102,399	0,3
1102,812	0,3
1103,225	0,3
1103,637	0,29
1104,05	0,29
1104,463	0,29
1104,875	0,29
1105,288	0,28
1105,7	0,28
1106,113	0,28
1106,525	0,27
1106,938	0,27
1107,35	0,26
1107,763	0,26
1108,175	0,26
1108,588	0,25
1109	0,25
1109,412	0,24
1109,824	0,24
1110,237	0,24
1110,649	0,24
1111,061	0,24
