Data from 18C-808nm-8A-cont_Absorbance__19__01448.txt Node

Date: Mon Jul 17 17:17:23 CEST 2023
User: Laser008
Spectrometer: MAYP115816
Trigger mode: 0
Integration Time (sec): 2,500000E-1
Scans to average: 10
Electric dark correction enabled: true
Nonlinearity correction enabled: true
Boxcar width: 5
XAxis mode: Wavelengths
Number of Pixels in Spectrum: 2068
>>>>>Begin Spectral Data<<<<<
198,914	-0,72
199,384	-0,47
199,855	-0,36
200,325	-0,27
200,796	-0,26
201,266	-0,21
201,737	-0,2
202,207	-0,19
202,677	-0,17
203,147	-0,15
203,618	-0,12
204,088	-0,1
204,558	-0,09
205,028	-0,08
205,498	-0,09
205,968	-0,07
206,439	-0,09
206,909	-0,08
207,379	-0,08
207,849	-0,08
208,319	-0,09
208,789	-0,1
209,258	-0,1
209,728	-0,12
210,198	-0,13
210,668	-0,12
211,138	-0,12
211,608	-0,12
212,077	-0,13
212,547	-0,13
213,017	-0,14
213,486	-0,14
213,956	-0,14
214,426	-0,15
214,895	-0,14
215,365	-0,15
215,834	-0,16
216,304	-0,17
216,773	-0,17
217,243	-0,19
217,712	-0,2
218,181	-0,19
218,651	-0,19
219,12	-0,18
219,589	-0,17
220,058	-0,16
220,528	-0,17
220,997	-0,18
221,466	-0,19
221,935	-0,19
222,404	-0,19
222,873	-0,17
223,342	-0,17
223,812	-0,17
224,281	-0,18
224,749	-0,18
225,218	-0,2
225,687	-0,2
226,156	-0,18
226,625	-0,17
227,094	-0,17
227,563	-0,17
228,031	-0,19
228,5	-0,19
228,969	-0,19
229,438	-0,18
229,906	-0,17
230,375	-0,17
230,844	-0,16
231,312	-0,16
231,781	-0,17
232,249	-0,16
232,718	-0,15
233,186	-0,14
233,655	-0,14
234,123	-0,14
234,591	-0,14
235,06	-0,14
235,528	-0,14
235,996	-0,15
236,465	-0,15
236,933	-0,14
237,401	-0,14
237,869	-0,13
238,337	-0,13
238,805	-0,12
239,274	-0,12
239,742	-0,12
240,21	-0,12
240,678	-0,11
241,146	-0,1
241,614	-0,1
242,081	-0,09
242,549	-0,1
243,017	-0,11
243,485	-0,11
243,953	-0,11
244,421	-0,11
244,888	-0,1
245,356	-0,1
245,824	-0,11
246,291	-0,11
246,759	-0,12
247,227	-0,12
247,694	-0,11
248,162	-0,11
248,629	-0,1
249,097	-0,1
249,564	-0,11
250,032	-0,12
250,499	-0,12
250,967	-0,13
251,434	-0,13
251,901	-0,13
252,369	-0,13
252,836	-0,13
253,303	-0,15
253,77	-0,16
254,237	-0,16
254,705	-0,16
255,172	-0,15
255,639	-0,16
256,106	-0,17
256,573	-0,17
257,04	-0,17
257,507	-0,18
257,974	-0,19
258,441	-0,17
258,908	-0,16
259,375	-0,18
259,841	-0,18
260,308	-0,18
260,775	-0,18
261,242	-0,17
261,709	-0,18
262,175	-0,19
262,642	-0,18
263,109	-0,17
263,575	-0,19
264,042	-0,18
264,508	-0,18
264,975	-0,19
265,441	-0,2
265,908	-0,2
266,374	-0,19
266,841	-0,19
267,307	-0,19
267,773	-0,19
268,24	-0,19
268,706	-0,19
269,172	-0,2
269,639	-0,21
270,105	-0,19
270,571	-0,19
271,037	-0,2
271,503	-0,21
271,969	-0,2
272,435	-0,2
272,902	-0,21
273,368	-0,23
273,834	-0,22
274,3	-0,22
274,765	-0,22
275,231	-0,23
275,697	-0,21
276,163	-0,21
276,629	-0,21
277,095	-0,21
277,56	-0,2
278,026	-0,21
278,492	-0,19
278,958	-0,19
279,423	-0,19
279,889	-0,19
280,354	-0,19
280,82	-0,19
281,286	-0,21
281,751	-0,21
282,217	-0,21
282,682	-0,21
283,147	-0,22
283,613	-0,22
284,078	-0,22
284,544	-0,22
285,009	-0,23
285,474	-0,22
285,939	-0,23
286,405	-0,22
286,87	-0,22
287,335	-0,21
287,8	-0,2
288,265	-0,18
288,73	-0,2
289,195	-0,22
289,66	-0,22
290,125	-0,21
290,59	-0,21
291,055	-0,2
291,52	-0,21
291,985	-0,22
292,45	-0,23
292,915	-0,23
293,38	-0,24
293,844	-0,22
294,309	-0,21
294,774	-0,2
295,239	-0,2
295,703	-0,21
296,168	-0,2
296,632	-0,2
297,097	-0,18
297,562	-0,16
298,026	-0,16
298,491	-0,17
298,955	-0,17
299,419	-0,16
299,884	-0,16
300,348	-0,15
300,813	-0,15
301,277	-0,16
301,741	-0,15
302,205	-0,16
302,67	-0,16
303,134	-0,15
303,598	-0,15
304,062	-0,14
304,526	-0,14
304,99	-0,15
305,454	-0,15
305,919	-0,14
306,383	-0,15
306,847	-0,15
307,31	-0,16
307,774	-0,16
308,238	-0,16
308,702	-0,15
309,166	-0,15
309,63	-0,16
310,094	-0,13
310,557	-0,13
311,021	-0,13
311,485	-0,13
311,948	-0,12
312,412	-0,11
312,876	-0,1
313,339	-0,11
313,803	-0,12
314,266	-0,12
314,73	-0,12
315,193	-0,12
315,657	-0,11
316,12	-0,11
316,584	-0,1
317,047	-0,1
317,51	-0,09
317,973	-0,08
318,437	-0,08
318,9	-0,06
319,363	-0,06
319,826	-0,05
320,29	-0,06
320,753	-0,06
321,216	-0,06
321,679	-0,06
322,142	-0,05
322,605	-0,07
323,068	-0,07
323,531	-0,07
323,994	-0,07
324,457	-0,06
324,92	-0,05
325,382	-0,04
325,845	-0,04
326,308	-0,03
326,771	-0,03
327,233	-0,02
327,696	-0,01
328,159	-0,01
328,622	-0
329,084	-0
329,547	0
330,009	0
330,472	0,01
330,934	0,01
331,397	0,01
331,859	0,02
332,322	0,02
332,784	0,02
333,246	0,03
333,709	0,03
334,171	0,04
334,633	0,03
335,096	0,03
335,558	0,03
336,02	0,03
336,482	0,04
336,944	0,04
337,406	0,05
337,868	0,05
338,331	0,05
338,793	0,06
339,255	0,07
339,717	0,08
340,178	0,08
340,64	0,09
341,102	0,1
341,564	0,11
342,026	0,12
342,488	0,12
342,949	0,13
343,411	0,15
343,873	0,18
344,335	0,21
344,796	0,24
345,258	0,27
345,719	0,31
346,181	0,35
346,643	0,38
347,104	0,41
347,566	0,43
348,027	0,45
348,488	0,47
348,95	0,48
349,411	0,5
349,873	0,51
350,334	0,53
350,795	0,54
351,256	0,55
351,718	0,55
352,179	0,55
352,64	0,56
353,101	0,56
353,562	0,56
354,023	0,56
354,484	0,56
354,945	0,57
355,406	0,57
355,867	0,57
356,328	0,57
356,789	0,58
357,25	0,58
357,711	0,58
358,172	0,58
358,633	0,58
359,093	0,58
359,554	0,58
360,015	0,58
360,476	0,58
360,936	0,58
361,397	0,58
361,858	0,58
362,318	0,58
362,779	0,58
363,239	0,58
363,7	0,58
364,16	0,58
364,621	0,58
365,081	0,58
365,541	0,58
366,002	0,58
366,462	0,58
366,922	0,58
367,383	0,58
367,843	0,58
368,303	0,58
368,763	0,58
369,223	0,58
369,684	0,58
370,144	0,58
370,604	0,58
371,064	0,58
371,524	0,58
371,984	0,58
372,444	0,58
372,904	0,58
373,363	0,58
373,823	0,58
374,283	0,58
374,743	0,58
375,203	0,58
375,663	0,58
376,122	0,58
376,582	0,58
377,042	0,58
377,501	0,58
377,961	0,58
378,42	0,58
378,88	0,58
379,34	0,58
379,799	0,58
380,259	0,58
380,718	0,58
381,177	0,58
381,637	0,57
382,096	0,57
382,555	0,57
383,015	0,57
383,474	0,57
383,933	0,57
384,393	0,57
384,852	0,57
385,311	0,57
385,77	0,57
386,229	0,57
386,688	0,57
387,147	0,57
387,606	0,57
388,065	0,57
388,524	0,57
388,983	0,57
389,442	0,57
389,901	0,57
390,36	0,57
390,819	0,57
391,277	0,57
391,736	0,57
392,195	0,57
392,654	0,57
393,112	0,57
393,571	0,57
394,03	0,57
394,488	0,57
394,947	0,57
395,405	0,57
395,864	0,57
396,322	0,57
396,781	0,57
397,239	0,56
397,698	0,56
398,156	0,56
398,614	0,56
399,073	0,56
399,531	0,56
399,989	0,56
400,447	0,56
400,905	0,56
401,364	0,56
401,822	0,56
402,28	0,56
402,738	0,56
403,196	0,56
403,654	0,56
404,112	0,56
404,57	0,56
405,028	0,56
405,486	0,56
405,944	0,56
406,402	0,56
406,859	0,56
407,317	0,56
407,775	0,56
408,233	0,56
408,691	0,56
409,148	0,56
409,606	0,56
410,064	0,56
410,521	0,56
410,979	0,56
411,436	0,56
411,894	0,56
412,351	0,56
412,809	0,56
413,266	0,56
413,724	0,56
414,181	0,56
414,638	0,56
415,096	0,55
415,553	0,55
416,01	0,55
416,467	0,55
416,925	0,55
417,382	0,55
417,839	0,55
418,296	0,55
418,753	0,55
419,21	0,55
419,667	0,55
420,124	0,55
420,581	0,55
421,038	0,55
421,495	0,55
421,952	0,55
422,409	0,55
422,866	0,55
423,322	0,55
423,779	0,55
424,236	0,55
424,693	0,55
425,149	0,55
425,606	0,55
426,063	0,55
426,519	0,55
426,976	0,55
427,433	0,55
427,889	0,55
428,346	0,55
428,802	0,55
429,258	0,55
429,715	0,55
430,171	0,55
430,628	0,55
431,084	0,55
431,54	0,55
431,997	0,55
432,453	0,55
432,909	0,55
433,365	0,55
433,821	0,55
434,277	0,55
434,734	0,55
435,19	0,55
435,646	0,55
436,102	0,55
436,558	0,55
437,014	0,55
437,47	0,55
437,925	0,55
438,381	0,55
438,837	0,55
439,293	0,55
439,749	0,55
440,205	0,55
440,66	0,55
441,116	0,55
441,572	0,55
442,027	0,55
442,483	0,55
442,939	0,55
443,394	0,55
443,85	0,55
444,305	0,55
444,761	0,55
445,216	0,55
445,672	0,55
446,127	0,55
446,582	0,55
447,038	0,55
447,493	0,55
447,948	0,55
448,403	0,55
448,859	0,55
449,314	0,55
449,769	0,55
450,224	0,55
450,679	0,55
451,134	0,55
451,589	0,55
452,044	0,55
452,499	0,55
452,954	0,55
453,409	0,55
453,864	0,55
454,319	0,55
454,774	0,55
455,229	0,55
455,684	0,55
456,138	0,55
456,593	0,55
457,048	0,55
457,503	0,55
457,957	0,55
458,412	0,55
458,866	0,55
459,321	0,55
459,776	0,56
460,23	0,56
460,685	0,56
461,139	0,56
461,593	0,56
462,048	0,56
462,502	0,56
462,957	0,56
463,411	0,56
463,865	0,56
464,319	0,56
464,774	0,56
465,228	0,56
465,682	0,56
466,136	0,56
466,59	0,56
467,044	0,56
467,499	0,56
467,953	0,57
468,407	0,57
468,861	0,57
469,315	0,57
469,768	0,57
470,222	0,57
470,676	0,57
471,13	0,57
471,584	0,57
472,038	0,57
472,491	0,57
472,945	0,57
473,399	0,57
473,852	0,57
474,306	0,57
474,76	0,57
475,213	0,58
475,667	0,58
476,12	0,58
476,574	0,58
477,027	0,58
477,481	0,58
477,934	0,58
478,388	0,58
478,841	0,58
479,294	0,58
479,748	0,59
480,201	0,59
480,654	0,59
481,107	0,59
481,561	0,59
482,014	0,59
482,467	0,59
482,92	0,6
483,373	0,6
483,826	0,6
484,279	0,6
484,732	0,6
485,185	0,6
485,638	0,6
486,091	0,6
486,544	0,61
486,997	0,61
487,449	0,61
487,902	0,61
488,355	0,61
488,808	0,62
489,26	0,62
489,713	0,62
490,166	0,62
490,618	0,62
491,071	0,63
491,523	0,63
491,976	0,63
492,429	0,63
492,881	0,63
493,333	0,64
493,786	0,64
494,238	0,64
494,691	0,64
495,143	0,65
495,595	0,65
496,048	0,65
496,5	0,65
496,952	0,66
497,404	0,66
497,856	0,66
498,309	0,66
498,761	0,67
499,213	0,67
499,665	0,67
500,117	0,68
500,569	0,68
501,021	0,68
501,473	0,69
501,925	0,69
502,377	0,69
502,828	0,7
503,28	0,7
503,732	0,7
504,184	0,7
504,636	0,71
505,087	0,71
505,539	0,71
505,991	0,71
506,442	0,72
506,894	0,72
507,345	0,72
507,797	0,73
508,249	0,73
508,7	0,73
509,151	0,74
509,603	0,74
510,054	0,74
510,506	0,75
510,957	0,75
511,408	0,75
511,86	0,76
512,311	0,76
512,762	0,76
513,213	0,76
513,665	0,77
514,116	0,77
514,567	0,77
515,018	0,77
515,469	0,78
515,92	0,78
516,371	0,78
516,822	0,78
517,273	0,79
517,724	0,79
518,175	0,79
518,626	0,79
519,076	0,8
519,527	0,8
519,978	0,8
520,429	0,8
520,88	0,8
521,33	0,8
521,781	0,81
522,232	0,81
522,682	0,81
523,133	0,81
523,583	0,81
524,034	0,81
524,484	0,81
524,935	0,81
525,385	0,82
525,836	0,82
526,286	0,82
526,736	0,82
527,187	0,82
527,637	0,82
528,087	0,82
528,538	0,81
528,988	0,81
529,438	0,81
529,888	0,81
530,338	0,81
530,788	0,81
531,238	0,81
531,688	0,81
532,139	0,81
532,589	0,81
533,038	0,81
533,488	0,81
533,938	0,8
534,388	0,8
534,838	0,8
535,288	0,8
535,738	0,8
536,187	0,79
536,637	0,79
537,087	0,79
537,537	0,79
537,986	0,78
538,436	0,78
538,885	0,78
539,335	0,77
539,785	0,77
540,234	0,77
540,684	0,76
541,133	0,76
541,582	0,76
542,032	0,75
542,481	0,75
542,931	0,75
543,38	0,74
543,829	0,74
544,278	0,74
544,728	0,73
545,177	0,73
545,626	0,73
546,075	0,72
546,524	0,72
546,973	0,72
547,422	0,71
547,871	0,71
548,32	0,71
548,769	0,71
549,218	0,7
549,667	0,7
550,116	0,7
550,565	0,7
551,014	0,69
551,463	0,69
551,911	0,69
552,36	0,69
552,809	0,68
553,258	0,68
553,706	0,68
554,155	0,67
554,603	0,67
555,052	0,67
555,501	0,66
555,949	0,66
556,398	0,66
556,846	0,65
557,294	0,65
557,743	0,65
558,191	0,64
558,64	0,64
559,088	0,64
559,536	0,63
559,985	0,63
560,433	0,63
560,881	0,62
561,329	0,62
561,777	0,62
562,225	0,61
562,674	0,61
563,122	0,61
563,57	0,61
564,018	0,6
564,466	0,6
564,914	0,6
565,362	0,59
565,809	0,59
566,257	0,59
566,705	0,59
567,153	0,58
567,601	0,58
568,048	0,58
568,496	0,57
568,944	0,57
569,392	0,57
569,839	0,57
570,287	0,56
570,734	0,56
571,182	0,56
571,63	0,56
572,077	0,55
572,525	0,55
572,972	0,55
573,419	0,54
573,867	0,54
574,314	0,54
574,761	0,54
575,209	0,53
575,656	0,53
576,103	0,53
576,551	0,53
576,998	0,53
577,445	0,53
577,892	0,52
578,339	0,52
578,786	0,52
579,233	0,52
579,68	0,51
580,127	0,51
580,574	0,51
581,021	0,51
581,468	0,51
581,915	0,5
582,362	0,5
582,809	0,5
583,255	0,5
583,702	0,5
584,149	0,5
584,596	0,49
585,042	0,49
585,489	0,49
585,936	0,49
586,382	0,49
586,829	0,49
587,275	0,49
587,722	0,48
588,168	0,48
588,615	0,48
589,061	0,48
589,508	0,48
589,954	0,48
590,4	0,47
590,847	0,47
591,293	0,47
591,739	0,47
592,185	0,47
592,632	0,47
593,078	0,47
593,524	0,47
593,97	0,47
594,416	0,47
594,862	0,46
595,308	0,46
595,754	0,46
596,2	0,46
596,646	0,46
597,092	0,46
597,538	0,46
597,984	0,46
598,43	0,45
598,876	0,45
599,321	0,45
599,767	0,45
600,213	0,45
600,659	0,45
601,104	0,45
601,55	0,45
601,995	0,45
602,441	0,45
602,887	0,44
603,332	0,44
603,778	0,44
604,223	0,44
604,668	0,44
605,114	0,44
605,559	0,44
606,005	0,44
606,45	0,44
606,895	0,44
607,341	0,44
607,786	0,44
608,231	0,44
608,676	0,43
609,121	0,43
609,566	0,42
610,012	0,42
610,457	0,42
610,902	0,41
611,347	0,41
611,792	0,41
612,237	0,41
612,682	0,41
613,127	0,41
613,571	0,41
614,016	0,41
614,461	0,41
614,906	0,41
615,351	0,42
615,795	0,42
616,24	0,42
616,685	0,42
617,129	0,42
617,574	0,42
618,019	0,42
618,463	0,42
618,908	0,42
619,352	0,42
619,797	0,42
620,241	0,42
620,686	0,41
621,13	0,41
621,574	0,41
622,019	0,41
622,463	0,41
622,907	0,41
623,352	0,41
623,796	0,41
624,24	0,41
624,684	0,41
625,128	0,41
625,572	0,41
626,016	0,41
626,461	0,41
626,905	0,41
627,349	0,41
627,793	0,41
628,236	0,41
628,68	0,41
629,124	0,41
629,568	0,4
630,012	0,4
630,456	0,4
630,9	0,4
631,343	0,4
631,787	0,4
632,231	0,4
632,674	0,4
633,118	0,4
633,562	0,4
634,005	0,4
634,449	0,4
634,892	0,4
635,336	0,4
635,779	0,4
636,223	0,4
636,666	0,4
637,109	0,4
637,553	0,4
637,996	0,4
638,439	0,4
638,883	0,4
639,326	0,4
639,769	0,4
640,212	0,4
640,655	0,4
641,099	0,39
641,542	0,39
641,985	0,39
642,428	0,39
642,871	0,39
643,314	0,39
643,757	0,39
644,2	0,39
644,643	0,39
645,085	0,39
645,528	0,39
645,971	0,39
646,414	0,39
646,857	0,39
647,299	0,39
647,742	0,39
648,185	0,39
648,627	0,39
649,07	0,39
649,513	0,39
649,955	0,39
650,398	0,39
650,84	0,39
651,283	0,39
651,725	0,39
652,168	0,39
652,61	0,39
653,052	0,39
653,495	0,39
653,937	0,31
654,379	0,25
654,821	0,25
655,264	0,26
655,706	0,26
656,148	0,26
656,59	0,26
657,032	0,26
657,474	0,26
657,916	0,26
658,358	0,25
658,8	0,31
659,242	0,39
659,684	0,39
660,126	0,39
660,568	0,39
661,01	0,39
661,452	0,38
661,894	0,38
662,335	0,38
662,777	0,38
663,219	0,38
663,661	0,38
664,102	0,38
664,544	0,38
664,985	0,38
665,427	0,38
665,869	0,38
666,31	0,38
666,752	0,38
667,193	0,38
667,634	0,38
668,076	0,38
668,517	0,38
668,959	0,38
669,4	0,38
669,841	0,38
670,282	0,38
670,724	0,38
671,165	0,38
671,606	0,38
672,047	0,38
672,488	0,38
672,929	0,38
673,37	0,38
673,811	0,38
674,252	0,38
674,693	0,38
675,134	0,38
675,575	0,38
676,016	0,38
676,457	0,38
676,898	0,38
677,339	0,38
677,78	0,37
678,22	0,37
678,661	0,37
679,102	0,37
679,542	0,37
679,983	0,37
680,424	0,37
680,864	0,37
681,305	0,37
681,745	0,37
682,186	0,37
682,626	0,37
683,067	0,37
683,507	0,37
683,948	0,37
684,388	0,37
684,828	0,37
685,269	0,37
685,709	0,37
686,149	0,37
686,589	0,37
687,029	0,37
687,47	0,37
687,91	0,37
688,35	0,37
688,79	0,37
689,23	0,37
689,67	0,37
690,11	0,37
690,55	0,37
690,99	0,37
691,43	0,37
691,87	0,37
692,31	0,37
692,749	0,36
693,189	0,36
693,629	0,36
694,069	0,36
694,508	0,36
694,948	0,36
695,388	0,36
695,827	0,36
696,267	0,36
696,706	0,36
697,146	0,37
697,586	0,37
698,025	0,37
698,464	0,37
698,904	0,37
699,343	0,37
699,783	0,37
700,222	0,37
700,661	0,37
701,101	0,37
701,54	0,37
701,979	0,37
702,418	0,37
702,857	0,37
703,297	0,37
703,736	0,37
704,175	0,37
704,614	0,37
705,053	0,37
705,492	0,37
705,931	0,36
706,37	0,36
706,809	0,36
707,248	0,36
707,687	0,36
708,125	0,36
708,564	0,36
709,003	0,36
709,442	0,36
709,88	0,36
710,319	0,36
710,758	0,36
711,196	0,36
711,635	0,36
712,074	0,36
712,512	0,36
712,951	0,36
713,389	0,36
713,828	0,35
714,266	0,35
714,705	0,35
715,143	0,35
715,581	0,35
716,02	0,35
716,458	0,35
716,896	0,35
717,334	0,35
717,773	0,35
718,211	0,35
718,649	0,35
719,087	0,35
719,525	0,35
719,963	0,35
720,401	0,35
720,839	0,35
721,277	0,35
721,715	0,35
722,153	0,35
722,591	0,35
723,029	0,35
723,467	0,35
723,905	0,35
724,342	0,35
724,78	0,35
725,218	0,35
725,656	0,35
726,093	0,35
726,531	0,35
726,969	0,35
727,406	0,35
727,844	0,35
728,281	0,35
728,719	0,35
729,156	0,35
729,594	0,35
730,031	0,35
730,469	0,35
730,906	0,35
731,343	0,35
731,781	0,35
732,218	0,35
732,655	0,35
733,092	0,35
733,53	0,35
733,967	0,35
734,404	0,35
734,841	0,35
735,278	0,35
735,715	0,35
736,152	0,34
736,589	0,34
737,026	0,34
737,463	0,34
737,9	0,34
738,337	0,34
738,774	0,34
739,211	0,34
739,647	0,34
740,084	0,34
740,521	0,34
740,958	0,34
741,394	0,34
741,831	0,34
742,268	0,34
742,704	0,34
743,141	0,34
743,577	0,33
744,014	0,33
744,45	0,33
744,887	0,33
745,323	0,33
745,76	0,33
746,196	0,33
746,632	0,33
747,069	0,33
747,505	0,33
747,941	0,33
748,378	0,33
748,814	0,33
749,25	0,33
749,686	0,33
750,122	0,33
750,558	0,33
750,994	0,34
751,43	0,34
751,866	0,34
752,302	0,34
752,738	0,34
753,174	0,34
753,61	0,34
754,046	0,34
754,482	0,34
754,918	0,34
755,354	0,34
755,789	0,34
756,225	0,34
756,661	0,34
757,096	0,34
757,532	0,34
757,968	0,33
758,403	0,33
758,839	0,33
759,274	0,33
759,71	0,32
760,145	0,32
760,581	0,31
761,016	0,31
761,452	0,31
761,887	0,3
762,322	0,3
762,758	0,3
763,193	0,29
763,628	0,29
764,063	0,28
764,499	0,28
764,934	0,27
765,369	0,27
765,804	0,26
766,239	0,26
766,674	0,25
767,109	0,24
767,544	0,24
767,979	0,23
768,414	0,22
768,849	0,21
769,284	0,21
769,719	0,2
770,154	0,19
770,588	0,19
771,023	0,18
771,458	0,17
771,893	0,16
772,327	0,15
772,762	0,14
773,197	0,13
773,631	0,12
774,066	0,11
774,5	0,11
774,935	0,1
775,369	0,09
775,804	0,08
776,238	0,07
776,673	0,06
777,107	0,05
777,541	0,05
777,976	0,04
778,41	0,03
778,844	0,02
779,279	0,02
779,713	0,01
780,147	-0
780,581	-0,01
781,015	-0,01
781,449	-0,02
781,883	-0,03
782,317	-0,05
782,751	-0,06
783,185	-0,06
783,619	-0,07
784,053	-0,08
784,487	-0,09
784,921	-0,09
785,355	-0,1
785,789	-0,11
786,223	-0,12
786,656	-0,13
787,09	-0,14
787,524	-0,14
787,957	-0,16
788,391	-0,17
788,825	-0,18
789,258	-0,2
789,692	-0,21
790,125	-0,23
790,559	-0,25
790,992	-0,27
791,426	-0,29
791,859	-0,3
792,293	-0,33
792,726	-0,35
793,159	-0,37
793,593	-0,39
794,026	-0,41
794,459	-0,44
794,892	-0,46
795,326	-0,48
795,759	-0,52
796,192	-0,57
796,625	-0,61
797,058	-0,63
797,491	-0,68
797,924	-0,72
798,357	-0,77
798,79	-0,81
799,223	-0,85
799,656	-0,91
800,089	-0,96
800,522	-1
800,955	-1,04
801,387	-1,1
801,82	-1,15
802,253	-1,21
802,686	-1,29
803,118	-1,35
803,551	-1,4
803,984	-1,44
804,416	-1,48
804,849	-1,51
805,281	-1,62
805,714	-1,97
806,146	-2,43
806,579	-2,7
807,011	-2,86
807,444	-2,96
807,876	-3,05
808,308	-3,09
808,741	-3,12
809,173	-3,17
809,605	-3,19
810,037	-3,27
810,47	-3,19
810,902	-3
811,334	-2,85
811,766	-2,7
812,198	-2,47
812,63	-2,04
813,062	-1,81
813,494	-1,71
813,926	-1,62
814,358	-1,56
814,79	-1,48
815,222	-1,42
815,654	-1,37
816,086	-1,31
816,518	-1,25
816,949	-1,2
817,381	-1,16
817,813	-1,14
818,245	-1,1
818,676	-1,06
819,108	-1,02
819,54	-1,01
819,971	-0,99
820,403	-0,93
820,834	-0,92
821,266	-0,88
821,697	-0,85
822,129	-0,83
822,56	-0,81
822,991	-0,79
823,423	-0,76
823,854	-0,75
824,286	-0,72
824,717	-0,71
825,148	-0,69
825,579	-0,69
826,01	-0,67
826,442	-0,67
826,873	-0,64
827,304	-0,61
827,735	-0,6
828,166	-0,6
828,597	-0,6
829,028	-0,6
829,459	-0,6
829,89	-0,6
830,321	-0,56
830,752	-0,56
831,183	-0,55
831,613	-0,55
832,044	-0,54
832,475	-0,53
832,906	-0,55
833,336	-0,55
833,767	-0,56
834,198	-0,55
834,628	-0,54
835,059	-0,56
835,49	-0,57
835,92	-0,53
836,351	-0,54
836,781	-0,54
837,212	-0,55
837,642	-0,55
838,072	-0,53
838,503	-0,55
838,933	-0,52
839,364	-0,53
839,794	-0,51
840,224	-0,5
840,654	-0,55
841,085	-0,56
841,515	-0,53
841,945	-0,53
842,375	-0,48
842,805	-0,47
843,235	-0,45
843,665	-0,46
844,095	-0,45
844,525	-0,47
844,955	-0,47
845,385	-0,45
845,815	-0,43
846,245	-0,46
846,675	-0,47
847,105	-0,48
847,534	-0,48
847,964	-0,46
848,394	-0,45
848,824	-0,48
849,253	-0,47
849,683	-0,48
850,112	-0,49
850,542	-0,52
850,972	-0,53
851,401	-0,51
851,831	-0,49
852,26	-0,5
852,69	-0,53
853,119	-0,53
853,548	-0,54
853,978	-0,54
854,407	-0,52
854,836	-0,52
855,266	-0,52
855,695	-0,52
856,124	-0,54
856,553	-0,55
856,983	-0,57
857,412	-0,57
857,841	-0,58
858,27	-0,57
858,699	-0,58
859,128	-0,61
859,557	-0,61
859,986	-0,62
860,415	-0,6
860,844	-0,57
861,273	-0,57
861,702	-0,59
862,13	-0,57
862,559	-0,58
862,988	-0,56
863,417	-0,55
863,845	-0,54
864,274	-0,54
864,703	-0,54
865,131	-0,55
865,56	-0,56
865,989	-0,59
866,417	-0,56
866,846	-0,56
867,274	-0,55
867,703	-0,57
868,131	-0,59
868,559	-0,6
868,988	-0,63
869,416	-0,61
869,844	-0,61
870,273	-0,64
870,701	-0,61
871,129	-0,64
871,557	-0,66
871,986	-0,67
872,414	-0,68
872,842	-0,64
873,27	-0,63
873,698	-0,59
874,126	-0,64
874,554	-0,62
874,982	-0,61
875,41	-0,64
875,838	-0,6
876,266	-0,57
876,694	-0,58
877,122	-0,57
877,549	-0,62
877,977	-0,59
878,405	-0,62
878,833	-0,59
879,26	-0,57
879,688	-0,58
880,116	-0,56
880,543	-0,53
880,971	-0,54
881,399	-0,56
881,826	-0,56
882,254	-0,54
882,681	-0,57
883,109	-0,54
883,536	-0,56
883,963	-0,58
884,391	-0,57
884,818	-0,56
885,245	-0,6
885,673	-0,61
886,1	-0,58
886,527	-0,58
886,954	-0,54
887,381	-0,56
887,809	-0,57
888,236	-0,58
888,663	-0,58
889,09	-0,6
889,517	-0,62
889,944	-0,62
890,371	-0,61
890,798	-0,61
891,225	-0,61
891,652	-0,65
892,078	-0,62
892,505	-0,65
892,932	-0,61
893,359	-0,62
893,786	-0,62
894,212	-0,59
894,639	-0,6
895,066	-0,62
895,492	-0,56
895,919	-0,57
896,346	-0,57
896,772	-0,58
897,199	-0,53
897,625	-0,56
898,052	-0,53
898,478	-0,52
898,904	-0,53
899,331	-0,52
899,757	-0,54
900,183	-0,57
900,61	-0,54
901,036	-0,54
901,462	-0,53
901,888	-0,53
902,315	-0,52
902,741	-0,57
903,167	-0,56
903,593	-0,58
904,019	-0,57
904,445	-0,54
904,871	-0,56
905,297	-0,58
905,723	-0,58
906,149	-0,58
906,575	-0,58
907,001	-0,58
907,427	-0,55
907,852	-0,54
908,278	-0,55
908,704	-0,52
909,13	-0,53
909,555	-0,52
909,981	-0,51
910,407	-0,52
910,832	-0,52
911,258	-0,52
911,684	-0,53
912,109	-0,54
912,535	-0,55
912,96	-0,52
913,386	-0,56
913,811	-0,55
914,236	-0,56
914,662	-0,54
915,087	-0,57
915,512	-0,57
915,938	-0,58
916,363	-0,57
916,788	-0,58
917,213	-0,55
917,639	-0,59
918,064	-0,57
918,489	-0,58
918,914	-0,58
919,339	-0,6
919,764	-0,57
920,189	-0,57
920,614	-0,59
921,039	-0,59
921,464	-0,55
921,889	-0,59
922,314	-0,6
922,738	-0,63
923,163	-0,64
923,588	-0,64
924,013	-0,64
924,437	-0,63
924,862	-0,65
925,287	-0,61
925,711	-0,62
926,136	-0,64
926,561	-0,62
926,985	-0,61
927,41	-0,57
927,834	-0,54
928,259	-0,52
928,683	-0,49
929,108	-0,46
929,532	-0,47
929,956	-0,46
930,381	-0,46
930,805	-0,45
931,229	-0,45
931,653	-0,44
932,078	-0,44
932,502	-0,45
932,926	-0,46
933,35	-0,47
933,774	-0,47
934,198	-0,45
934,622	-0,44
935,046	-0,44
935,47	-0,45
935,894	-0,44
936,318	-0,43
936,742	-0,42
937,166	-0,43
937,59	-0,42
938,014	-0,44
938,437	-0,45
938,861	-0,46
939,285	-0,47
939,709	-0,46
940,132	-0,48
940,556	-0,49
940,98	-0,48
941,403	-0,47
941,827	-0,48
942,25	-0,49
942,674	-0,48
943,097	-0,47
943,521	-0,47
943,944	-0,49
944,368	-0,48
944,791	-0,46
945,214	-0,47
945,638	-0,48
946,061	-0,51
946,484	-0,51
946,907	-0,49
947,331	-0,5
947,754	-0,53
948,177	-0,51
948,6	-0,5
949,023	-0,5
949,446	-0,5
949,869	-0,49
950,292	-0,48
950,715	-0,45
951,138	-0,44
951,561	-0,43
951,984	-0,43
952,407	-0,42
952,83	-0,4
953,252	-0,37
953,675	-0,37
954,098	-0,37
954,521	-0,35
954,943	-0,36
955,366	-0,36
955,789	-0,35
956,211	-0,36
956,634	-0,36
957,056	-0,34
957,479	-0,35
957,902	-0,37
958,324	-0,37
958,746	-0,36
959,169	-0,37
959,591	-0,38
960,014	-0,39
960,436	-0,38
960,858	-0,39
961,281	-0,39
961,703	-0,4
962,125	-0,4
962,547	-0,37
962,969	-0,39
963,391	-0,39
963,814	-0,4
964,236	-0,39
964,658	-0,37
965,08	-0,38
965,502	-0,37
965,924	-0,34
966,346	-0,34
966,768	-0,33
967,189	-0,36
967,611	-0,35
968,033	-0,34
968,455	-0,32
968,877	-0,32
969,298	-0,33
969,72	-0,33
970,142	-0,32
970,563	-0,32
970,985	-0,3
971,407	-0,29
971,828	-0,27
972,25	-0,26
972,671	-0,25
973,093	-0,25
973,514	-0,23
973,936	-0,22
974,357	-0,21
974,778	-0,21
975,2	-0,2
975,621	-0,2
976,042	-0,18
976,464	-0,18
976,885	-0,17
977,306	-0,17
977,727	-0,17
978,148	-0,16
978,57	-0,14
978,991	-0,13
979,412	-0,12
979,833	-0,11
980,254	-0,09
980,675	-0,1
981,096	-0,09
981,517	-0,07
981,937	-0,07
982,358	-0,05
982,779	-0,04
983,2	-0,04
983,621	-0,04
984,042	-0,03
984,462	-0,02
984,883	-0,01
985,304	0,01
985,724	0,02
986,145	0,03
986,565	0,04
986,986	0,05
987,407	0,06
987,827	0,07
988,248	0,08
988,668	0,09
989,088	0,09
989,509	0,11
989,929	0,11
990,35	0,12
990,77	0,14
991,19	0,14
991,61	0,15
992,031	0,17
992,451	0,17
992,871	0,18
993,291	0,19
993,711	0,2
994,131	0,21
994,551	0,21
994,971	0,22
995,391	0,22
995,811	0,22
996,231	0,23
996,651	0,23
997,071	0,24
997,491	0,24
997,911	0,24
998,331	0,25
998,75	0,25
999,17	0,26
999,59	0,26
1000,009	0,27
1000,429	0,27
1000,849	0,28
1001,268	0,28
1001,688	0,28
1002,107	0,29
1002,527	0,29
1002,946	0,29
1003,366	0,3
1003,785	0,3
1004,205	0,3
1004,624	0,3
1005,044	0,31
1005,463	0,31
1005,882	0,31
1006,301	0,31
1006,721	0,31
1007,14	0,31
1007,559	0,31
1007,978	0,31
1008,397	0,31
1008,816	0,31
1009,235	0,31
1009,655	0,31
1010,074	0,31
1010,492	0,31
1010,911	0,31
1011,33	0,31
1011,749	0,31
1012,168	0,31
1012,587	0,3
1013,006	0,3
1013,425	0,3
1013,843	0,3
1014,262	0,3
1014,681	0,3
1015,099	0,3
1015,518	0,3
1015,937	0,3
1016,355	0,3
1016,774	0,3
1017,192	0,3
1017,611	0,3
1018,029	0,3
1018,448	0,3
1018,866	0,3
1019,285	0,3
1019,703	0,3
1020,121	0,3
1020,54	0,3
1020,958	0,3
1021,376	0,3
1021,794	0,3
1022,213	0,3
1022,631	0,3
1023,049	0,3
1023,467	0,3
1023,885	0,3
1024,303	0,3
1024,721	0,3
1025,139	0,3
1025,557	0,3
1025,975	0,3
1026,393	0,3
1026,811	0,29
1027,229	0,29
1027,647	0,29
1028,065	0,29
1028,482	0,29
1028,9	0,29
1029,318	0,29
1029,735	0,29
1030,153	0,29
1030,571	0,29
1030,988	0,29
1031,406	0,29
1031,823	0,29
1032,241	0,29
1032,659	0,29
1033,076	0,29
1033,493	0,29
1033,911	0,29
1034,328	0,29
1034,746	0,29
1035,163	0,29
1035,58	0,29
1035,997	0,29
1036,415	0,29
1036,832	0,29
1037,249	0,29
1037,666	0,29
1038,083	0,29
1038,501	0,29
1038,918	0,29
1039,335	0,29
1039,752	0,29
1040,169	0,29
1040,586	0,29
1041,003	0,29
1041,419	0,29
1041,836	0,29
1042,253	0,29
1042,67	0,29
1043,087	0,29
1043,504	0,29
1043,92	0,29
1044,337	0,29
1044,754	0,29
1045,17	0,28
1045,587	0,28
1046,004	0,28
1046,42	0,28
1046,837	0,28
1047,253	0,28
1047,67	0,28
1048,086	0,28
1048,503	0,28
1048,919	0,28
1049,335	0,28
1049,752	0,28
1050,168	0,28
1050,584	0,28
1051,001	0,28
1051,417	0,28
1051,833	0,28
1052,249	0,29
1052,665	0,29
1053,081	0,29
1053,497	0,29
1053,914	0,29
1054,33	0,29
1054,746	0,29
1055,162	0,29
1055,578	0,29
1055,993	0,29
1056,409	0,29
1056,825	0,29
1057,241	0,29
1057,657	0,29
1058,073	0,29
1058,488	0,29
1058,904	0,29
1059,32	0,29
1059,736	0,29
1060,151	0,29
1060,567	0,29
1060,982	0,29
1061,398	0,29
1061,813	0,29
1062,229	0,29
1062,644	0,29
1063,06	0,29
1063,475	0,29
1063,891	0,29
1064,306	0,29
1064,721	0,29
1065,137	0,29
1065,552	0,29
1065,967	0,29
1066,382	0,29
1066,798	0,29
1067,213	0,29
1067,628	0,29
1068,043	0,29
1068,458	0,29
1068,873	0,29
1069,288	0,29
1069,703	0,29
1070,118	0,29
1070,533	0,3
1070,948	0,3
1071,363	0,3
1071,778	0,3
1072,193	0,3
1072,607	0,3
1073,022	0,3
1073,437	0,3
1073,852	0,3
1074,266	0,3
1074,681	0,3
1075,096	0,3
1075,51	0,3
1075,925	0,3
1076,339	0,3
1076,754	0,29
1077,168	0,29
1077,583	0,29
1077,997	0,29
1078,412	0,29
1078,826	0,29
1079,24	0,29
1079,655	0,29
1080,069	0,29
1080,483	0,29
1080,897	0,29
1081,312	0,29
1081,726	0,29
1082,14	0,29
1082,554	0,28
1082,968	0,28
1083,382	0,28
1083,796	0,28
1084,21	0,28
1084,624	0,28
1085,038	0,28
1085,452	0,28
1085,866	0,28
1086,28	0,28
1086,694	0,27
1087,108	0,27
1087,521	0,27
1087,935	0,27
1088,349	0,27
1088,763	0,27
1089,176	0,26
1089,59	0,26
1090,004	0,26
1090,417	0,26
1090,831	0,25
1091,244	0,25
1091,658	0,25
1092,071	0,25
1092,485	0,25
1092,898	0,24
1093,312	0,24
1093,725	0,24
1094,138	0,24
1094,552	0,24
1094,965	0,24
1095,378	0,24
1095,791	0,24
1096,205	0,24
1096,618	0,24
1097,031	0,23
1097,444	0,23
1097,857	0,23
1098,27	0,23
1098,683	0,22
1099,096	0,22
1099,509	0,22
1099,922	0,21
1100,335	0,21
1100,748	0,21
1101,161	0,2
1101,574	0,2
1101,986	0,2
1102,399	0,19
1102,812	0,19
1103,225	0,19
1103,637	0,18
1104,05	0,18
1104,463	0,18
1104,875	0,18
1105,288	0,18
1105,7	0,18
1106,113	0,17
1106,525	0,17
1106,938	0,16
1107,35	0,16
1107,763	0,16
1108,175	0,16
1108,588	0,15
1109	0,15
1109,412	0,14
1109,824	0,14
1110,237	0,13
1110,649	0,13
1111,061	0,13
