Data from 18C-808nm-8A-cont_Absorbance__439__01868.txt Node

Date: Mon Jul 17 17:34:53 CEST 2023
User: Laser008
Spectrometer: MAYP115816
Trigger mode: 0
Integration Time (sec): 2,500000E-1
Scans to average: 10
Electric dark correction enabled: true
Nonlinearity correction enabled: true
Boxcar width: 5
XAxis mode: Wavelengths
Number of Pixels in Spectrum: 2068
>>>>>Begin Spectral Data<<<<<
198,914	-0,74
199,384	-0,47
199,855	-0,35
200,325	-0,27
200,796	-0,24
201,266	-0,18
201,737	-0,17
202,207	-0,16
202,677	-0,15
203,147	-0,13
203,618	-0,1
204,088	-0,09
204,558	-0,08
205,028	-0,07
205,498	-0,08
205,968	-0,08
206,439	-0,1
206,909	-0,09
207,379	-0,09
207,849	-0,1
208,319	-0,1
208,789	-0,1
209,258	-0,1
209,728	-0,11
210,198	-0,11
210,668	-0,11
211,138	-0,1
211,608	-0,1
212,077	-0,1
212,547	-0,1
213,017	-0,11
213,486	-0,11
213,956	-0,12
214,426	-0,13
214,895	-0,12
215,365	-0,13
215,834	-0,13
216,304	-0,15
216,773	-0,15
217,243	-0,16
217,712	-0,17
218,181	-0,16
218,651	-0,16
219,12	-0,16
219,589	-0,16
220,058	-0,15
220,528	-0,16
220,997	-0,17
221,466	-0,17
221,935	-0,18
222,404	-0,18
222,873	-0,17
223,342	-0,18
223,812	-0,18
224,281	-0,18
224,749	-0,18
225,218	-0,2
225,687	-0,2
226,156	-0,19
226,625	-0,17
227,094	-0,17
227,563	-0,17
228,031	-0,18
228,5	-0,18
228,969	-0,19
229,438	-0,18
229,906	-0,17
230,375	-0,16
230,844	-0,16
231,312	-0,15
231,781	-0,16
232,249	-0,15
232,718	-0,16
233,186	-0,15
233,655	-0,15
234,123	-0,14
234,591	-0,15
235,06	-0,15
235,528	-0,15
235,996	-0,15
236,465	-0,15
236,933	-0,15
237,401	-0,14
237,869	-0,13
238,337	-0,14
238,805	-0,12
239,274	-0,12
239,742	-0,11
240,21	-0,12
240,678	-0,12
241,146	-0,12
241,614	-0,12
242,081	-0,11
242,549	-0,12
243,017	-0,13
243,485	-0,13
243,953	-0,13
244,421	-0,13
244,888	-0,12
245,356	-0,12
245,824	-0,11
246,291	-0,12
246,759	-0,12
247,227	-0,12
247,694	-0,1
248,162	-0,09
248,629	-0,09
249,097	-0,1
249,564	-0,11
250,032	-0,12
250,499	-0,11
250,967	-0,12
251,434	-0,12
251,901	-0,11
252,369	-0,11
252,836	-0,13
253,303	-0,14
253,77	-0,16
254,237	-0,15
254,705	-0,15
255,172	-0,14
255,639	-0,14
256,106	-0,15
256,573	-0,16
257,04	-0,16
257,507	-0,16
257,974	-0,16
258,441	-0,15
258,908	-0,14
259,375	-0,15
259,841	-0,16
260,308	-0,16
260,775	-0,17
261,242	-0,16
261,709	-0,16
262,175	-0,18
262,642	-0,18
263,109	-0,17
263,575	-0,18
264,042	-0,17
264,508	-0,16
264,975	-0,18
265,441	-0,18
265,908	-0,19
266,374	-0,18
266,841	-0,18
267,307	-0,18
267,773	-0,18
268,24	-0,18
268,706	-0,18
269,172	-0,2
269,639	-0,21
270,105	-0,19
270,571	-0,2
271,037	-0,19
271,503	-0,21
271,969	-0,2
272,435	-0,2
272,902	-0,22
273,368	-0,23
273,834	-0,23
274,3	-0,24
274,765	-0,23
275,231	-0,23
275,697	-0,22
276,163	-0,22
276,629	-0,21
277,095	-0,23
277,56	-0,23
278,026	-0,23
278,492	-0,21
278,958	-0,22
279,423	-0,21
279,889	-0,22
280,354	-0,23
280,82	-0,23
281,286	-0,24
281,751	-0,25
282,217	-0,23
282,682	-0,23
283,147	-0,23
283,613	-0,23
284,078	-0,22
284,544	-0,23
285,009	-0,23
285,474	-0,22
285,939	-0,23
286,405	-0,22
286,87	-0,21
287,335	-0,22
287,8	-0,21
288,265	-0,21
288,73	-0,23
289,195	-0,24
289,66	-0,23
290,125	-0,22
290,59	-0,23
291,055	-0,22
291,52	-0,22
291,985	-0,21
292,45	-0,23
292,915	-0,23
293,38	-0,22
293,844	-0,21
294,309	-0,2
294,774	-0,2
295,239	-0,21
295,703	-0,22
296,168	-0,22
296,632	-0,21
297,097	-0,2
297,562	-0,19
298,026	-0,19
298,491	-0,2
298,955	-0,19
299,419	-0,18
299,884	-0,18
300,348	-0,17
300,813	-0,16
301,277	-0,17
301,741	-0,16
302,205	-0,16
302,67	-0,15
303,134	-0,14
303,598	-0,14
304,062	-0,13
304,526	-0,13
304,99	-0,14
305,454	-0,14
305,919	-0,14
306,383	-0,13
306,847	-0,13
307,31	-0,14
307,774	-0,15
308,238	-0,15
308,702	-0,15
309,166	-0,17
309,63	-0,16
310,094	-0,14
310,557	-0,12
311,021	-0,12
311,485	-0,12
311,948	-0,12
312,412	-0,12
312,876	-0,11
313,339	-0,11
313,803	-0,12
314,266	-0,11
314,73	-0,11
315,193	-0,12
315,657	-0,11
316,12	-0,1
316,584	-0,09
317,047	-0,1
317,51	-0,09
317,973	-0,09
318,437	-0,08
318,9	-0,07
319,363	-0,05
319,826	-0,05
320,29	-0,04
320,753	-0,06
321,216	-0,05
321,679	-0,05
322,142	-0,04
322,605	-0,04
323,068	-0,04
323,531	-0,05
323,994	-0,04
324,457	-0,05
324,92	-0,03
325,382	-0,04
325,845	-0,03
326,308	-0,03
326,771	-0,03
327,233	-0,02
327,696	-0,01
328,159	-0,01
328,622	0,01
329,084	0
329,547	0,01
330,009	0,02
330,472	0,03
330,934	0,04
331,397	0,05
331,859	0,05
332,322	0,05
332,784	0,05
333,246	0,06
333,709	0,06
334,171	0,06
334,633	0,07
335,096	0,06
335,558	0,06
336,02	0,06
336,482	0,06
336,944	0,07
337,406	0,08
337,868	0,09
338,331	0,09
338,793	0,11
339,255	0,12
339,717	0,12
340,178	0,13
340,64	0,14
341,102	0,14
341,564	0,16
342,026	0,16
342,488	0,17
342,949	0,18
343,411	0,21
343,873	0,24
344,335	0,27
344,796	0,31
345,258	0,35
345,719	0,4
346,181	0,45
346,643	0,49
347,104	0,53
347,566	0,57
348,027	0,6
348,488	0,62
348,95	0,64
349,411	0,67
349,873	0,69
350,334	0,72
350,795	0,73
351,256	0,74
351,718	0,75
352,179	0,76
352,64	0,76
353,101	0,77
353,562	0,77
354,023	0,77
354,484	0,78
354,945	0,78
355,406	0,78
355,867	0,78
356,328	0,79
356,789	0,79
357,25	0,79
357,711	0,79
358,172	0,8
358,633	0,8
359,093	0,8
359,554	0,8
360,015	0,8
360,476	0,8
360,936	0,81
361,397	0,81
361,858	0,81
362,318	0,81
362,779	0,81
363,239	0,81
363,7	0,81
364,16	0,81
364,621	0,81
365,081	0,81
365,541	0,81
366,002	0,81
366,462	0,81
366,922	0,81
367,383	0,81
367,843	0,81
368,303	0,81
368,763	0,81
369,223	0,81
369,684	0,81
370,144	0,81
370,604	0,81
371,064	0,81
371,524	0,81
371,984	0,81
372,444	0,81
372,904	0,81
373,363	0,81
373,823	0,81
374,283	0,81
374,743	0,81
375,203	0,81
375,663	0,81
376,122	0,81
376,582	0,81
377,042	0,81
377,501	0,81
377,961	0,81
378,42	0,81
378,88	0,81
379,34	0,81
379,799	0,81
380,259	0,81
380,718	0,8
381,177	0,8
381,637	0,8
382,096	0,8
382,555	0,8
383,015	0,8
383,474	0,8
383,933	0,8
384,393	0,8
384,852	0,8
385,311	0,8
385,77	0,8
386,229	0,8
386,688	0,8
387,147	0,8
387,606	0,8
388,065	0,8
388,524	0,8
388,983	0,8
389,442	0,8
389,901	0,8
390,36	0,8
390,819	0,8
391,277	0,8
391,736	0,8
392,195	0,8
392,654	0,79
393,112	0,79
393,571	0,79
394,03	0,79
394,488	0,79
394,947	0,79
395,405	0,79
395,864	0,79
396,322	0,79
396,781	0,79
397,239	0,79
397,698	0,79
398,156	0,79
398,614	0,79
399,073	0,79
399,531	0,79
399,989	0,79
400,447	0,79
400,905	0,79
401,364	0,79
401,822	0,79
402,28	0,79
402,738	0,79
403,196	0,79
403,654	0,79
404,112	0,79
404,57	0,79
405,028	0,79
405,486	0,78
405,944	0,78
406,402	0,78
406,859	0,78
407,317	0,78
407,775	0,78
408,233	0,78
408,691	0,78
409,148	0,78
409,606	0,78
410,064	0,78
410,521	0,78
410,979	0,78
411,436	0,78
411,894	0,78
412,351	0,78
412,809	0,78
413,266	0,78
413,724	0,78
414,181	0,78
414,638	0,78
415,096	0,78
415,553	0,78
416,01	0,78
416,467	0,78
416,925	0,78
417,382	0,78
417,839	0,78
418,296	0,78
418,753	0,78
419,21	0,78
419,667	0,78
420,124	0,78
420,581	0,78
421,038	0,78
421,495	0,78
421,952	0,78
422,409	0,78
422,866	0,78
423,322	0,78
423,779	0,78
424,236	0,78
424,693	0,78
425,149	0,78
425,606	0,78
426,063	0,78
426,519	0,78
426,976	0,78
427,433	0,78
427,889	0,78
428,346	0,78
428,802	0,78
429,258	0,78
429,715	0,78
430,171	0,78
430,628	0,78
431,084	0,78
431,54	0,78
431,997	0,78
432,453	0,78
432,909	0,78
433,365	0,77
433,821	0,77
434,277	0,77
434,734	0,77
435,19	0,77
435,646	0,77
436,102	0,77
436,558	0,77
437,014	0,77
437,47	0,77
437,925	0,77
438,381	0,77
438,837	0,78
439,293	0,78
439,749	0,78
440,205	0,78
440,66	0,78
441,116	0,78
441,572	0,78
442,027	0,78
442,483	0,78
442,939	0,78
443,394	0,78
443,85	0,78
444,305	0,78
444,761	0,78
445,216	0,78
445,672	0,78
446,127	0,78
446,582	0,78
447,038	0,78
447,493	0,78
447,948	0,78
448,403	0,78
448,859	0,78
449,314	0,78
449,769	0,78
450,224	0,78
450,679	0,78
451,134	0,78
451,589	0,78
452,044	0,78
452,499	0,78
452,954	0,78
453,409	0,78
453,864	0,78
454,319	0,78
454,774	0,78
455,229	0,78
455,684	0,78
456,138	0,78
456,593	0,78
457,048	0,78
457,503	0,78
457,957	0,78
458,412	0,78
458,866	0,78
459,321	0,79
459,776	0,79
460,23	0,79
460,685	0,79
461,139	0,79
461,593	0,79
462,048	0,79
462,502	0,79
462,957	0,79
463,411	0,79
463,865	0,79
464,319	0,8
464,774	0,8
465,228	0,8
465,682	0,8
466,136	0,8
466,59	0,8
467,044	0,8
467,499	0,8
467,953	0,8
468,407	0,8
468,861	0,8
469,315	0,8
469,768	0,81
470,222	0,81
470,676	0,81
471,13	0,81
471,584	0,81
472,038	0,81
472,491	0,81
472,945	0,81
473,399	0,81
473,852	0,81
474,306	0,82
474,76	0,82
475,213	0,82
475,667	0,82
476,12	0,82
476,574	0,82
477,027	0,82
477,481	0,83
477,934	0,83
478,388	0,83
478,841	0,83
479,294	0,83
479,748	0,83
480,201	0,84
480,654	0,84
481,107	0,84
481,561	0,84
482,014	0,84
482,467	0,85
482,92	0,85
483,373	0,85
483,826	0,85
484,279	0,85
484,732	0,86
485,185	0,86
485,638	0,86
486,091	0,86
486,544	0,86
486,997	0,87
487,449	0,87
487,902	0,87
488,355	0,87
488,808	0,88
489,26	0,88
489,713	0,88
490,166	0,89
490,618	0,89
491,071	0,89
491,523	0,9
491,976	0,9
492,429	0,9
492,881	0,9
493,333	0,91
493,786	0,91
494,238	0,91
494,691	0,92
495,143	0,92
495,595	0,92
496,048	0,93
496,5	0,93
496,952	0,94
497,404	0,94
497,856	0,94
498,309	0,95
498,761	0,95
499,213	0,96
499,665	0,96
500,117	0,97
500,569	0,97
501,021	0,97
501,473	0,98
501,925	0,98
502,377	0,99
502,828	0,99
503,28	1
503,732	1
504,184	1
504,636	1,01
505,087	1,01
505,539	1,01
505,991	1,02
506,442	1,02
506,894	1,03
507,345	1,03
507,797	1,03
508,249	1,04
508,7	1,04
509,151	1,05
509,603	1,05
510,054	1,06
510,506	1,06
510,957	1,06
511,408	1,07
511,86	1,07
512,311	1,08
512,762	1,08
513,213	1,08
513,665	1,09
514,116	1,09
514,567	1,09
515,018	1,1
515,469	1,1
515,92	1,1
516,371	1,11
516,822	1,11
517,273	1,11
517,724	1,12
518,175	1,12
518,626	1,12
519,076	1,13
519,527	1,13
519,978	1,13
520,429	1,13
520,88	1,13
521,33	1,14
521,781	1,14
522,232	1,14
522,682	1,14
523,133	1,14
523,583	1,15
524,034	1,15
524,484	1,15
524,935	1,15
525,385	1,15
525,836	1,15
526,286	1,15
526,736	1,15
527,187	1,15
527,637	1,15
528,087	1,15
528,538	1,15
528,988	1,15
529,438	1,15
529,888	1,15
530,338	1,14
530,788	1,14
531,238	1,14
531,688	1,14
532,139	1,14
532,589	1,14
533,038	1,13
533,488	1,13
533,938	1,13
534,388	1,13
534,838	1,13
535,288	1,12
535,738	1,12
536,187	1,11
536,637	1,11
537,087	1,11
537,537	1,1
537,986	1,1
538,436	1,09
538,885	1,09
539,335	1,08
539,785	1,08
540,234	1,07
540,684	1,07
541,133	1,06
541,582	1,06
542,032	1,05
542,481	1,05
542,931	1,04
543,38	1,04
543,829	1,03
544,278	1,03
544,728	1,02
545,177	1,02
545,626	1,01
546,075	1,01
546,524	1
546,973	1
547,422	0,99
547,871	0,99
548,32	0,99
548,769	0,98
549,218	0,98
549,667	0,97
550,116	0,97
550,565	0,97
551,014	0,96
551,463	0,95
551,911	0,95
552,36	0,94
552,809	0,94
553,258	0,93
553,706	0,93
554,155	0,92
554,603	0,92
555,052	0,92
555,501	0,91
555,949	0,91
556,398	0,9
556,846	0,9
557,294	0,89
557,743	0,89
558,191	0,88
558,64	0,87
559,088	0,87
559,536	0,86
559,985	0,86
560,433	0,85
560,881	0,85
561,329	0,84
561,777	0,84
562,225	0,83
562,674	0,83
563,122	0,83
563,57	0,82
564,018	0,82
564,466	0,81
564,914	0,81
565,362	0,8
565,809	0,8
566,257	0,79
566,705	0,79
567,153	0,78
567,601	0,78
568,048	0,77
568,496	0,77
568,944	0,77
569,392	0,76
569,839	0,76
570,287	0,75
570,734	0,75
571,182	0,75
571,63	0,74
572,077	0,74
572,525	0,74
572,972	0,73
573,419	0,73
573,867	0,72
574,314	0,72
574,761	0,72
575,209	0,71
575,656	0,71
576,103	0,7
576,551	0,7
576,998	0,7
577,445	0,7
577,892	0,69
578,339	0,69
578,786	0,68
579,233	0,68
579,68	0,68
580,127	0,67
580,574	0,67
581,021	0,67
581,468	0,67
581,915	0,66
582,362	0,66
582,809	0,66
583,255	0,65
583,702	0,65
584,149	0,65
584,596	0,65
585,042	0,64
585,489	0,64
585,936	0,64
586,382	0,64
586,829	0,63
587,275	0,63
587,722	0,63
588,168	0,63
588,615	0,62
589,061	0,62
589,508	0,62
589,954	0,62
590,4	0,62
590,847	0,61
591,293	0,61
591,739	0,61
592,185	0,61
592,632	0,6
593,078	0,6
593,524	0,6
593,97	0,6
594,416	0,6
594,862	0,6
595,308	0,6
595,754	0,59
596,2	0,59
596,646	0,59
597,092	0,59
597,538	0,59
597,984	0,58
598,43	0,58
598,876	0,58
599,321	0,58
599,767	0,58
600,213	0,58
600,659	0,58
601,104	0,57
601,55	0,57
601,995	0,57
602,441	0,57
602,887	0,57
603,332	0,57
603,778	0,56
604,223	0,56
604,668	0,56
605,114	0,56
605,559	0,56
606,005	0,56
606,45	0,56
606,895	0,56
607,341	0,56
607,786	0,55
608,231	0,55
608,676	0,55
609,121	0,54
609,566	0,54
610,012	0,53
610,457	0,53
610,902	0,52
611,347	0,52
611,792	0,52
612,237	0,52
612,682	0,52
613,127	0,51
613,571	0,52
614,016	0,52
614,461	0,52
614,906	0,52
615,351	0,52
615,795	0,52
616,24	0,52
616,685	0,53
617,129	0,53
617,574	0,53
618,019	0,53
618,463	0,53
618,908	0,53
619,352	0,52
619,797	0,52
620,241	0,52
620,686	0,52
621,13	0,52
621,574	0,52
622,019	0,52
622,463	0,52
622,907	0,52
623,352	0,51
623,796	0,51
624,24	0,51
624,684	0,51
625,128	0,51
625,572	0,51
626,016	0,51
626,461	0,51
626,905	0,51
627,349	0,51
627,793	0,51
628,236	0,51
628,68	0,51
629,124	0,51
629,568	0,51
630,012	0,51
630,456	0,51
630,9	0,51
631,343	0,51
631,787	0,51
632,231	0,51
632,674	0,51
633,118	0,51
633,562	0,51
634,005	0,5
634,449	0,5
634,892	0,5
635,336	0,5
635,779	0,5
636,223	0,5
636,666	0,5
637,109	0,5
637,553	0,5
637,996	0,5
638,439	0,5
638,883	0,5
639,326	0,5
639,769	0,5
640,212	0,5
640,655	0,5
641,099	0,49
641,542	0,49
641,985	0,49
642,428	0,49
642,871	0,49
643,314	0,49
643,757	0,49
644,2	0,49
644,643	0,49
645,085	0,49
645,528	0,49
645,971	0,49
646,414	0,49
646,857	0,49
647,299	0,49
647,742	0,49
648,185	0,48
648,627	0,48
649,07	0,48
649,513	0,48
649,955	0,48
650,398	0,48
650,84	0,48
651,283	0,49
651,725	0,49
652,168	0,49
652,61	0,49
653,052	0,49
653,495	0,48
653,937	0,4
654,379	0,34
654,821	0,35
655,264	0,35
655,706	0,35
656,148	0,35
656,59	0,35
657,032	0,35
657,474	0,35
657,916	0,35
658,358	0,34
658,8	0,4
659,242	0,48
659,684	0,48
660,126	0,48
660,568	0,48
661,01	0,48
661,452	0,48
661,894	0,48
662,335	0,48
662,777	0,48
663,219	0,48
663,661	0,48
664,102	0,48
664,544	0,48
664,985	0,48
665,427	0,48
665,869	0,48
666,31	0,48
666,752	0,48
667,193	0,48
667,634	0,48
668,076	0,48
668,517	0,48
668,959	0,48
669,4	0,48
669,841	0,48
670,282	0,48
670,724	0,48
671,165	0,48
671,606	0,48
672,047	0,48
672,488	0,47
672,929	0,47
673,37	0,47
673,811	0,47
674,252	0,47
674,693	0,47
675,134	0,47
675,575	0,47
676,016	0,47
676,457	0,47
676,898	0,47
677,339	0,46
677,78	0,46
678,22	0,46
678,661	0,46
679,102	0,46
679,542	0,47
679,983	0,47
680,424	0,47
680,864	0,47
681,305	0,47
681,745	0,47
682,186	0,47
682,626	0,47
683,067	0,47
683,507	0,47
683,948	0,47
684,388	0,47
684,828	0,47
685,269	0,47
685,709	0,46
686,149	0,46
686,589	0,46
687,029	0,46
687,47	0,46
687,91	0,46
688,35	0,46
688,79	0,46
689,23	0,46
689,67	0,46
690,11	0,46
690,55	0,46
690,99	0,46
691,43	0,46
691,87	0,46
692,31	0,45
692,749	0,45
693,189	0,45
693,629	0,45
694,069	0,45
694,508	0,45
694,948	0,45
695,388	0,45
695,827	0,45
696,267	0,45
696,706	0,45
697,146	0,45
697,586	0,45
698,025	0,45
698,464	0,45
698,904	0,45
699,343	0,45
699,783	0,45
700,222	0,45
700,661	0,45
701,101	0,45
701,54	0,45
701,979	0,45
702,418	0,45
702,857	0,45
703,297	0,46
703,736	0,46
704,175	0,45
704,614	0,45
705,053	0,45
705,492	0,45
705,931	0,45
706,37	0,45
706,809	0,45
707,248	0,45
707,687	0,45
708,125	0,45
708,564	0,45
709,003	0,45
709,442	0,45
709,88	0,45
710,319	0,45
710,758	0,45
711,196	0,45
711,635	0,45
712,074	0,45
712,512	0,45
712,951	0,44
713,389	0,44
713,828	0,44
714,266	0,44
714,705	0,44
715,143	0,44
715,581	0,44
716,02	0,44
716,458	0,44
716,896	0,44
717,334	0,44
717,773	0,44
718,211	0,44
718,649	0,44
719,087	0,44
719,525	0,44
719,963	0,44
720,401	0,44
720,839	0,44
721,277	0,44
721,715	0,45
722,153	0,44
722,591	0,44
723,029	0,44
723,467	0,44
723,905	0,44
724,342	0,44
724,78	0,44
725,218	0,44
725,656	0,44
726,093	0,44
726,531	0,44
726,969	0,44
727,406	0,44
727,844	0,44
728,281	0,44
728,719	0,44
729,156	0,44
729,594	0,44
730,031	0,44
730,469	0,44
730,906	0,44
731,343	0,44
731,781	0,44
732,218	0,44
732,655	0,44
733,092	0,44
733,53	0,43
733,967	0,43
734,404	0,43
734,841	0,43
735,278	0,43
735,715	0,43
736,152	0,43
736,589	0,43
737,026	0,43
737,463	0,43
737,9	0,43
738,337	0,43
738,774	0,43
739,211	0,43
739,647	0,43
740,084	0,43
740,521	0,43
740,958	0,43
741,394	0,43
741,831	0,43
742,268	0,43
742,704	0,43
743,141	0,43
743,577	0,43
744,014	0,43
744,45	0,43
744,887	0,43
745,323	0,43
745,76	0,43
746,196	0,43
746,632	0,42
747,069	0,42
747,505	0,42
747,941	0,42
748,378	0,42
748,814	0,42
749,25	0,42
749,686	0,43
750,122	0,43
750,558	0,43
750,994	0,43
751,43	0,43
751,866	0,43
752,302	0,43
752,738	0,43
753,174	0,43
753,61	0,43
754,046	0,43
754,482	0,43
754,918	0,43
755,354	0,43
755,789	0,43
756,225	0,43
756,661	0,43
757,096	0,43
757,532	0,42
757,968	0,42
758,403	0,42
758,839	0,42
759,274	0,41
759,71	0,41
760,145	0,4
760,581	0,4
761,016	0,39
761,452	0,39
761,887	0,39
762,322	0,38
762,758	0,38
763,193	0,37
763,628	0,37
764,063	0,36
764,499	0,35
764,934	0,35
765,369	0,34
765,804	0,33
766,239	0,33
766,674	0,32
767,109	0,31
767,544	0,3
767,979	0,29
768,414	0,28
768,849	0,27
769,284	0,26
769,719	0,25
770,154	0,24
770,588	0,23
771,023	0,22
771,458	0,21
771,893	0,2
772,327	0,19
772,762	0,18
773,197	0,17
773,631	0,16
774,066	0,15
774,5	0,15
774,935	0,14
775,369	0,13
775,804	0,12
776,238	0,11
776,673	0,1
777,107	0,1
777,541	0,09
777,976	0,07
778,41	0,07
778,844	0,05
779,279	0,04
779,713	0,03
780,147	0,02
780,581	0,01
781,015	-0
781,449	-0,01
781,883	-0,02
782,317	-0,03
782,751	-0,04
783,185	-0,05
783,619	-0,05
784,053	-0,06
784,487	-0,07
784,921	-0,07
785,355	-0,08
785,789	-0,08
786,223	-0,09
786,656	-0,1
787,09	-0,11
787,524	-0,11
787,957	-0,13
788,391	-0,15
788,825	-0,16
789,258	-0,18
789,692	-0,19
790,125	-0,21
790,559	-0,22
790,992	-0,24
791,426	-0,27
791,859	-0,29
792,293	-0,32
792,726	-0,34
793,159	-0,36
793,593	-0,37
794,026	-0,4
794,459	-0,43
794,892	-0,46
795,326	-0,49
795,759	-0,52
796,192	-0,57
796,625	-0,61
797,058	-0,63
797,491	-0,67
797,924	-0,71
798,357	-0,76
798,79	-0,8
799,223	-0,84
799,656	-0,89
800,089	-0,94
800,522	-0,98
800,955	-1,03
801,387	-1,08
801,82	-1,14
802,253	-1,2
802,686	-1,28
803,118	-1,33
803,551	-1,39
803,984	-1,43
804,416	-1,47
804,849	-1,51
805,281	-1,66
805,714	-2,04
806,146	-2,47
806,579	-2,72
807,011	-2,88
807,444	-2,97
807,876	-3,05
808,308	-3,08
808,741	-3,11
809,173	-3,16
809,605	-3,19
810,037	-3,26
810,47	-3,17
810,902	-2,97
811,334	-2,82
811,766	-2,65
812,198	-2,39
812,63	-1,97
813,062	-1,77
813,494	-1,67
813,926	-1,59
814,358	-1,53
814,79	-1,45
815,222	-1,4
815,654	-1,35
816,086	-1,28
816,518	-1,23
816,949	-1,18
817,381	-1,13
817,813	-1,12
818,245	-1,08
818,676	-1,04
819,108	-1
819,54	-0,99
819,971	-0,97
820,403	-0,92
820,834	-0,91
821,266	-0,86
821,697	-0,84
822,129	-0,82
822,56	-0,8
822,991	-0,78
823,423	-0,75
823,854	-0,74
824,286	-0,72
824,717	-0,7
825,148	-0,69
825,579	-0,68
826,01	-0,67
826,442	-0,66
826,873	-0,65
827,304	-0,62
827,735	-0,62
828,166	-0,62
828,597	-0,62
829,028	-0,61
829,459	-0,62
829,89	-0,62
830,321	-0,58
830,752	-0,59
831,183	-0,58
831,613	-0,57
832,044	-0,56
832,475	-0,55
832,906	-0,57
833,336	-0,57
833,767	-0,58
834,198	-0,56
834,628	-0,55
835,059	-0,57
835,49	-0,58
835,92	-0,56
836,351	-0,56
836,781	-0,56
837,212	-0,57
837,642	-0,57
838,072	-0,55
838,503	-0,56
838,933	-0,54
839,364	-0,54
839,794	-0,52
840,224	-0,51
840,654	-0,55
841,085	-0,55
841,515	-0,53
841,945	-0,53
842,375	-0,49
842,805	-0,48
843,235	-0,46
843,665	-0,47
844,095	-0,46
844,525	-0,49
844,955	-0,49
845,385	-0,47
845,815	-0,45
846,245	-0,48
846,675	-0,48
847,105	-0,51
847,534	-0,51
847,964	-0,49
848,394	-0,48
848,824	-0,52
849,253	-0,5
849,683	-0,5
850,112	-0,52
850,542	-0,55
850,972	-0,55
851,401	-0,54
851,831	-0,51
852,26	-0,52
852,69	-0,56
853,119	-0,55
853,548	-0,55
853,978	-0,55
854,407	-0,54
854,836	-0,54
855,266	-0,53
855,695	-0,54
856,124	-0,55
856,553	-0,56
856,983	-0,57
857,412	-0,57
857,841	-0,58
858,27	-0,58
858,699	-0,59
859,128	-0,62
859,557	-0,62
859,986	-0,64
860,415	-0,62
860,844	-0,58
861,273	-0,59
861,702	-0,6
862,13	-0,58
862,559	-0,6
862,988	-0,58
863,417	-0,56
863,845	-0,56
864,274	-0,56
864,703	-0,55
865,131	-0,56
865,56	-0,58
865,989	-0,6
866,417	-0,58
866,846	-0,58
867,274	-0,57
867,703	-0,59
868,131	-0,6
868,559	-0,6
868,988	-0,62
869,416	-0,62
869,844	-0,63
870,273	-0,66
870,701	-0,63
871,129	-0,67
871,557	-0,69
871,986	-0,69
872,414	-0,7
872,842	-0,68
873,27	-0,66
873,698	-0,62
874,126	-0,66
874,554	-0,64
874,982	-0,64
875,41	-0,66
875,838	-0,6
876,266	-0,58
876,694	-0,58
877,122	-0,57
877,549	-0,63
877,977	-0,6
878,405	-0,64
878,833	-0,6
879,26	-0,6
879,688	-0,6
880,116	-0,59
880,543	-0,57
880,971	-0,56
881,399	-0,59
881,826	-0,59
882,254	-0,56
882,681	-0,6
883,109	-0,55
883,536	-0,57
883,963	-0,58
884,391	-0,56
884,818	-0,55
885,245	-0,59
885,673	-0,6
886,1	-0,58
886,527	-0,57
886,954	-0,54
887,381	-0,56
887,809	-0,56
888,236	-0,57
888,663	-0,58
889,09	-0,63
889,517	-0,66
889,944	-0,65
890,371	-0,64
890,798	-0,65
891,225	-0,65
891,652	-0,68
892,078	-0,66
892,505	-0,69
892,932	-0,65
893,359	-0,66
893,786	-0,66
894,212	-0,61
894,639	-0,63
895,066	-0,66
895,492	-0,6
895,919	-0,6
896,346	-0,59
896,772	-0,59
897,199	-0,57
897,625	-0,59
898,052	-0,55
898,478	-0,53
898,904	-0,54
899,331	-0,53
899,757	-0,55
900,183	-0,57
900,61	-0,55
901,036	-0,55
901,462	-0,56
901,888	-0,55
902,315	-0,54
902,741	-0,59
903,167	-0,57
903,593	-0,61
904,019	-0,6
904,445	-0,56
904,871	-0,6
905,297	-0,61
905,723	-0,61
906,149	-0,6
906,575	-0,6
907,001	-0,61
907,427	-0,58
907,852	-0,58
908,278	-0,58
908,704	-0,56
909,13	-0,55
909,555	-0,55
909,981	-0,54
910,407	-0,55
910,832	-0,54
911,258	-0,54
911,684	-0,53
912,109	-0,54
912,535	-0,56
912,96	-0,52
913,386	-0,56
913,811	-0,56
914,236	-0,57
914,662	-0,55
915,087	-0,58
915,512	-0,59
915,938	-0,6
916,363	-0,6
916,788	-0,61
917,213	-0,59
917,639	-0,64
918,064	-0,61
918,489	-0,62
918,914	-0,62
919,339	-0,63
919,764	-0,6
920,189	-0,6
920,614	-0,63
921,039	-0,63
921,464	-0,59
921,889	-0,61
922,314	-0,61
922,738	-0,65
923,163	-0,66
923,588	-0,66
924,013	-0,65
924,437	-0,65
924,862	-0,65
925,287	-0,61
925,711	-0,62
926,136	-0,63
926,561	-0,62
926,985	-0,61
927,41	-0,56
927,834	-0,55
928,259	-0,53
928,683	-0,51
929,108	-0,48
929,532	-0,49
929,956	-0,5
930,381	-0,49
930,805	-0,49
931,229	-0,49
931,653	-0,47
932,078	-0,48
932,502	-0,48
932,926	-0,49
933,35	-0,48
933,774	-0,48
934,198	-0,47
934,622	-0,45
935,046	-0,46
935,47	-0,46
935,894	-0,45
936,318	-0,44
936,742	-0,44
937,166	-0,44
937,59	-0,44
938,014	-0,47
938,437	-0,47
938,861	-0,49
939,285	-0,5
939,709	-0,48
940,132	-0,49
940,556	-0,5
940,98	-0,5
941,403	-0,5
941,827	-0,5
942,25	-0,51
942,674	-0,5
943,097	-0,49
943,521	-0,49
943,944	-0,49
944,368	-0,49
944,791	-0,48
945,214	-0,49
945,638	-0,49
946,061	-0,53
946,484	-0,53
946,907	-0,51
947,331	-0,51
947,754	-0,56
948,177	-0,53
948,6	-0,53
949,023	-0,53
949,446	-0,53
949,869	-0,5
950,292	-0,51
950,715	-0,47
951,138	-0,46
951,561	-0,43
951,984	-0,44
952,407	-0,42
952,83	-0,41
953,252	-0,37
953,675	-0,37
954,098	-0,38
954,521	-0,37
954,943	-0,36
955,366	-0,37
955,789	-0,36
956,211	-0,37
956,634	-0,37
957,056	-0,35
957,479	-0,36
957,902	-0,38
958,324	-0,38
958,746	-0,37
959,169	-0,39
959,591	-0,39
960,014	-0,39
960,436	-0,39
960,858	-0,38
961,281	-0,38
961,703	-0,39
962,125	-0,39
962,547	-0,37
962,969	-0,38
963,391	-0,39
963,814	-0,4
964,236	-0,39
964,658	-0,36
965,08	-0,37
965,502	-0,36
965,924	-0,34
966,346	-0,34
966,768	-0,34
967,189	-0,35
967,611	-0,35
968,033	-0,34
968,455	-0,31
968,877	-0,32
969,298	-0,34
969,72	-0,35
970,142	-0,34
970,563	-0,36
970,985	-0,34
971,407	-0,33
971,828	-0,31
972,25	-0,3
972,671	-0,29
973,093	-0,28
973,514	-0,27
973,936	-0,25
974,357	-0,23
974,778	-0,23
975,2	-0,21
975,621	-0,2
976,042	-0,19
976,464	-0,18
976,885	-0,17
977,306	-0,17
977,727	-0,16
978,148	-0,14
978,57	-0,13
978,991	-0,11
979,412	-0,11
979,833	-0,1
980,254	-0,09
980,675	-0,09
981,096	-0,08
981,517	-0,07
981,937	-0,06
982,358	-0,05
982,779	-0,04
983,2	-0,04
983,621	-0,04
984,042	-0,02
984,462	-0,01
984,883	0,01
985,304	0,02
985,724	0,03
986,145	0,05
986,565	0,06
986,986	0,07
987,407	0,08
987,827	0,09
988,248	0,12
988,668	0,13
989,088	0,14
989,509	0,15
989,929	0,16
990,35	0,18
990,77	0,19
991,19	0,2
991,61	0,21
992,031	0,22
992,451	0,23
992,871	0,24
993,291	0,24
993,711	0,25
994,131	0,26
994,551	0,27
994,971	0,28
995,391	0,29
995,811	0,3
996,231	0,3
996,651	0,31
997,071	0,31
997,491	0,32
997,911	0,33
998,331	0,34
998,75	0,35
999,17	0,35
999,59	0,36
1000,009	0,37
1000,429	0,37
1000,849	0,38
1001,268	0,38
1001,688	0,39
1002,107	0,39
1002,527	0,39
1002,946	0,4
1003,366	0,4
1003,785	0,4
1004,205	0,41
1004,624	0,41
1005,044	0,41
1005,463	0,41
1005,882	0,42
1006,301	0,42
1006,721	0,42
1007,14	0,42
1007,559	0,42
1007,978	0,43
1008,397	0,43
1008,816	0,43
1009,235	0,43
1009,655	0,43
1010,074	0,42
1010,492	0,42
1010,911	0,42
1011,33	0,42
1011,749	0,42
1012,168	0,42
1012,587	0,42
1013,006	0,42
1013,425	0,42
1013,843	0,42
1014,262	0,42
1014,681	0,42
1015,099	0,42
1015,518	0,42
1015,937	0,42
1016,355	0,42
1016,774	0,41
1017,192	0,41
1017,611	0,41
1018,029	0,41
1018,448	0,41
1018,866	0,41
1019,285	0,41
1019,703	0,41
1020,121	0,41
1020,54	0,41
1020,958	0,41
1021,376	0,41
1021,794	0,41
1022,213	0,41
1022,631	0,41
1023,049	0,41
1023,467	0,41
1023,885	0,41
1024,303	0,41
1024,721	0,41
1025,139	0,41
1025,557	0,4
1025,975	0,4
1026,393	0,4
1026,811	0,4
1027,229	0,4
1027,647	0,4
1028,065	0,4
1028,482	0,4
1028,9	0,4
1029,318	0,4
1029,735	0,4
1030,153	0,4
1030,571	0,4
1030,988	0,4
1031,406	0,4
1031,823	0,4
1032,241	0,4
1032,659	0,4
1033,076	0,4
1033,493	0,41
1033,911	0,41
1034,328	0,41
1034,746	0,41
1035,163	0,41
1035,58	0,41
1035,997	0,41
1036,415	0,41
1036,832	0,41
1037,249	0,41
1037,666	0,41
1038,083	0,41
1038,501	0,41
1038,918	0,4
1039,335	0,41
1039,752	0,41
1040,169	0,41
1040,586	0,4
1041,003	0,4
1041,419	0,41
1041,836	0,4
1042,253	0,4
1042,67	0,4
1043,087	0,4
1043,504	0,4
1043,92	0,4
1044,337	0,4
1044,754	0,4
1045,17	0,4
1045,587	0,4
1046,004	0,4
1046,42	0,4
1046,837	0,4
1047,253	0,4
1047,67	0,4
1048,086	0,4
1048,503	0,4
1048,919	0,4
1049,335	0,4
1049,752	0,4
1050,168	0,4
1050,584	0,4
1051,001	0,4
1051,417	0,4
1051,833	0,4
1052,249	0,4
1052,665	0,4
1053,081	0,4
1053,497	0,4
1053,914	0,4
1054,33	0,41
1054,746	0,41
1055,162	0,41
1055,578	0,41
1055,993	0,41
1056,409	0,41
1056,825	0,41
1057,241	0,41
1057,657	0,41
1058,073	0,41
1058,488	0,41
1058,904	0,41
1059,32	0,41
1059,736	0,41
1060,151	0,41
1060,567	0,41
1060,982	0,41
1061,398	0,41
1061,813	0,41
1062,229	0,41
1062,644	0,41
1063,06	0,41
1063,475	0,41
1063,891	0,41
1064,306	0,4
1064,721	0,4
1065,137	0,4
1065,552	0,4
1065,967	0,4
1066,382	0,4
1066,798	0,4
1067,213	0,4
1067,628	0,4
1068,043	0,41
1068,458	0,41
1068,873	0,41
1069,288	0,41
1069,703	0,41
1070,118	0,41
1070,533	0,41
1070,948	0,41
1071,363	0,41
1071,778	0,41
1072,193	0,41
1072,607	0,41
1073,022	0,41
1073,437	0,41
1073,852	0,41
1074,266	0,41
1074,681	0,41
1075,096	0,41
1075,51	0,41
1075,925	0,41
1076,339	0,41
1076,754	0,41
1077,168	0,41
1077,583	0,4
1077,997	0,41
1078,412	0,4
1078,826	0,4
1079,24	0,4
1079,655	0,4
1080,069	0,4
1080,483	0,4
1080,897	0,4
1081,312	0,4
1081,726	0,4
1082,14	0,4
1082,554	0,4
1082,968	0,4
1083,382	0,39
1083,796	0,39
1084,21	0,39
1084,624	0,39
1085,038	0,39
1085,452	0,39
1085,866	0,39
1086,28	0,38
1086,694	0,38
1087,108	0,38
1087,521	0,38
1087,935	0,38
1088,349	0,38
1088,763	0,38
1089,176	0,37
1089,59	0,37
1090,004	0,37
1090,417	0,37
1090,831	0,36
1091,244	0,36
1091,658	0,36
1092,071	0,35
1092,485	0,35
1092,898	0,35
1093,312	0,35
1093,725	0,35
1094,138	0,34
1094,552	0,34
1094,965	0,34
1095,378	0,34
1095,791	0,33
1096,205	0,33
1096,618	0,33
1097,031	0,32
1097,444	0,32
1097,857	0,32
1098,27	0,31
1098,683	0,31
1099,096	0,31
1099,509	0,3
1099,922	0,3
1100,335	0,29
1100,748	0,28
1101,161	0,28
1101,574	0,27
1101,986	0,27
1102,399	0,27
1102,812	0,26
1103,225	0,26
1103,637	0,26
1104,05	0,25
1104,463	0,25
1104,875	0,25
1105,288	0,25
1105,7	0,24
1106,113	0,24
1106,525	0,24
1106,938	0,23
1107,35	0,23
1107,763	0,23
1108,175	0,23
1108,588	0,22
1109	0,22
1109,412	0,22
1109,824	0,22
1110,237	0,22
1110,649	0,23
1111,061	0,23
