Data from 18C-808nm-8A-cont_Absorbance__73__01502.txt Node

Date: Mon Jul 17 17:19:38 CEST 2023
User: Laser008
Spectrometer: MAYP115816
Trigger mode: 0
Integration Time (sec): 2,500000E-1
Scans to average: 10
Electric dark correction enabled: true
Nonlinearity correction enabled: true
Boxcar width: 5
XAxis mode: Wavelengths
Number of Pixels in Spectrum: 2068
>>>>>Begin Spectral Data<<<<<
198,914	-0,65
199,384	-0,46
199,855	-0,34
200,325	-0,28
200,796	-0,25
201,266	-0,2
201,737	-0,19
202,207	-0,18
202,677	-0,18
203,147	-0,16
203,618	-0,13
204,088	-0,11
204,558	-0,1
205,028	-0,1
205,498	-0,1
205,968	-0,1
206,439	-0,11
206,909	-0,09
207,379	-0,09
207,849	-0,08
208,319	-0,1
208,789	-0,1
209,258	-0,1
209,728	-0,11
210,198	-0,11
210,668	-0,11
211,138	-0,11
211,608	-0,11
212,077	-0,12
212,547	-0,12
213,017	-0,12
213,486	-0,12
213,956	-0,14
214,426	-0,15
214,895	-0,15
215,365	-0,15
215,834	-0,15
216,304	-0,16
216,773	-0,16
217,243	-0,18
217,712	-0,19
218,181	-0,19
218,651	-0,19
219,12	-0,17
219,589	-0,17
220,058	-0,17
220,528	-0,18
220,997	-0,19
221,466	-0,2
221,935	-0,2
222,404	-0,2
222,873	-0,19
223,342	-0,19
223,812	-0,19
224,281	-0,19
224,749	-0,2
225,218	-0,21
225,687	-0,21
226,156	-0,19
226,625	-0,17
227,094	-0,17
227,563	-0,17
228,031	-0,18
228,5	-0,18
228,969	-0,19
229,438	-0,18
229,906	-0,17
230,375	-0,16
230,844	-0,16
231,312	-0,16
231,781	-0,17
232,249	-0,16
232,718	-0,17
233,186	-0,14
233,655	-0,14
234,123	-0,14
234,591	-0,14
235,06	-0,14
235,528	-0,15
235,996	-0,14
236,465	-0,13
236,933	-0,13
237,401	-0,13
237,869	-0,12
238,337	-0,12
238,805	-0,11
239,274	-0,1
239,742	-0,1
240,21	-0,09
240,678	-0,09
241,146	-0,09
241,614	-0,09
242,081	-0,09
242,549	-0,1
243,017	-0,1
243,485	-0,11
243,953	-0,11
244,421	-0,11
244,888	-0,12
245,356	-0,13
245,824	-0,12
246,291	-0,13
246,759	-0,13
247,227	-0,14
247,694	-0,13
248,162	-0,12
248,629	-0,12
249,097	-0,13
249,564	-0,13
250,032	-0,14
250,499	-0,13
250,967	-0,14
251,434	-0,14
251,901	-0,13
252,369	-0,13
252,836	-0,13
253,303	-0,15
253,77	-0,17
254,237	-0,16
254,705	-0,17
255,172	-0,16
255,639	-0,16
256,106	-0,17
256,573	-0,18
257,04	-0,18
257,507	-0,18
257,974	-0,2
258,441	-0,17
258,908	-0,17
259,375	-0,18
259,841	-0,18
260,308	-0,19
260,775	-0,19
261,242	-0,18
261,709	-0,19
262,175	-0,19
262,642	-0,2
263,109	-0,19
263,575	-0,21
264,042	-0,19
264,508	-0,19
264,975	-0,2
265,441	-0,21
265,908	-0,21
266,374	-0,2
266,841	-0,2
267,307	-0,21
267,773	-0,2
268,24	-0,2
268,706	-0,19
269,172	-0,2
269,639	-0,2
270,105	-0,19
270,571	-0,2
271,037	-0,21
271,503	-0,22
271,969	-0,21
272,435	-0,21
272,902	-0,22
273,368	-0,23
273,834	-0,23
274,3	-0,23
274,765	-0,23
275,231	-0,23
275,697	-0,21
276,163	-0,21
276,629	-0,2
277,095	-0,2
277,56	-0,2
278,026	-0,2
278,492	-0,18
278,958	-0,18
279,423	-0,18
279,889	-0,17
280,354	-0,17
280,82	-0,18
281,286	-0,19
281,751	-0,2
282,217	-0,19
282,682	-0,19
283,147	-0,2
283,613	-0,21
284,078	-0,21
284,544	-0,22
285,009	-0,23
285,474	-0,23
285,939	-0,24
286,405	-0,23
286,87	-0,22
287,335	-0,22
287,8	-0,22
288,265	-0,2
288,73	-0,22
289,195	-0,24
289,66	-0,23
290,125	-0,22
290,59	-0,22
291,055	-0,21
291,52	-0,21
291,985	-0,21
292,45	-0,22
292,915	-0,22
293,38	-0,22
293,844	-0,2
294,309	-0,19
294,774	-0,19
295,239	-0,2
295,703	-0,2
296,168	-0,19
296,632	-0,18
297,097	-0,17
297,562	-0,15
298,026	-0,16
298,491	-0,16
298,955	-0,16
299,419	-0,15
299,884	-0,15
300,348	-0,15
300,813	-0,14
301,277	-0,14
301,741	-0,15
302,205	-0,16
302,67	-0,16
303,134	-0,16
303,598	-0,15
304,062	-0,15
304,526	-0,14
304,99	-0,15
305,454	-0,15
305,919	-0,15
306,383	-0,15
306,847	-0,14
307,31	-0,14
307,774	-0,15
308,238	-0,14
308,702	-0,14
309,166	-0,16
309,63	-0,16
310,094	-0,13
310,557	-0,12
311,021	-0,12
311,485	-0,12
311,948	-0,12
312,412	-0,11
312,876	-0,11
313,339	-0,12
313,803	-0,12
314,266	-0,11
314,73	-0,11
315,193	-0,11
315,657	-0,1
316,12	-0,1
316,584	-0,09
317,047	-0,09
317,51	-0,08
317,973	-0,08
318,437	-0,07
318,9	-0,07
319,363	-0,06
319,826	-0,05
320,29	-0,06
320,753	-0,07
321,216	-0,06
321,679	-0,07
322,142	-0,06
322,605	-0,08
323,068	-0,07
323,531	-0,07
323,994	-0,06
324,457	-0,06
324,92	-0,05
325,382	-0,05
325,845	-0,04
326,308	-0,03
326,771	-0,03
327,233	-0,01
327,696	0
328,159	0
328,622	0,01
329,084	0
329,547	0,01
330,009	0,01
330,472	0,02
330,934	0,02
331,397	0,03
331,859	0,03
332,322	0,02
332,784	0,03
333,246	0,03
333,709	0,03
334,171	0,04
334,633	0,04
335,096	0,04
335,558	0,04
336,02	0,03
336,482	0,03
336,944	0,04
337,406	0,05
337,868	0,05
338,331	0,05
338,793	0,06
339,255	0,06
339,717	0,06
340,178	0,08
340,64	0,08
341,102	0,09
341,564	0,1
342,026	0,11
342,488	0,12
342,949	0,13
343,411	0,16
343,873	0,18
344,335	0,21
344,796	0,24
345,258	0,27
345,719	0,31
346,181	0,35
346,643	0,38
347,104	0,4
347,566	0,43
348,027	0,45
348,488	0,46
348,95	0,48
349,411	0,5
349,873	0,51
350,334	0,52
350,795	0,54
351,256	0,54
351,718	0,55
352,179	0,55
352,64	0,56
353,101	0,56
353,562	0,56
354,023	0,56
354,484	0,56
354,945	0,57
355,406	0,57
355,867	0,57
356,328	0,57
356,789	0,57
357,25	0,57
357,711	0,57
358,172	0,57
358,633	0,57
359,093	0,58
359,554	0,58
360,015	0,58
360,476	0,58
360,936	0,58
361,397	0,58
361,858	0,58
362,318	0,58
362,779	0,58
363,239	0,58
363,7	0,58
364,16	0,58
364,621	0,58
365,081	0,58
365,541	0,58
366,002	0,58
366,462	0,58
366,922	0,58
367,383	0,58
367,843	0,58
368,303	0,58
368,763	0,58
369,223	0,58
369,684	0,58
370,144	0,58
370,604	0,58
371,064	0,58
371,524	0,58
371,984	0,58
372,444	0,58
372,904	0,58
373,363	0,58
373,823	0,58
374,283	0,58
374,743	0,58
375,203	0,58
375,663	0,58
376,122	0,58
376,582	0,58
377,042	0,58
377,501	0,58
377,961	0,58
378,42	0,58
378,88	0,58
379,34	0,58
379,799	0,58
380,259	0,58
380,718	0,57
381,177	0,57
381,637	0,57
382,096	0,57
382,555	0,57
383,015	0,57
383,474	0,57
383,933	0,57
384,393	0,57
384,852	0,57
385,311	0,57
385,77	0,57
386,229	0,57
386,688	0,57
387,147	0,57
387,606	0,57
388,065	0,57
388,524	0,57
388,983	0,57
389,442	0,57
389,901	0,57
390,36	0,57
390,819	0,57
391,277	0,57
391,736	0,57
392,195	0,57
392,654	0,57
393,112	0,56
393,571	0,56
394,03	0,56
394,488	0,56
394,947	0,56
395,405	0,56
395,864	0,56
396,322	0,56
396,781	0,56
397,239	0,56
397,698	0,56
398,156	0,56
398,614	0,56
399,073	0,56
399,531	0,56
399,989	0,56
400,447	0,56
400,905	0,56
401,364	0,56
401,822	0,56
402,28	0,56
402,738	0,56
403,196	0,56
403,654	0,56
404,112	0,56
404,57	0,56
405,028	0,56
405,486	0,56
405,944	0,56
406,402	0,56
406,859	0,56
407,317	0,56
407,775	0,56
408,233	0,56
408,691	0,56
409,148	0,56
409,606	0,56
410,064	0,55
410,521	0,55
410,979	0,55
411,436	0,55
411,894	0,55
412,351	0,55
412,809	0,55
413,266	0,55
413,724	0,55
414,181	0,55
414,638	0,55
415,096	0,55
415,553	0,55
416,01	0,55
416,467	0,55
416,925	0,55
417,382	0,55
417,839	0,55
418,296	0,55
418,753	0,55
419,21	0,55
419,667	0,55
420,124	0,55
420,581	0,55
421,038	0,55
421,495	0,55
421,952	0,55
422,409	0,55
422,866	0,55
423,322	0,55
423,779	0,55
424,236	0,55
424,693	0,55
425,149	0,55
425,606	0,55
426,063	0,55
426,519	0,55
426,976	0,55
427,433	0,55
427,889	0,55
428,346	0,55
428,802	0,55
429,258	0,55
429,715	0,55
430,171	0,55
430,628	0,55
431,084	0,55
431,54	0,55
431,997	0,55
432,453	0,55
432,909	0,55
433,365	0,55
433,821	0,55
434,277	0,54
434,734	0,54
435,19	0,55
435,646	0,54
436,102	0,54
436,558	0,54
437,014	0,54
437,47	0,54
437,925	0,54
438,381	0,55
438,837	0,55
439,293	0,55
439,749	0,55
440,205	0,55
440,66	0,55
441,116	0,55
441,572	0,55
442,027	0,55
442,483	0,55
442,939	0,55
443,394	0,55
443,85	0,55
444,305	0,55
444,761	0,55
445,216	0,55
445,672	0,55
446,127	0,55
446,582	0,55
447,038	0,55
447,493	0,55
447,948	0,55
448,403	0,55
448,859	0,55
449,314	0,55
449,769	0,55
450,224	0,55
450,679	0,55
451,134	0,55
451,589	0,55
452,044	0,55
452,499	0,55
452,954	0,55
453,409	0,55
453,864	0,55
454,319	0,55
454,774	0,55
455,229	0,55
455,684	0,55
456,138	0,55
456,593	0,55
457,048	0,55
457,503	0,55
457,957	0,55
458,412	0,55
458,866	0,55
459,321	0,55
459,776	0,55
460,23	0,55
460,685	0,55
461,139	0,55
461,593	0,55
462,048	0,56
462,502	0,56
462,957	0,56
463,411	0,56
463,865	0,56
464,319	0,56
464,774	0,56
465,228	0,56
465,682	0,56
466,136	0,56
466,59	0,56
467,044	0,56
467,499	0,56
467,953	0,56
468,407	0,56
468,861	0,56
469,315	0,56
469,768	0,56
470,222	0,57
470,676	0,57
471,13	0,57
471,584	0,57
472,038	0,57
472,491	0,57
472,945	0,57
473,399	0,57
473,852	0,57
474,306	0,57
474,76	0,57
475,213	0,57
475,667	0,57
476,12	0,57
476,574	0,58
477,027	0,58
477,481	0,58
477,934	0,58
478,388	0,58
478,841	0,58
479,294	0,58
479,748	0,58
480,201	0,59
480,654	0,59
481,107	0,59
481,561	0,59
482,014	0,59
482,467	0,59
482,92	0,59
483,373	0,59
483,826	0,6
484,279	0,6
484,732	0,6
485,185	0,6
485,638	0,6
486,091	0,6
486,544	0,61
486,997	0,61
487,449	0,61
487,902	0,61
488,355	0,61
488,808	0,61
489,26	0,62
489,713	0,62
490,166	0,62
490,618	0,62
491,071	0,62
491,523	0,63
491,976	0,63
492,429	0,63
492,881	0,63
493,333	0,64
493,786	0,64
494,238	0,64
494,691	0,64
495,143	0,65
495,595	0,65
496,048	0,65
496,5	0,65
496,952	0,66
497,404	0,66
497,856	0,66
498,309	0,66
498,761	0,67
499,213	0,67
499,665	0,67
500,117	0,68
500,569	0,68
501,021	0,68
501,473	0,69
501,925	0,69
502,377	0,69
502,828	0,7
503,28	0,7
503,732	0,7
504,184	0,71
504,636	0,71
505,087	0,71
505,539	0,71
505,991	0,72
506,442	0,72
506,894	0,72
507,345	0,73
507,797	0,73
508,249	0,73
508,7	0,74
509,151	0,74
509,603	0,74
510,054	0,75
510,506	0,75
510,957	0,75
511,408	0,76
511,86	0,76
512,311	0,76
512,762	0,76
513,213	0,77
513,665	0,77
514,116	0,77
514,567	0,78
515,018	0,78
515,469	0,78
515,92	0,78
516,371	0,79
516,822	0,79
517,273	0,79
517,724	0,79
518,175	0,8
518,626	0,8
519,076	0,8
519,527	0,8
519,978	0,8
520,429	0,81
520,88	0,81
521,33	0,81
521,781	0,81
522,232	0,81
522,682	0,81
523,133	0,81
523,583	0,82
524,034	0,82
524,484	0,82
524,935	0,82
525,385	0,82
525,836	0,82
526,286	0,82
526,736	0,82
527,187	0,82
527,637	0,82
528,087	0,82
528,538	0,82
528,988	0,82
529,438	0,82
529,888	0,82
530,338	0,81
530,788	0,81
531,238	0,81
531,688	0,81
532,139	0,81
532,589	0,81
533,038	0,81
533,488	0,81
533,938	0,81
534,388	0,8
534,838	0,8
535,288	0,8
535,738	0,8
536,187	0,8
536,637	0,79
537,087	0,79
537,537	0,79
537,986	0,79
538,436	0,78
538,885	0,78
539,335	0,78
539,785	0,77
540,234	0,77
540,684	0,77
541,133	0,76
541,582	0,76
542,032	0,75
542,481	0,75
542,931	0,75
543,38	0,74
543,829	0,74
544,278	0,74
544,728	0,73
545,177	0,73
545,626	0,73
546,075	0,72
546,524	0,72
546,973	0,72
547,422	0,71
547,871	0,71
548,32	0,71
548,769	0,71
549,218	0,71
549,667	0,7
550,116	0,7
550,565	0,7
551,014	0,69
551,463	0,69
551,911	0,69
552,36	0,68
552,809	0,68
553,258	0,68
553,706	0,67
554,155	0,67
554,603	0,67
555,052	0,66
555,501	0,66
555,949	0,66
556,398	0,65
556,846	0,65
557,294	0,65
557,743	0,64
558,191	0,64
558,64	0,64
559,088	0,63
559,536	0,63
559,985	0,62
560,433	0,62
560,881	0,62
561,329	0,61
561,777	0,61
562,225	0,61
562,674	0,61
563,122	0,6
563,57	0,6
564,018	0,6
564,466	0,6
564,914	0,59
565,362	0,59
565,809	0,59
566,257	0,58
566,705	0,58
567,153	0,58
567,601	0,57
568,048	0,57
568,496	0,57
568,944	0,57
569,392	0,56
569,839	0,56
570,287	0,56
570,734	0,56
571,182	0,55
571,63	0,55
572,077	0,55
572,525	0,54
572,972	0,54
573,419	0,54
573,867	0,54
574,314	0,53
574,761	0,53
575,209	0,53
575,656	0,52
576,103	0,52
576,551	0,52
576,998	0,52
577,445	0,52
577,892	0,51
578,339	0,51
578,786	0,51
579,233	0,51
579,68	0,51
580,127	0,5
580,574	0,5
581,021	0,5
581,468	0,5
581,915	0,49
582,362	0,49
582,809	0,49
583,255	0,49
583,702	0,49
584,149	0,49
584,596	0,49
585,042	0,48
585,489	0,48
585,936	0,48
586,382	0,48
586,829	0,48
587,275	0,48
587,722	0,47
588,168	0,47
588,615	0,47
589,061	0,47
589,508	0,47
589,954	0,47
590,4	0,47
590,847	0,46
591,293	0,46
591,739	0,46
592,185	0,46
592,632	0,46
593,078	0,46
593,524	0,46
593,97	0,46
594,416	0,45
594,862	0,45
595,308	0,45
595,754	0,45
596,2	0,45
596,646	0,45
597,092	0,45
597,538	0,45
597,984	0,45
598,43	0,44
598,876	0,44
599,321	0,44
599,767	0,44
600,213	0,44
600,659	0,44
601,104	0,44
601,55	0,44
601,995	0,44
602,441	0,44
602,887	0,43
603,332	0,43
603,778	0,43
604,223	0,43
604,668	0,43
605,114	0,43
605,559	0,43
606,005	0,43
606,45	0,43
606,895	0,43
607,341	0,43
607,786	0,43
608,231	0,42
608,676	0,42
609,121	0,42
609,566	0,41
610,012	0,41
610,457	0,41
610,902	0,4
611,347	0,4
611,792	0,4
612,237	0,4
612,682	0,4
613,127	0,4
613,571	0,4
614,016	0,4
614,461	0,4
614,906	0,4
615,351	0,4
615,795	0,4
616,24	0,4
616,685	0,4
617,129	0,4
617,574	0,4
618,019	0,4
618,463	0,4
618,908	0,4
619,352	0,4
619,797	0,4
620,241	0,4
620,686	0,4
621,13	0,4
621,574	0,4
622,019	0,4
622,463	0,4
622,907	0,4
623,352	0,4
623,796	0,4
624,24	0,4
624,684	0,4
625,128	0,4
625,572	0,4
626,016	0,4
626,461	0,4
626,905	0,4
627,349	0,4
627,793	0,39
628,236	0,39
628,68	0,39
629,124	0,39
629,568	0,39
630,012	0,39
630,456	0,39
630,9	0,39
631,343	0,39
631,787	0,39
632,231	0,39
632,674	0,39
633,118	0,39
633,562	0,39
634,005	0,39
634,449	0,39
634,892	0,39
635,336	0,39
635,779	0,39
636,223	0,39
636,666	0,39
637,109	0,39
637,553	0,39
637,996	0,39
638,439	0,39
638,883	0,39
639,326	0,39
639,769	0,38
640,212	0,38
640,655	0,38
641,099	0,38
641,542	0,38
641,985	0,38
642,428	0,38
642,871	0,38
643,314	0,38
643,757	0,38
644,2	0,38
644,643	0,38
645,085	0,38
645,528	0,38
645,971	0,38
646,414	0,38
646,857	0,38
647,299	0,38
647,742	0,38
648,185	0,38
648,627	0,38
649,07	0,38
649,513	0,38
649,955	0,38
650,398	0,38
650,84	0,38
651,283	0,38
651,725	0,38
652,168	0,38
652,61	0,38
653,052	0,38
653,495	0,37
653,937	0,29
654,379	0,24
654,821	0,24
655,264	0,24
655,706	0,24
656,148	0,24
656,59	0,24
657,032	0,24
657,474	0,24
657,916	0,24
658,358	0,24
658,8	0,29
659,242	0,37
659,684	0,37
660,126	0,37
660,568	0,37
661,01	0,37
661,452	0,37
661,894	0,37
662,335	0,37
662,777	0,37
663,219	0,37
663,661	0,37
664,102	0,37
664,544	0,37
664,985	0,37
665,427	0,37
665,869	0,37
666,31	0,37
666,752	0,37
667,193	0,37
667,634	0,37
668,076	0,37
668,517	0,37
668,959	0,37
669,4	0,37
669,841	0,37
670,282	0,37
670,724	0,37
671,165	0,37
671,606	0,37
672,047	0,37
672,488	0,37
672,929	0,37
673,37	0,37
673,811	0,37
674,252	0,37
674,693	0,36
675,134	0,36
675,575	0,36
676,016	0,36
676,457	0,36
676,898	0,36
677,339	0,36
677,78	0,36
678,22	0,36
678,661	0,36
679,102	0,36
679,542	0,36
679,983	0,36
680,424	0,36
680,864	0,36
681,305	0,36
681,745	0,36
682,186	0,36
682,626	0,36
683,067	0,36
683,507	0,36
683,948	0,36
684,388	0,36
684,828	0,36
685,269	0,36
685,709	0,36
686,149	0,36
686,589	0,36
687,029	0,35
687,47	0,35
687,91	0,35
688,35	0,35
688,79	0,35
689,23	0,35
689,67	0,35
690,11	0,35
690,55	0,35
690,99	0,35
691,43	0,35
691,87	0,35
692,31	0,35
692,749	0,35
693,189	0,35
693,629	0,35
694,069	0,35
694,508	0,35
694,948	0,35
695,388	0,35
695,827	0,35
696,267	0,35
696,706	0,35
697,146	0,35
697,586	0,35
698,025	0,35
698,464	0,35
698,904	0,35
699,343	0,35
699,783	0,35
700,222	0,35
700,661	0,35
701,101	0,35
701,54	0,35
701,979	0,35
702,418	0,36
702,857	0,36
703,297	0,35
703,736	0,35
704,175	0,35
704,614	0,35
705,053	0,35
705,492	0,35
705,931	0,35
706,37	0,35
706,809	0,35
707,248	0,35
707,687	0,35
708,125	0,35
708,564	0,35
709,003	0,35
709,442	0,35
709,88	0,35
710,319	0,35
710,758	0,35
711,196	0,34
711,635	0,34
712,074	0,34
712,512	0,34
712,951	0,34
713,389	0,34
713,828	0,34
714,266	0,34
714,705	0,34
715,143	0,34
715,581	0,34
716,02	0,34
716,458	0,34
716,896	0,34
717,334	0,34
717,773	0,33
718,211	0,33
718,649	0,34
719,087	0,34
719,525	0,34
719,963	0,34
720,401	0,34
720,839	0,34
721,277	0,34
721,715	0,34
722,153	0,34
722,591	0,34
723,029	0,34
723,467	0,34
723,905	0,34
724,342	0,34
724,78	0,34
725,218	0,34
725,656	0,34
726,093	0,34
726,531	0,34
726,969	0,34
727,406	0,34
727,844	0,34
728,281	0,34
728,719	0,34
729,156	0,34
729,594	0,34
730,031	0,34
730,469	0,33
730,906	0,33
731,343	0,33
731,781	0,33
732,218	0,33
732,655	0,33
733,092	0,33
733,53	0,33
733,967	0,33
734,404	0,33
734,841	0,33
735,278	0,33
735,715	0,33
736,152	0,33
736,589	0,33
737,026	0,33
737,463	0,33
737,9	0,33
738,337	0,33
738,774	0,33
739,211	0,33
739,647	0,33
740,084	0,33
740,521	0,33
740,958	0,33
741,394	0,32
741,831	0,32
742,268	0,32
742,704	0,32
743,141	0,32
743,577	0,32
744,014	0,32
744,45	0,32
744,887	0,32
745,323	0,32
745,76	0,32
746,196	0,31
746,632	0,31
747,069	0,31
747,505	0,31
747,941	0,31
748,378	0,31
748,814	0,31
749,25	0,32
749,686	0,32
750,122	0,32
750,558	0,32
750,994	0,32
751,43	0,33
751,866	0,33
752,302	0,33
752,738	0,33
753,174	0,33
753,61	0,33
754,046	0,33
754,482	0,33
754,918	0,33
755,354	0,33
755,789	0,33
756,225	0,33
756,661	0,33
757,096	0,33
757,532	0,32
757,968	0,32
758,403	0,32
758,839	0,32
759,274	0,32
759,71	0,31
760,145	0,31
760,581	0,3
761,016	0,3
761,452	0,3
761,887	0,29
762,322	0,29
762,758	0,29
763,193	0,28
763,628	0,28
764,063	0,27
764,499	0,27
764,934	0,27
765,369	0,26
765,804	0,26
766,239	0,25
766,674	0,24
767,109	0,24
767,544	0,23
767,979	0,22
768,414	0,21
768,849	0,2
769,284	0,2
769,719	0,19
770,154	0,18
770,588	0,18
771,023	0,17
771,458	0,16
771,893	0,15
772,327	0,14
772,762	0,13
773,197	0,12
773,631	0,12
774,066	0,11
774,5	0,1
774,935	0,09
775,369	0,09
775,804	0,07
776,238	0,07
776,673	0,06
777,107	0,05
777,541	0,04
777,976	0,03
778,41	0,03
778,844	0,01
779,279	0,01
779,713	-0
780,147	-0,01
780,581	-0,01
781,015	-0,02
781,449	-0,02
781,883	-0,03
782,317	-0,04
782,751	-0,05
783,185	-0,06
783,619	-0,06
784,053	-0,07
784,487	-0,08
784,921	-0,08
785,355	-0,1
785,789	-0,1
786,223	-0,11
786,656	-0,12
787,09	-0,14
787,524	-0,14
787,957	-0,15
788,391	-0,17
788,825	-0,18
789,258	-0,2
789,692	-0,21
790,125	-0,23
790,559	-0,24
790,992	-0,26
791,426	-0,28
791,859	-0,3
792,293	-0,33
792,726	-0,34
793,159	-0,36
793,593	-0,38
794,026	-0,4
794,459	-0,43
794,892	-0,46
795,326	-0,48
795,759	-0,52
796,192	-0,56
796,625	-0,61
797,058	-0,63
797,491	-0,67
797,924	-0,71
798,357	-0,76
798,79	-0,8
799,223	-0,84
799,656	-0,9
800,089	-0,95
800,522	-0,99
800,955	-1,03
801,387	-1,09
801,82	-1,14
802,253	-1,21
802,686	-1,29
803,118	-1,34
803,551	-1,39
803,984	-1,44
804,416	-1,47
804,849	-1,51
805,281	-1,62
805,714	-1,96
806,146	-2,42
806,579	-2,69
807,011	-2,86
807,444	-2,96
807,876	-3,05
808,308	-3,08
808,741	-3,11
809,173	-3,16
809,605	-3,18
810,037	-3,26
810,47	-3,18
810,902	-2,99
811,334	-2,84
811,766	-2,68
812,198	-2,45
812,63	-2,02
813,062	-1,8
813,494	-1,7
813,926	-1,61
814,358	-1,55
814,79	-1,47
815,222	-1,41
815,654	-1,36
816,086	-1,3
816,518	-1,24
816,949	-1,19
817,381	-1,15
817,813	-1,13
818,245	-1,09
818,676	-1,05
819,108	-1,02
819,54	-1,01
819,971	-0,98
820,403	-0,93
820,834	-0,92
821,266	-0,87
821,697	-0,85
822,129	-0,83
822,56	-0,81
822,991	-0,79
823,423	-0,76
823,854	-0,75
824,286	-0,72
824,717	-0,71
825,148	-0,69
825,579	-0,68
826,01	-0,67
826,442	-0,66
826,873	-0,64
827,304	-0,6
827,735	-0,59
828,166	-0,59
828,597	-0,59
829,028	-0,58
829,459	-0,59
829,89	-0,59
830,321	-0,55
830,752	-0,56
831,183	-0,55
831,613	-0,54
832,044	-0,55
832,475	-0,54
832,906	-0,55
833,336	-0,56
833,767	-0,57
834,198	-0,56
834,628	-0,54
835,059	-0,57
835,49	-0,58
835,92	-0,54
836,351	-0,54
836,781	-0,54
837,212	-0,55
837,642	-0,55
838,072	-0,52
838,503	-0,52
838,933	-0,5
839,364	-0,5
839,794	-0,48
840,224	-0,47
840,654	-0,52
841,085	-0,53
841,515	-0,51
841,945	-0,52
842,375	-0,47
842,805	-0,47
843,235	-0,45
843,665	-0,47
844,095	-0,46
844,525	-0,48
844,955	-0,48
845,385	-0,45
845,815	-0,44
846,245	-0,45
846,675	-0,46
847,105	-0,48
847,534	-0,48
847,964	-0,46
848,394	-0,45
848,824	-0,47
849,253	-0,47
849,683	-0,47
850,112	-0,48
850,542	-0,51
850,972	-0,52
851,401	-0,49
851,831	-0,48
852,26	-0,49
852,69	-0,53
853,119	-0,53
853,548	-0,53
853,978	-0,53
854,407	-0,51
854,836	-0,52
855,266	-0,51
855,695	-0,52
856,124	-0,53
856,553	-0,54
856,983	-0,56
857,412	-0,55
857,841	-0,57
858,27	-0,57
858,699	-0,57
859,128	-0,61
859,557	-0,62
859,986	-0,64
860,415	-0,61
860,844	-0,59
861,273	-0,59
861,702	-0,59
862,13	-0,57
862,559	-0,59
862,988	-0,57
863,417	-0,55
863,845	-0,54
864,274	-0,55
864,703	-0,54
865,131	-0,54
865,56	-0,55
865,989	-0,56
866,417	-0,54
866,846	-0,54
867,274	-0,54
867,703	-0,55
868,131	-0,56
868,559	-0,56
868,988	-0,58
869,416	-0,57
869,844	-0,58
870,273	-0,61
870,701	-0,6
871,129	-0,64
871,557	-0,66
871,986	-0,67
872,414	-0,68
872,842	-0,65
873,27	-0,63
873,698	-0,6
874,126	-0,64
874,554	-0,62
874,982	-0,62
875,41	-0,65
875,838	-0,59
876,266	-0,57
876,694	-0,57
877,122	-0,57
877,549	-0,62
877,977	-0,59
878,405	-0,63
878,833	-0,6
879,26	-0,59
879,688	-0,59
880,116	-0,57
880,543	-0,56
880,971	-0,55
881,399	-0,57
881,826	-0,58
882,254	-0,56
882,681	-0,6
883,109	-0,55
883,536	-0,56
883,963	-0,57
884,391	-0,55
884,818	-0,53
885,245	-0,57
885,673	-0,58
886,1	-0,55
886,527	-0,55
886,954	-0,52
887,381	-0,53
887,809	-0,55
888,236	-0,56
888,663	-0,56
889,09	-0,6
889,517	-0,62
889,944	-0,62
890,371	-0,61
890,798	-0,62
891,225	-0,62
891,652	-0,64
892,078	-0,62
892,505	-0,63
892,932	-0,6
893,359	-0,6
893,786	-0,61
894,212	-0,58
894,639	-0,6
895,066	-0,61
895,492	-0,55
895,919	-0,56
896,346	-0,56
896,772	-0,57
897,199	-0,54
897,625	-0,56
898,052	-0,53
898,478	-0,51
898,904	-0,52
899,331	-0,52
899,757	-0,54
900,183	-0,57
900,61	-0,56
901,036	-0,56
901,462	-0,55
901,888	-0,55
902,315	-0,54
902,741	-0,6
903,167	-0,59
903,593	-0,62
904,019	-0,6
904,445	-0,56
904,871	-0,59
905,297	-0,6
905,723	-0,6
906,149	-0,59
906,575	-0,59
907,001	-0,59
907,427	-0,56
907,852	-0,55
908,278	-0,55
908,704	-0,54
909,13	-0,53
909,555	-0,52
909,981	-0,52
910,407	-0,53
910,832	-0,52
911,258	-0,53
911,684	-0,53
912,109	-0,54
912,535	-0,56
912,96	-0,52
913,386	-0,55
913,811	-0,55
914,236	-0,57
914,662	-0,55
915,087	-0,58
915,512	-0,59
915,938	-0,61
916,363	-0,6
916,788	-0,61
917,213	-0,58
917,639	-0,63
918,064	-0,6
918,489	-0,61
918,914	-0,61
919,339	-0,62
919,764	-0,58
920,189	-0,58
920,614	-0,59
921,039	-0,59
921,464	-0,55
921,889	-0,59
922,314	-0,6
922,738	-0,63
923,163	-0,64
923,588	-0,63
924,013	-0,63
924,437	-0,64
924,862	-0,65
925,287	-0,61
925,711	-0,61
926,136	-0,63
926,561	-0,6
926,985	-0,59
927,41	-0,56
927,834	-0,54
928,259	-0,51
928,683	-0,5
929,108	-0,47
929,532	-0,47
929,956	-0,47
930,381	-0,47
930,805	-0,47
931,229	-0,46
931,653	-0,45
932,078	-0,44
932,502	-0,45
932,926	-0,46
933,35	-0,46
933,774	-0,46
934,198	-0,44
934,622	-0,43
935,046	-0,44
935,47	-0,44
935,894	-0,44
936,318	-0,44
936,742	-0,43
937,166	-0,44
937,59	-0,43
938,014	-0,45
938,437	-0,46
938,861	-0,48
939,285	-0,48
939,709	-0,48
940,132	-0,48
940,556	-0,49
940,98	-0,49
941,403	-0,49
941,827	-0,49
942,25	-0,5
942,674	-0,49
943,097	-0,49
943,521	-0,48
943,944	-0,49
944,368	-0,49
944,791	-0,47
945,214	-0,5
945,638	-0,5
946,061	-0,52
946,484	-0,53
946,907	-0,5
947,331	-0,5
947,754	-0,53
948,177	-0,51
948,6	-0,51
949,023	-0,5
949,446	-0,5
949,869	-0,47
950,292	-0,48
950,715	-0,45
951,138	-0,44
951,561	-0,42
951,984	-0,43
952,407	-0,41
952,83	-0,4
953,252	-0,35
953,675	-0,34
954,098	-0,36
954,521	-0,34
954,943	-0,33
955,366	-0,34
955,789	-0,32
956,211	-0,34
956,634	-0,34
957,056	-0,32
957,479	-0,34
957,902	-0,36
958,324	-0,37
958,746	-0,35
959,169	-0,36
959,591	-0,36
960,014	-0,37
960,436	-0,37
960,858	-0,37
961,281	-0,37
961,703	-0,39
962,125	-0,38
962,547	-0,37
962,969	-0,38
963,391	-0,38
963,814	-0,39
964,236	-0,39
964,658	-0,36
965,08	-0,37
965,502	-0,36
965,924	-0,33
966,346	-0,32
966,768	-0,31
967,189	-0,33
967,611	-0,32
968,033	-0,31
968,455	-0,3
968,877	-0,31
969,298	-0,32
969,72	-0,33
970,142	-0,32
970,563	-0,34
970,985	-0,32
971,407	-0,31
971,828	-0,3
972,25	-0,3
972,671	-0,28
973,093	-0,29
973,514	-0,26
973,936	-0,24
974,357	-0,23
974,778	-0,23
975,2	-0,22
975,621	-0,22
976,042	-0,2
976,464	-0,19
976,885	-0,18
977,306	-0,18
977,727	-0,16
978,148	-0,17
978,57	-0,16
978,991	-0,14
979,412	-0,13
979,833	-0,12
980,254	-0,11
980,675	-0,12
981,096	-0,11
981,517	-0,1
981,937	-0,09
982,358	-0,07
982,779	-0,05
983,2	-0,05
983,621	-0,05
984,042	-0,03
984,462	-0,03
984,883	-0,01
985,304	0,01
985,724	0,02
986,145	0,03
986,565	0,04
986,986	0,04
987,407	0,05
987,827	0,06
988,248	0,08
988,668	0,09
989,088	0,1
989,509	0,11
989,929	0,11
990,35	0,12
990,77	0,14
991,19	0,14
991,61	0,16
992,031	0,16
992,451	0,17
992,871	0,17
993,291	0,18
993,711	0,19
994,131	0,19
994,551	0,2
994,971	0,21
995,391	0,21
995,811	0,21
996,231	0,21
996,651	0,22
997,071	0,23
997,491	0,23
997,911	0,24
998,331	0,24
998,75	0,25
999,17	0,25
999,59	0,26
1000,009	0,26
1000,429	0,26
1000,849	0,27
1001,268	0,27
1001,688	0,27
1002,107	0,28
1002,527	0,28
1002,946	0,28
1003,366	0,29
1003,785	0,29
1004,205	0,29
1004,624	0,29
1005,044	0,29
1005,463	0,3
1005,882	0,3
1006,301	0,3
1006,721	0,3
1007,14	0,3
1007,559	0,3
1007,978	0,3
1008,397	0,3
1008,816	0,3
1009,235	0,3
1009,655	0,3
1010,074	0,3
1010,492	0,3
1010,911	0,3
1011,33	0,3
1011,749	0,3
1012,168	0,29
1012,587	0,29
1013,006	0,29
1013,425	0,29
1013,843	0,29
1014,262	0,29
1014,681	0,29
1015,099	0,29
1015,518	0,29
1015,937	0,29
1016,355	0,29
1016,774	0,29
1017,192	0,29
1017,611	0,29
1018,029	0,29
1018,448	0,29
1018,866	0,29
1019,285	0,29
1019,703	0,29
1020,121	0,29
1020,54	0,29
1020,958	0,29
1021,376	0,29
1021,794	0,29
1022,213	0,29
1022,631	0,29
1023,049	0,29
1023,467	0,29
1023,885	0,29
1024,303	0,29
1024,721	0,28
1025,139	0,28
1025,557	0,28
1025,975	0,28
1026,393	0,28
1026,811	0,28
1027,229	0,28
1027,647	0,28
1028,065	0,28
1028,482	0,28
1028,9	0,28
1029,318	0,28
1029,735	0,28
1030,153	0,28
1030,571	0,28
1030,988	0,28
1031,406	0,28
1031,823	0,28
1032,241	0,28
1032,659	0,28
1033,076	0,28
1033,493	0,28
1033,911	0,28
1034,328	0,28
1034,746	0,28
1035,163	0,28
1035,58	0,28
1035,997	0,28
1036,415	0,28
1036,832	0,28
1037,249	0,28
1037,666	0,28
1038,083	0,28
1038,501	0,28
1038,918	0,28
1039,335	0,28
1039,752	0,28
1040,169	0,28
1040,586	0,28
1041,003	0,28
1041,419	0,28
1041,836	0,28
1042,253	0,28
1042,67	0,28
1043,087	0,28
1043,504	0,28
1043,92	0,28
1044,337	0,28
1044,754	0,28
1045,17	0,28
1045,587	0,28
1046,004	0,27
1046,42	0,27
1046,837	0,27
1047,253	0,27
1047,67	0,27
1048,086	0,27
1048,503	0,27
1048,919	0,27
1049,335	0,27
1049,752	0,27
1050,168	0,27
1050,584	0,27
1051,001	0,27
1051,417	0,27
1051,833	0,27
1052,249	0,27
1052,665	0,28
1053,081	0,28
1053,497	0,28
1053,914	0,28
1054,33	0,28
1054,746	0,28
1055,162	0,28
1055,578	0,28
1055,993	0,28
1056,409	0,28
1056,825	0,28
1057,241	0,28
1057,657	0,28
1058,073	0,28
1058,488	0,28
1058,904	0,28
1059,32	0,28
1059,736	0,28
1060,151	0,28
1060,567	0,28
1060,982	0,28
1061,398	0,28
1061,813	0,28
1062,229	0,28
1062,644	0,28
1063,06	0,28
1063,475	0,28
1063,891	0,28
1064,306	0,28
1064,721	0,28
1065,137	0,28
1065,552	0,28
1065,967	0,28
1066,382	0,28
1066,798	0,28
1067,213	0,28
1067,628	0,28
1068,043	0,28
1068,458	0,28
1068,873	0,28
1069,288	0,28
1069,703	0,28
1070,118	0,28
1070,533	0,28
1070,948	0,28
1071,363	0,28
1071,778	0,28
1072,193	0,28
1072,607	0,28
1073,022	0,28
1073,437	0,28
1073,852	0,28
1074,266	0,29
1074,681	0,29
1075,096	0,28
1075,51	0,28
1075,925	0,28
1076,339	0,28
1076,754	0,28
1077,168	0,28
1077,583	0,28
1077,997	0,28
1078,412	0,28
1078,826	0,28
1079,24	0,28
1079,655	0,28
1080,069	0,28
1080,483	0,28
1080,897	0,28
1081,312	0,27
1081,726	0,28
1082,14	0,27
1082,554	0,27
1082,968	0,27
1083,382	0,27
1083,796	0,27
1084,21	0,27
1084,624	0,27
1085,038	0,27
1085,452	0,27
1085,866	0,27
1086,28	0,27
1086,694	0,27
1087,108	0,27
1087,521	0,26
1087,935	0,26
1088,349	0,26
1088,763	0,26
1089,176	0,26
1089,59	0,26
1090,004	0,25
1090,417	0,25
1090,831	0,25
1091,244	0,24
1091,658	0,24
1092,071	0,24
1092,485	0,24
1092,898	0,24
1093,312	0,23
1093,725	0,23
1094,138	0,23
1094,552	0,23
1094,965	0,23
1095,378	0,23
1095,791	0,23
1096,205	0,22
1096,618	0,22
1097,031	0,22
1097,444	0,22
1097,857	0,22
1098,27	0,21
1098,683	0,21
1099,096	0,21
1099,509	0,21
1099,922	0,2
1100,335	0,2
1100,748	0,19
1101,161	0,19
1101,574	0,19
1101,986	0,18
1102,399	0,18
1102,812	0,18
1103,225	0,17
1103,637	0,17
1104,05	0,17
1104,463	0,17
1104,875	0,17
1105,288	0,17
1105,7	0,16
1106,113	0,16
1106,525	0,16
1106,938	0,15
1107,35	0,15
1107,763	0,15
1108,175	0,15
1108,588	0,14
1109	0,14
1109,412	0,14
1109,824	0,13
1110,237	0,13
1110,649	0,13
1111,061	0,13
