Data from 18C-808nm-8A-cont_Absorbance__179__01608.txt Node

Date: Mon Jul 17 17:24:03 CEST 2023
User: Laser008
Spectrometer: MAYP115816
Trigger mode: 0
Integration Time (sec): 2,500000E-1
Scans to average: 10
Electric dark correction enabled: true
Nonlinearity correction enabled: true
Boxcar width: 5
XAxis mode: Wavelengths
Number of Pixels in Spectrum: 2068
>>>>>Begin Spectral Data<<<<<
198,914	-0,68
199,384	-0,46
199,855	-0,32
200,325	-0,24
200,796	-0,22
201,266	-0,18
201,737	-0,18
202,207	-0,17
202,677	-0,16
203,147	-0,14
203,618	-0,12
204,088	-0,1
204,558	-0,09
205,028	-0,09
205,498	-0,1
205,968	-0,1
206,439	-0,11
206,909	-0,09
207,379	-0,09
207,849	-0,09
208,319	-0,09
208,789	-0,1
209,258	-0,1
209,728	-0,11
210,198	-0,11
210,668	-0,1
211,138	-0,09
211,608	-0,09
212,077	-0,1
212,547	-0,1
213,017	-0,11
213,486	-0,11
213,956	-0,11
214,426	-0,12
214,895	-0,13
215,365	-0,14
215,834	-0,14
216,304	-0,15
216,773	-0,15
217,243	-0,16
217,712	-0,17
218,181	-0,16
218,651	-0,16
219,12	-0,16
219,589	-0,16
220,058	-0,15
220,528	-0,16
220,997	-0,16
221,466	-0,17
221,935	-0,18
222,404	-0,18
222,873	-0,16
223,342	-0,16
223,812	-0,16
224,281	-0,16
224,749	-0,17
225,218	-0,19
225,687	-0,18
226,156	-0,17
226,625	-0,15
227,094	-0,15
227,563	-0,15
228,031	-0,17
228,5	-0,17
228,969	-0,18
229,438	-0,17
229,906	-0,15
230,375	-0,13
230,844	-0,12
231,312	-0,12
231,781	-0,13
232,249	-0,13
232,718	-0,13
233,186	-0,11
233,655	-0,12
234,123	-0,1
234,591	-0,11
235,06	-0,12
235,528	-0,13
235,996	-0,13
236,465	-0,13
236,933	-0,13
237,401	-0,12
237,869	-0,12
238,337	-0,12
238,805	-0,11
239,274	-0,11
239,742	-0,11
240,21	-0,1
240,678	-0,09
241,146	-0,09
241,614	-0,09
242,081	-0,08
242,549	-0,08
243,017	-0,09
243,485	-0,09
243,953	-0,09
244,421	-0,09
244,888	-0,09
245,356	-0,1
245,824	-0,1
246,291	-0,09
246,759	-0,1
247,227	-0,11
247,694	-0,1
248,162	-0,09
248,629	-0,08
249,097	-0,09
249,564	-0,09
250,032	-0,1
250,499	-0,1
250,967	-0,1
251,434	-0,11
251,901	-0,11
252,369	-0,11
252,836	-0,12
253,303	-0,14
253,77	-0,16
254,237	-0,15
254,705	-0,15
255,172	-0,14
255,639	-0,15
256,106	-0,17
256,573	-0,16
257,04	-0,17
257,507	-0,17
257,974	-0,18
258,441	-0,15
258,908	-0,15
259,375	-0,16
259,841	-0,16
260,308	-0,17
260,775	-0,17
261,242	-0,15
261,709	-0,15
262,175	-0,17
262,642	-0,16
263,109	-0,15
263,575	-0,16
264,042	-0,14
264,508	-0,15
264,975	-0,17
265,441	-0,17
265,908	-0,18
266,374	-0,18
266,841	-0,19
267,307	-0,19
267,773	-0,18
268,24	-0,18
268,706	-0,19
269,172	-0,2
269,639	-0,21
270,105	-0,18
270,571	-0,19
271,037	-0,19
271,503	-0,19
271,969	-0,19
272,435	-0,19
272,902	-0,2
273,368	-0,21
273,834	-0,2
274,3	-0,21
274,765	-0,2
275,231	-0,2
275,697	-0,19
276,163	-0,19
276,629	-0,18
277,095	-0,19
277,56	-0,18
278,026	-0,18
278,492	-0,17
278,958	-0,17
279,423	-0,18
279,889	-0,18
280,354	-0,19
280,82	-0,19
281,286	-0,2
281,751	-0,21
282,217	-0,19
282,682	-0,21
283,147	-0,21
283,613	-0,21
284,078	-0,21
284,544	-0,22
285,009	-0,22
285,474	-0,22
285,939	-0,24
286,405	-0,22
286,87	-0,21
287,335	-0,21
287,8	-0,2
288,265	-0,18
288,73	-0,19
289,195	-0,21
289,66	-0,21
290,125	-0,2
290,59	-0,2
291,055	-0,18
291,52	-0,18
291,985	-0,19
292,45	-0,22
292,915	-0,21
293,38	-0,23
293,844	-0,21
294,309	-0,2
294,774	-0,19
295,239	-0,2
295,703	-0,2
296,168	-0,2
296,632	-0,19
297,097	-0,18
297,562	-0,16
298,026	-0,17
298,491	-0,17
298,955	-0,16
299,419	-0,16
299,884	-0,15
300,348	-0,14
300,813	-0,14
301,277	-0,16
301,741	-0,15
302,205	-0,15
302,67	-0,14
303,134	-0,13
303,598	-0,14
304,062	-0,13
304,526	-0,13
304,99	-0,15
305,454	-0,14
305,919	-0,14
306,383	-0,13
306,847	-0,12
307,31	-0,14
307,774	-0,15
308,238	-0,15
308,702	-0,14
309,166	-0,16
309,63	-0,15
310,094	-0,12
310,557	-0,12
311,021	-0,12
311,485	-0,12
311,948	-0,12
312,412	-0,09
312,876	-0,09
313,339	-0,09
313,803	-0,1
314,266	-0,09
314,73	-0,09
315,193	-0,1
315,657	-0,08
316,12	-0,08
316,584	-0,07
317,047	-0,07
317,51	-0,06
317,973	-0,06
318,437	-0,05
318,9	-0,04
319,363	-0,03
319,826	-0,02
320,29	-0,02
320,753	-0,02
321,216	-0,02
321,679	-0,02
322,142	-0,01
322,605	-0,02
323,068	-0,02
323,531	-0,02
323,994	-0,01
324,457	-0,02
324,92	-0,01
325,382	-0,01
325,845	-0,01
326,308	-0,01
326,771	-0
327,233	0,01
327,696	0,01
328,159	0,01
328,622	0,02
329,084	0,01
329,547	0,03
330,009	0,03
330,472	0,04
330,934	0,04
331,397	0,04
331,859	0,04
332,322	0,04
332,784	0,05
333,246	0,05
333,709	0,05
334,171	0,06
334,633	0,06
335,096	0,06
335,558	0,06
336,02	0,06
336,482	0,07
336,944	0,08
337,406	0,08
337,868	0,09
338,331	0,09
338,793	0,11
339,255	0,11
339,717	0,11
340,178	0,12
340,64	0,13
341,102	0,14
341,564	0,14
342,026	0,15
342,488	0,15
342,949	0,17
343,411	0,19
343,873	0,21
344,335	0,24
344,796	0,27
345,258	0,31
345,719	0,35
346,181	0,39
346,643	0,42
347,104	0,45
347,566	0,48
348,027	0,5
348,488	0,52
348,95	0,53
349,411	0,55
349,873	0,56
350,334	0,58
350,795	0,59
351,256	0,6
351,718	0,6
352,179	0,61
352,64	0,61
353,101	0,62
353,562	0,62
354,023	0,62
354,484	0,62
354,945	0,62
355,406	0,63
355,867	0,63
356,328	0,63
356,789	0,63
357,25	0,63
357,711	0,64
358,172	0,64
358,633	0,64
359,093	0,64
359,554	0,64
360,015	0,64
360,476	0,64
360,936	0,64
361,397	0,64
361,858	0,64
362,318	0,64
362,779	0,64
363,239	0,65
363,7	0,65
364,16	0,65
364,621	0,65
365,081	0,65
365,541	0,65
366,002	0,65
366,462	0,65
366,922	0,64
367,383	0,64
367,843	0,64
368,303	0,65
368,763	0,65
369,223	0,65
369,684	0,65
370,144	0,65
370,604	0,65
371,064	0,65
371,524	0,65
371,984	0,65
372,444	0,65
372,904	0,64
373,363	0,64
373,823	0,64
374,283	0,64
374,743	0,64
375,203	0,64
375,663	0,64
376,122	0,64
376,582	0,64
377,042	0,64
377,501	0,64
377,961	0,64
378,42	0,64
378,88	0,64
379,34	0,64
379,799	0,64
380,259	0,64
380,718	0,64
381,177	0,64
381,637	0,64
382,096	0,64
382,555	0,64
383,015	0,64
383,474	0,64
383,933	0,64
384,393	0,64
384,852	0,64
385,311	0,64
385,77	0,64
386,229	0,64
386,688	0,63
387,147	0,63
387,606	0,63
388,065	0,63
388,524	0,63
388,983	0,63
389,442	0,63
389,901	0,63
390,36	0,63
390,819	0,63
391,277	0,63
391,736	0,63
392,195	0,63
392,654	0,63
393,112	0,63
393,571	0,63
394,03	0,63
394,488	0,63
394,947	0,63
395,405	0,63
395,864	0,63
396,322	0,63
396,781	0,63
397,239	0,63
397,698	0,63
398,156	0,63
398,614	0,63
399,073	0,63
399,531	0,63
399,989	0,63
400,447	0,63
400,905	0,62
401,364	0,62
401,822	0,62
402,28	0,62
402,738	0,62
403,196	0,62
403,654	0,62
404,112	0,62
404,57	0,62
405,028	0,62
405,486	0,62
405,944	0,62
406,402	0,62
406,859	0,62
407,317	0,62
407,775	0,62
408,233	0,62
408,691	0,62
409,148	0,62
409,606	0,62
410,064	0,62
410,521	0,62
410,979	0,62
411,436	0,62
411,894	0,62
412,351	0,62
412,809	0,62
413,266	0,62
413,724	0,62
414,181	0,62
414,638	0,62
415,096	0,62
415,553	0,62
416,01	0,62
416,467	0,62
416,925	0,62
417,382	0,62
417,839	0,62
418,296	0,62
418,753	0,62
419,21	0,62
419,667	0,62
420,124	0,62
420,581	0,61
421,038	0,61
421,495	0,61
421,952	0,61
422,409	0,61
422,866	0,61
423,322	0,61
423,779	0,61
424,236	0,61
424,693	0,61
425,149	0,61
425,606	0,61
426,063	0,62
426,519	0,62
426,976	0,61
427,433	0,61
427,889	0,61
428,346	0,61
428,802	0,61
429,258	0,61
429,715	0,61
430,171	0,61
430,628	0,61
431,084	0,61
431,54	0,61
431,997	0,61
432,453	0,61
432,909	0,61
433,365	0,61
433,821	0,61
434,277	0,61
434,734	0,61
435,19	0,61
435,646	0,61
436,102	0,61
436,558	0,61
437,014	0,61
437,47	0,61
437,925	0,61
438,381	0,61
438,837	0,61
439,293	0,61
439,749	0,61
440,205	0,61
440,66	0,61
441,116	0,61
441,572	0,61
442,027	0,61
442,483	0,61
442,939	0,61
443,394	0,61
443,85	0,61
444,305	0,61
444,761	0,61
445,216	0,61
445,672	0,61
446,127	0,61
446,582	0,61
447,038	0,61
447,493	0,61
447,948	0,61
448,403	0,61
448,859	0,61
449,314	0,62
449,769	0,62
450,224	0,62
450,679	0,62
451,134	0,62
451,589	0,62
452,044	0,62
452,499	0,62
452,954	0,62
453,409	0,62
453,864	0,62
454,319	0,62
454,774	0,62
455,229	0,62
455,684	0,62
456,138	0,62
456,593	0,62
457,048	0,62
457,503	0,62
457,957	0,62
458,412	0,62
458,866	0,62
459,321	0,62
459,776	0,62
460,23	0,62
460,685	0,62
461,139	0,62
461,593	0,62
462,048	0,62
462,502	0,62
462,957	0,62
463,411	0,62
463,865	0,63
464,319	0,63
464,774	0,63
465,228	0,63
465,682	0,63
466,136	0,63
466,59	0,63
467,044	0,63
467,499	0,63
467,953	0,63
468,407	0,63
468,861	0,63
469,315	0,63
469,768	0,63
470,222	0,63
470,676	0,63
471,13	0,63
471,584	0,64
472,038	0,64
472,491	0,64
472,945	0,64
473,399	0,64
473,852	0,64
474,306	0,64
474,76	0,64
475,213	0,64
475,667	0,64
476,12	0,64
476,574	0,65
477,027	0,65
477,481	0,65
477,934	0,65
478,388	0,65
478,841	0,65
479,294	0,65
479,748	0,65
480,201	0,66
480,654	0,66
481,107	0,66
481,561	0,66
482,014	0,66
482,467	0,66
482,92	0,66
483,373	0,67
483,826	0,67
484,279	0,67
484,732	0,67
485,185	0,67
485,638	0,67
486,091	0,68
486,544	0,68
486,997	0,68
487,449	0,68
487,902	0,68
488,355	0,69
488,808	0,69
489,26	0,69
489,713	0,69
490,166	0,69
490,618	0,7
491,071	0,7
491,523	0,7
491,976	0,7
492,429	0,71
492,881	0,71
493,333	0,71
493,786	0,71
494,238	0,72
494,691	0,72
495,143	0,72
495,595	0,73
496,048	0,73
496,5	0,73
496,952	0,73
497,404	0,74
497,856	0,74
498,309	0,74
498,761	0,75
499,213	0,75
499,665	0,75
500,117	0,76
500,569	0,76
501,021	0,76
501,473	0,77
501,925	0,77
502,377	0,77
502,828	0,78
503,28	0,78
503,732	0,78
504,184	0,79
504,636	0,79
505,087	0,79
505,539	0,8
505,991	0,8
506,442	0,8
506,894	0,81
507,345	0,81
507,797	0,81
508,249	0,82
508,7	0,82
509,151	0,82
509,603	0,83
510,054	0,83
510,506	0,83
510,957	0,84
511,408	0,84
511,86	0,84
512,311	0,85
512,762	0,85
513,213	0,85
513,665	0,86
514,116	0,86
514,567	0,86
515,018	0,86
515,469	0,87
515,92	0,87
516,371	0,87
516,822	0,88
517,273	0,88
517,724	0,88
518,175	0,88
518,626	0,89
519,076	0,89
519,527	0,89
519,978	0,89
520,429	0,89
520,88	0,9
521,33	0,9
521,781	0,9
522,232	0,9
522,682	0,9
523,133	0,9
523,583	0,9
524,034	0,91
524,484	0,91
524,935	0,91
525,385	0,91
525,836	0,91
526,286	0,91
526,736	0,91
527,187	0,91
527,637	0,91
528,087	0,91
528,538	0,91
528,988	0,91
529,438	0,91
529,888	0,91
530,338	0,9
530,788	0,9
531,238	0,9
531,688	0,9
532,139	0,9
532,589	0,9
533,038	0,9
533,488	0,9
533,938	0,9
534,388	0,89
534,838	0,89
535,288	0,89
535,738	0,89
536,187	0,88
536,637	0,88
537,087	0,88
537,537	0,87
537,986	0,87
538,436	0,87
538,885	0,86
539,335	0,86
539,785	0,85
540,234	0,85
540,684	0,85
541,133	0,84
541,582	0,84
542,032	0,84
542,481	0,83
542,931	0,83
543,38	0,82
543,829	0,82
544,278	0,82
544,728	0,81
545,177	0,81
545,626	0,81
546,075	0,8
546,524	0,8
546,973	0,8
547,422	0,79
547,871	0,79
548,32	0,79
548,769	0,78
549,218	0,78
549,667	0,78
550,116	0,77
550,565	0,77
551,014	0,77
551,463	0,76
551,911	0,76
552,36	0,76
552,809	0,75
553,258	0,75
553,706	0,74
554,155	0,74
554,603	0,74
555,052	0,73
555,501	0,73
555,949	0,73
556,398	0,72
556,846	0,72
557,294	0,72
557,743	0,71
558,191	0,71
558,64	0,7
559,088	0,7
559,536	0,69
559,985	0,69
560,433	0,69
560,881	0,68
561,329	0,68
561,777	0,68
562,225	0,67
562,674	0,67
563,122	0,67
563,57	0,66
564,018	0,66
564,466	0,66
564,914	0,65
565,362	0,65
565,809	0,65
566,257	0,64
566,705	0,64
567,153	0,64
567,601	0,63
568,048	0,63
568,496	0,63
568,944	0,63
569,392	0,62
569,839	0,62
570,287	0,62
570,734	0,61
571,182	0,61
571,63	0,61
572,077	0,6
572,525	0,6
572,972	0,6
573,419	0,6
573,867	0,59
574,314	0,59
574,761	0,59
575,209	0,58
575,656	0,58
576,103	0,58
576,551	0,58
576,998	0,57
577,445	0,57
577,892	0,57
578,339	0,57
578,786	0,56
579,233	0,56
579,68	0,56
580,127	0,56
580,574	0,56
581,021	0,55
581,468	0,55
581,915	0,55
582,362	0,55
582,809	0,54
583,255	0,54
583,702	0,54
584,149	0,54
584,596	0,54
585,042	0,53
585,489	0,53
585,936	0,53
586,382	0,53
586,829	0,53
587,275	0,53
587,722	0,52
588,168	0,52
588,615	0,52
589,061	0,52
589,508	0,52
589,954	0,52
590,4	0,51
590,847	0,51
591,293	0,51
591,739	0,51
592,185	0,51
592,632	0,51
593,078	0,51
593,524	0,5
593,97	0,5
594,416	0,5
594,862	0,5
595,308	0,5
595,754	0,5
596,2	0,5
596,646	0,5
597,092	0,49
597,538	0,49
597,984	0,49
598,43	0,49
598,876	0,49
599,321	0,49
599,767	0,49
600,213	0,49
600,659	0,49
601,104	0,49
601,55	0,48
601,995	0,48
602,441	0,48
602,887	0,48
603,332	0,48
603,778	0,48
604,223	0,48
604,668	0,48
605,114	0,48
605,559	0,47
606,005	0,47
606,45	0,47
606,895	0,47
607,341	0,47
607,786	0,47
608,231	0,47
608,676	0,47
609,121	0,46
609,566	0,46
610,012	0,45
610,457	0,45
610,902	0,45
611,347	0,44
611,792	0,44
612,237	0,44
612,682	0,44
613,127	0,44
613,571	0,44
614,016	0,44
614,461	0,44
614,906	0,45
615,351	0,45
615,795	0,45
616,24	0,45
616,685	0,45
617,129	0,45
617,574	0,45
618,019	0,45
618,463	0,45
618,908	0,45
619,352	0,45
619,797	0,45
620,241	0,45
620,686	0,44
621,13	0,44
621,574	0,44
622,019	0,44
622,463	0,44
622,907	0,44
623,352	0,44
623,796	0,44
624,24	0,44
624,684	0,44
625,128	0,44
625,572	0,44
626,016	0,44
626,461	0,44
626,905	0,44
627,349	0,44
627,793	0,44
628,236	0,44
628,68	0,44
629,124	0,43
629,568	0,43
630,012	0,43
630,456	0,43
630,9	0,43
631,343	0,43
631,787	0,43
632,231	0,43
632,674	0,43
633,118	0,43
633,562	0,43
634,005	0,43
634,449	0,43
634,892	0,43
635,336	0,43
635,779	0,43
636,223	0,43
636,666	0,43
637,109	0,43
637,553	0,43
637,996	0,43
638,439	0,43
638,883	0,43
639,326	0,43
639,769	0,43
640,212	0,43
640,655	0,43
641,099	0,42
641,542	0,42
641,985	0,42
642,428	0,42
642,871	0,42
643,314	0,42
643,757	0,42
644,2	0,42
644,643	0,42
645,085	0,42
645,528	0,42
645,971	0,42
646,414	0,42
646,857	0,42
647,299	0,42
647,742	0,42
648,185	0,42
648,627	0,42
649,07	0,42
649,513	0,42
649,955	0,42
650,398	0,42
650,84	0,42
651,283	0,42
651,725	0,42
652,168	0,42
652,61	0,42
653,052	0,42
653,495	0,42
653,937	0,33
654,379	0,27
654,821	0,28
655,264	0,28
655,706	0,28
656,148	0,28
656,59	0,28
657,032	0,28
657,474	0,28
657,916	0,28
658,358	0,27
658,8	0,33
659,242	0,41
659,684	0,41
660,126	0,41
660,568	0,41
661,01	0,41
661,452	0,41
661,894	0,41
662,335	0,41
662,777	0,41
663,219	0,41
663,661	0,41
664,102	0,41
664,544	0,41
664,985	0,41
665,427	0,41
665,869	0,41
666,31	0,41
666,752	0,41
667,193	0,41
667,634	0,41
668,076	0,41
668,517	0,41
668,959	0,41
669,4	0,41
669,841	0,41
670,282	0,41
670,724	0,41
671,165	0,41
671,606	0,41
672,047	0,41
672,488	0,41
672,929	0,41
673,37	0,41
673,811	0,41
674,252	0,41
674,693	0,4
675,134	0,4
675,575	0,4
676,016	0,4
676,457	0,4
676,898	0,4
677,339	0,4
677,78	0,4
678,22	0,4
678,661	0,4
679,102	0,4
679,542	0,4
679,983	0,4
680,424	0,4
680,864	0,4
681,305	0,4
681,745	0,4
682,186	0,4
682,626	0,4
683,067	0,4
683,507	0,4
683,948	0,4
684,388	0,4
684,828	0,4
685,269	0,4
685,709	0,4
686,149	0,4
686,589	0,4
687,029	0,39
687,47	0,39
687,91	0,39
688,35	0,39
688,79	0,39
689,23	0,39
689,67	0,39
690,11	0,39
690,55	0,39
690,99	0,39
691,43	0,39
691,87	0,39
692,31	0,39
692,749	0,39
693,189	0,39
693,629	0,39
694,069	0,39
694,508	0,39
694,948	0,39
695,388	0,38
695,827	0,39
696,267	0,39
696,706	0,39
697,146	0,39
697,586	0,39
698,025	0,39
698,464	0,39
698,904	0,39
699,343	0,39
699,783	0,39
700,222	0,39
700,661	0,39
701,101	0,39
701,54	0,39
701,979	0,39
702,418	0,39
702,857	0,39
703,297	0,39
703,736	0,39
704,175	0,39
704,614	0,39
705,053	0,39
705,492	0,39
705,931	0,39
706,37	0,39
706,809	0,39
707,248	0,39
707,687	0,39
708,125	0,39
708,564	0,39
709,003	0,39
709,442	0,39
709,88	0,39
710,319	0,39
710,758	0,38
711,196	0,38
711,635	0,38
712,074	0,38
712,512	0,38
712,951	0,38
713,389	0,38
713,828	0,38
714,266	0,38
714,705	0,38
715,143	0,38
715,581	0,38
716,02	0,38
716,458	0,38
716,896	0,38
717,334	0,38
717,773	0,38
718,211	0,38
718,649	0,38
719,087	0,38
719,525	0,38
719,963	0,38
720,401	0,38
720,839	0,38
721,277	0,38
721,715	0,38
722,153	0,38
722,591	0,38
723,029	0,38
723,467	0,38
723,905	0,38
724,342	0,38
724,78	0,38
725,218	0,38
725,656	0,38
726,093	0,38
726,531	0,38
726,969	0,38
727,406	0,38
727,844	0,38
728,281	0,38
728,719	0,38
729,156	0,38
729,594	0,38
730,031	0,38
730,469	0,37
730,906	0,37
731,343	0,37
731,781	0,37
732,218	0,37
732,655	0,37
733,092	0,37
733,53	0,37
733,967	0,37
734,404	0,37
734,841	0,37
735,278	0,37
735,715	0,37
736,152	0,37
736,589	0,37
737,026	0,37
737,463	0,36
737,9	0,36
738,337	0,36
738,774	0,36
739,211	0,36
739,647	0,36
740,084	0,36
740,521	0,36
740,958	0,36
741,394	0,36
741,831	0,36
742,268	0,36
742,704	0,36
743,141	0,36
743,577	0,36
744,014	0,36
744,45	0,36
744,887	0,36
745,323	0,36
745,76	0,36
746,196	0,36
746,632	0,35
747,069	0,35
747,505	0,35
747,941	0,35
748,378	0,35
748,814	0,35
749,25	0,36
749,686	0,36
750,122	0,36
750,558	0,36
750,994	0,36
751,43	0,36
751,866	0,36
752,302	0,37
752,738	0,37
753,174	0,37
753,61	0,37
754,046	0,37
754,482	0,37
754,918	0,37
755,354	0,37
755,789	0,37
756,225	0,37
756,661	0,36
757,096	0,36
757,532	0,36
757,968	0,36
758,403	0,36
758,839	0,36
759,274	0,35
759,71	0,35
760,145	0,35
760,581	0,34
761,016	0,34
761,452	0,33
761,887	0,33
762,322	0,33
762,758	0,32
763,193	0,32
763,628	0,31
764,063	0,31
764,499	0,3
764,934	0,29
765,369	0,29
765,804	0,28
766,239	0,27
766,674	0,27
767,109	0,26
767,544	0,26
767,979	0,25
768,414	0,24
768,849	0,24
769,284	0,23
769,719	0,22
770,154	0,21
770,588	0,21
771,023	0,2
771,458	0,19
771,893	0,18
772,327	0,17
772,762	0,16
773,197	0,15
773,631	0,14
774,066	0,13
774,5	0,13
774,935	0,12
775,369	0,11
775,804	0,1
776,238	0,09
776,673	0,08
777,107	0,07
777,541	0,06
777,976	0,05
778,41	0,05
778,844	0,03
779,279	0,03
779,713	0,02
780,147	0,01
780,581	0,01
781,015	-0
781,449	-0,01
781,883	-0,02
782,317	-0,03
782,751	-0,04
783,185	-0,05
783,619	-0,05
784,053	-0,06
784,487	-0,06
784,921	-0,07
785,355	-0,08
785,789	-0,09
786,223	-0,1
786,656	-0,11
787,09	-0,12
787,524	-0,13
787,957	-0,14
788,391	-0,16
788,825	-0,18
789,258	-0,19
789,692	-0,21
790,125	-0,22
790,559	-0,24
790,992	-0,26
791,426	-0,28
791,859	-0,29
792,293	-0,33
792,726	-0,34
793,159	-0,36
793,593	-0,37
794,026	-0,4
794,459	-0,42
794,892	-0,45
795,326	-0,48
795,759	-0,51
796,192	-0,55
796,625	-0,6
797,058	-0,62
797,491	-0,66
797,924	-0,71
798,357	-0,76
798,79	-0,8
799,223	-0,84
799,656	-0,9
800,089	-0,95
800,522	-0,99
800,955	-1,04
801,387	-1,09
801,82	-1,15
802,253	-1,21
802,686	-1,29
803,118	-1,34
803,551	-1,4
803,984	-1,44
804,416	-1,48
804,849	-1,51
805,281	-1,62
805,714	-1,97
806,146	-2,44
806,579	-2,71
807,011	-2,87
807,444	-2,96
807,876	-3,05
808,308	-3,08
808,741	-3,11
809,173	-3,16
809,605	-3,18
810,037	-3,26
810,47	-3,18
810,902	-2,98
811,334	-2,83
811,766	-2,67
812,198	-2,43
812,63	-2
813,062	-1,79
813,494	-1,69
813,926	-1,61
814,358	-1,55
814,79	-1,47
815,222	-1,41
815,654	-1,36
816,086	-1,3
816,518	-1,24
816,949	-1,19
817,381	-1,15
817,813	-1,13
818,245	-1,09
818,676	-1,04
819,108	-1,01
819,54	-0,99
819,971	-0,97
820,403	-0,92
820,834	-0,9
821,266	-0,86
821,697	-0,84
822,129	-0,82
822,56	-0,79
822,991	-0,77
823,423	-0,74
823,854	-0,73
824,286	-0,71
824,717	-0,7
825,148	-0,68
825,579	-0,67
826,01	-0,66
826,442	-0,65
826,873	-0,63
827,304	-0,6
827,735	-0,6
828,166	-0,6
828,597	-0,6
829,028	-0,59
829,459	-0,6
829,89	-0,6
830,321	-0,55
830,752	-0,56
831,183	-0,55
831,613	-0,54
832,044	-0,53
832,475	-0,51
832,906	-0,53
833,336	-0,53
833,767	-0,53
834,198	-0,52
834,628	-0,5
835,059	-0,54
835,49	-0,54
835,92	-0,52
836,351	-0,52
836,781	-0,53
837,212	-0,55
837,642	-0,55
838,072	-0,53
838,503	-0,54
838,933	-0,51
839,364	-0,51
839,794	-0,49
840,224	-0,47
840,654	-0,52
841,085	-0,53
841,515	-0,5
841,945	-0,51
842,375	-0,46
842,805	-0,45
843,235	-0,44
843,665	-0,46
844,095	-0,45
844,525	-0,47
844,955	-0,47
845,385	-0,45
845,815	-0,42
846,245	-0,44
846,675	-0,45
847,105	-0,46
847,534	-0,46
847,964	-0,44
848,394	-0,43
848,824	-0,46
849,253	-0,45
849,683	-0,46
850,112	-0,47
850,542	-0,51
850,972	-0,52
851,401	-0,49
851,831	-0,48
852,26	-0,49
852,69	-0,52
853,119	-0,52
853,548	-0,52
853,978	-0,53
854,407	-0,52
854,836	-0,53
855,266	-0,52
855,695	-0,52
856,124	-0,53
856,553	-0,54
856,983	-0,56
857,412	-0,55
857,841	-0,56
858,27	-0,57
858,699	-0,56
859,128	-0,59
859,557	-0,59
859,986	-0,6
860,415	-0,57
860,844	-0,55
861,273	-0,56
861,702	-0,56
862,13	-0,54
862,559	-0,55
862,988	-0,53
863,417	-0,53
863,845	-0,52
864,274	-0,53
864,703	-0,53
865,131	-0,54
865,56	-0,55
865,989	-0,57
866,417	-0,55
866,846	-0,56
867,274	-0,55
867,703	-0,57
868,131	-0,57
868,559	-0,57
868,988	-0,59
869,416	-0,58
869,844	-0,59
870,273	-0,61
870,701	-0,59
871,129	-0,63
871,557	-0,64
871,986	-0,65
872,414	-0,66
872,842	-0,64
873,27	-0,62
873,698	-0,59
874,126	-0,62
874,554	-0,6
874,982	-0,6
875,41	-0,63
875,838	-0,59
876,266	-0,57
876,694	-0,56
877,122	-0,55
877,549	-0,6
877,977	-0,57
878,405	-0,6
878,833	-0,57
879,26	-0,55
879,688	-0,56
880,116	-0,54
880,543	-0,52
880,971	-0,5
881,399	-0,53
881,826	-0,54
882,254	-0,53
882,681	-0,56
883,109	-0,52
883,536	-0,53
883,963	-0,55
884,391	-0,54
884,818	-0,52
885,245	-0,56
885,673	-0,58
886,1	-0,55
886,527	-0,55
886,954	-0,52
887,381	-0,53
887,809	-0,55
888,236	-0,56
888,663	-0,56
889,09	-0,6
889,517	-0,63
889,944	-0,62
890,371	-0,61
890,798	-0,61
891,225	-0,62
891,652	-0,64
892,078	-0,61
892,505	-0,64
892,932	-0,6
893,359	-0,61
893,786	-0,61
894,212	-0,57
894,639	-0,59
895,066	-0,61
895,492	-0,55
895,919	-0,55
896,346	-0,55
896,772	-0,56
897,199	-0,54
897,625	-0,56
898,052	-0,53
898,478	-0,52
898,904	-0,54
899,331	-0,54
899,757	-0,56
900,183	-0,58
900,61	-0,56
901,036	-0,57
901,462	-0,56
901,888	-0,55
902,315	-0,53
902,741	-0,59
903,167	-0,56
903,593	-0,6
904,019	-0,58
904,445	-0,54
904,871	-0,56
905,297	-0,59
905,723	-0,58
906,149	-0,58
906,575	-0,59
907,001	-0,59
907,427	-0,56
907,852	-0,56
908,278	-0,55
908,704	-0,54
909,13	-0,53
909,555	-0,52
909,981	-0,51
910,407	-0,51
910,832	-0,5
911,258	-0,5
911,684	-0,5
912,109	-0,5
912,535	-0,52
912,96	-0,48
913,386	-0,51
913,811	-0,52
914,236	-0,53
914,662	-0,51
915,087	-0,55
915,512	-0,54
915,938	-0,56
916,363	-0,55
916,788	-0,57
917,213	-0,55
917,639	-0,6
918,064	-0,57
918,489	-0,56
918,914	-0,56
919,339	-0,58
919,764	-0,55
920,189	-0,55
920,614	-0,57
921,039	-0,57
921,464	-0,53
921,889	-0,56
922,314	-0,56
922,738	-0,6
923,163	-0,61
923,588	-0,61
924,013	-0,61
924,437	-0,61
924,862	-0,62
925,287	-0,58
925,711	-0,59
926,136	-0,61
926,561	-0,59
926,985	-0,58
927,41	-0,55
927,834	-0,53
928,259	-0,51
928,683	-0,49
929,108	-0,46
929,532	-0,48
929,956	-0,48
930,381	-0,47
930,805	-0,46
931,229	-0,45
931,653	-0,43
932,078	-0,44
932,502	-0,45
932,926	-0,45
933,35	-0,45
933,774	-0,44
934,198	-0,42
934,622	-0,4
935,046	-0,41
935,47	-0,42
935,894	-0,41
936,318	-0,41
936,742	-0,41
937,166	-0,42
937,59	-0,42
938,014	-0,44
938,437	-0,45
938,861	-0,46
939,285	-0,47
939,709	-0,46
940,132	-0,45
940,556	-0,47
940,98	-0,46
941,403	-0,45
941,827	-0,45
942,25	-0,46
942,674	-0,45
943,097	-0,44
943,521	-0,44
943,944	-0,46
944,368	-0,45
944,791	-0,44
945,214	-0,46
945,638	-0,47
946,061	-0,5
946,484	-0,51
946,907	-0,49
947,331	-0,49
947,754	-0,53
948,177	-0,5
948,6	-0,51
949,023	-0,51
949,446	-0,51
949,869	-0,48
950,292	-0,48
950,715	-0,45
951,138	-0,43
951,561	-0,41
951,984	-0,42
952,407	-0,4
952,83	-0,38
953,252	-0,34
953,675	-0,34
954,098	-0,36
954,521	-0,35
954,943	-0,34
955,366	-0,34
955,789	-0,33
956,211	-0,35
956,634	-0,34
957,056	-0,32
957,479	-0,33
957,902	-0,36
958,324	-0,35
958,746	-0,33
959,169	-0,34
959,591	-0,34
960,014	-0,35
960,436	-0,36
960,858	-0,36
961,281	-0,36
961,703	-0,37
962,125	-0,37
962,547	-0,35
962,969	-0,36
963,391	-0,37
963,814	-0,39
964,236	-0,38
964,658	-0,35
965,08	-0,35
965,502	-0,35
965,924	-0,32
966,346	-0,32
966,768	-0,31
967,189	-0,33
967,611	-0,32
968,033	-0,32
968,455	-0,3
968,877	-0,31
969,298	-0,32
969,72	-0,31
970,142	-0,31
970,563	-0,31
970,985	-0,29
971,407	-0,29
971,828	-0,27
972,25	-0,26
972,671	-0,23
973,093	-0,23
973,514	-0,21
973,936	-0,2
974,357	-0,19
974,778	-0,2
975,2	-0,2
975,621	-0,19
976,042	-0,17
976,464	-0,16
976,885	-0,15
977,306	-0,15
977,727	-0,14
978,148	-0,13
978,57	-0,11
978,991	-0,1
979,412	-0,08
979,833	-0,07
980,254	-0,08
980,675	-0,09
981,096	-0,07
981,517	-0,05
981,937	-0,05
982,358	-0,04
982,779	-0,03
983,2	-0,03
983,621	-0,03
984,042	-0,02
984,462	-0,01
984,883	0,01
985,304	0,03
985,724	0,03
986,145	0,04
986,565	0,06
986,986	0,07
987,407	0,08
987,827	0,09
988,248	0,1
988,668	0,11
989,088	0,12
989,509	0,13
989,929	0,14
990,35	0,15
990,77	0,16
991,19	0,16
991,61	0,17
992,031	0,18
992,451	0,19
992,871	0,2
993,291	0,21
993,711	0,21
994,131	0,22
994,551	0,23
994,971	0,23
995,391	0,24
995,811	0,24
996,231	0,25
996,651	0,25
997,071	0,26
997,491	0,27
997,911	0,28
998,331	0,28
998,75	0,29
999,17	0,29
999,59	0,3
1000,009	0,3
1000,429	0,3
1000,849	0,31
1001,268	0,31
1001,688	0,32
1002,107	0,32
1002,527	0,32
1002,946	0,32
1003,366	0,33
1003,785	0,33
1004,205	0,33
1004,624	0,34
1005,044	0,34
1005,463	0,34
1005,882	0,34
1006,301	0,34
1006,721	0,34
1007,14	0,34
1007,559	0,34
1007,978	0,35
1008,397	0,35
1008,816	0,35
1009,235	0,35
1009,655	0,35
1010,074	0,34
1010,492	0,34
1010,911	0,34
1011,33	0,34
1011,749	0,34
1012,168	0,34
1012,587	0,34
1013,006	0,34
1013,425	0,34
1013,843	0,34
1014,262	0,34
1014,681	0,33
1015,099	0,33
1015,518	0,33
1015,937	0,33
1016,355	0,33
1016,774	0,33
1017,192	0,33
1017,611	0,33
1018,029	0,33
1018,448	0,33
1018,866	0,33
1019,285	0,33
1019,703	0,33
1020,121	0,33
1020,54	0,33
1020,958	0,33
1021,376	0,33
1021,794	0,33
1022,213	0,33
1022,631	0,33
1023,049	0,33
1023,467	0,33
1023,885	0,33
1024,303	0,33
1024,721	0,33
1025,139	0,33
1025,557	0,33
1025,975	0,33
1026,393	0,33
1026,811	0,33
1027,229	0,33
1027,647	0,33
1028,065	0,32
1028,482	0,32
1028,9	0,32
1029,318	0,32
1029,735	0,32
1030,153	0,32
1030,571	0,32
1030,988	0,32
1031,406	0,32
1031,823	0,32
1032,241	0,32
1032,659	0,32
1033,076	0,32
1033,493	0,33
1033,911	0,32
1034,328	0,32
1034,746	0,32
1035,163	0,33
1035,58	0,33
1035,997	0,33
1036,415	0,33
1036,832	0,33
1037,249	0,33
1037,666	0,33
1038,083	0,32
1038,501	0,32
1038,918	0,32
1039,335	0,32
1039,752	0,32
1040,169	0,32
1040,586	0,32
1041,003	0,32
1041,419	0,32
1041,836	0,32
1042,253	0,32
1042,67	0,32
1043,087	0,32
1043,504	0,32
1043,92	0,32
1044,337	0,32
1044,754	0,32
1045,17	0,32
1045,587	0,32
1046,004	0,32
1046,42	0,32
1046,837	0,32
1047,253	0,32
1047,67	0,32
1048,086	0,32
1048,503	0,32
1048,919	0,32
1049,335	0,32
1049,752	0,32
1050,168	0,32
1050,584	0,32
1051,001	0,32
1051,417	0,32
1051,833	0,32
1052,249	0,32
1052,665	0,32
1053,081	0,32
1053,497	0,32
1053,914	0,32
1054,33	0,33
1054,746	0,33
1055,162	0,33
1055,578	0,33
1055,993	0,33
1056,409	0,33
1056,825	0,33
1057,241	0,33
1057,657	0,33
1058,073	0,33
1058,488	0,33
1058,904	0,33
1059,32	0,33
1059,736	0,33
1060,151	0,33
1060,567	0,33
1060,982	0,33
1061,398	0,33
1061,813	0,33
1062,229	0,33
1062,644	0,33
1063,06	0,33
1063,475	0,33
1063,891	0,33
1064,306	0,32
1064,721	0,32
1065,137	0,32
1065,552	0,32
1065,967	0,32
1066,382	0,32
1066,798	0,32
1067,213	0,32
1067,628	0,32
1068,043	0,32
1068,458	0,33
1068,873	0,33
1069,288	0,33
1069,703	0,33
1070,118	0,33
1070,533	0,33
1070,948	0,33
1071,363	0,33
1071,778	0,33
1072,193	0,33
1072,607	0,33
1073,022	0,33
1073,437	0,33
1073,852	0,33
1074,266	0,33
1074,681	0,33
1075,096	0,33
1075,51	0,33
1075,925	0,33
1076,339	0,33
1076,754	0,33
1077,168	0,33
1077,583	0,32
1077,997	0,32
1078,412	0,32
1078,826	0,32
1079,24	0,32
1079,655	0,32
1080,069	0,32
1080,483	0,32
1080,897	0,32
1081,312	0,32
1081,726	0,32
1082,14	0,32
1082,554	0,32
1082,968	0,32
1083,382	0,32
1083,796	0,32
1084,21	0,32
1084,624	0,32
1085,038	0,31
1085,452	0,31
1085,866	0,31
1086,28	0,31
1086,694	0,31
1087,108	0,31
1087,521	0,31
1087,935	0,31
1088,349	0,3
1088,763	0,3
1089,176	0,3
1089,59	0,3
1090,004	0,3
1090,417	0,29
1090,831	0,29
1091,244	0,29
1091,658	0,28
1092,071	0,28
1092,485	0,28
1092,898	0,28
1093,312	0,27
1093,725	0,27
1094,138	0,27
1094,552	0,27
1094,965	0,26
1095,378	0,26
1095,791	0,26
1096,205	0,26
1096,618	0,26
1097,031	0,26
1097,444	0,25
1097,857	0,25
1098,27	0,25
1098,683	0,25
1099,096	0,25
1099,509	0,25
1099,922	0,25
1100,335	0,24
1100,748	0,24
1101,161	0,23
1101,574	0,23
1101,986	0,23
1102,399	0,23
1102,812	0,22
1103,225	0,22
1103,637	0,21
1104,05	0,21
1104,463	0,21
1104,875	0,2
1105,288	0,2
1105,7	0,19
1106,113	0,19
1106,525	0,19
1106,938	0,18
1107,35	0,18
1107,763	0,18
1108,175	0,18
1108,588	0,17
1109	0,17
1109,412	0,17
1109,824	0,18
1110,237	0,18
1110,649	0,18
1111,061	0,19
