Data from 18C-808nm-8A-cont_Absorbance__48__01477.txt Node

Date: Mon Jul 17 17:18:35 CEST 2023
User: Laser008
Spectrometer: MAYP115816
Trigger mode: 0
Integration Time (sec): 2,500000E-1
Scans to average: 10
Electric dark correction enabled: true
Nonlinearity correction enabled: true
Boxcar width: 5
XAxis mode: Wavelengths
Number of Pixels in Spectrum: 2068
>>>>>Begin Spectral Data<<<<<
198,914	-0,71
199,384	-0,48
199,855	-0,35
200,325	-0,27
200,796	-0,23
201,266	-0,19
201,737	-0,18
202,207	-0,17
202,677	-0,18
203,147	-0,16
203,618	-0,14
204,088	-0,12
204,558	-0,11
205,028	-0,1
205,498	-0,11
205,968	-0,11
206,439	-0,14
206,909	-0,13
207,379	-0,13
207,849	-0,13
208,319	-0,14
208,789	-0,14
209,258	-0,14
209,728	-0,16
210,198	-0,15
210,668	-0,15
211,138	-0,15
211,608	-0,14
212,077	-0,15
212,547	-0,13
213,017	-0,13
213,486	-0,13
213,956	-0,14
214,426	-0,14
214,895	-0,14
215,365	-0,15
215,834	-0,15
216,304	-0,15
216,773	-0,15
217,243	-0,16
217,712	-0,17
218,181	-0,17
218,651	-0,17
219,12	-0,17
219,589	-0,17
220,058	-0,16
220,528	-0,17
220,997	-0,18
221,466	-0,19
221,935	-0,19
222,404	-0,19
222,873	-0,18
223,342	-0,18
223,812	-0,17
224,281	-0,18
224,749	-0,18
225,218	-0,19
225,687	-0,19
226,156	-0,17
226,625	-0,15
227,094	-0,15
227,563	-0,16
228,031	-0,17
228,5	-0,18
228,969	-0,18
229,438	-0,17
229,906	-0,16
230,375	-0,15
230,844	-0,16
231,312	-0,16
231,781	-0,17
232,249	-0,16
232,718	-0,16
233,186	-0,14
233,655	-0,15
234,123	-0,14
234,591	-0,14
235,06	-0,14
235,528	-0,15
235,996	-0,14
236,465	-0,14
236,933	-0,14
237,401	-0,14
237,869	-0,13
238,337	-0,14
238,805	-0,12
239,274	-0,12
239,742	-0,12
240,21	-0,12
240,678	-0,11
241,146	-0,11
241,614	-0,11
242,081	-0,11
242,549	-0,11
243,017	-0,12
243,485	-0,12
243,953	-0,12
244,421	-0,11
244,888	-0,11
245,356	-0,12
245,824	-0,12
246,291	-0,11
246,759	-0,12
247,227	-0,13
247,694	-0,11
248,162	-0,11
248,629	-0,1
249,097	-0,12
249,564	-0,12
250,032	-0,13
250,499	-0,13
250,967	-0,13
251,434	-0,14
251,901	-0,14
252,369	-0,13
252,836	-0,15
253,303	-0,16
253,77	-0,18
254,237	-0,16
254,705	-0,17
255,172	-0,16
255,639	-0,17
256,106	-0,18
256,573	-0,18
257,04	-0,18
257,507	-0,19
257,974	-0,19
258,441	-0,17
258,908	-0,17
259,375	-0,18
259,841	-0,18
260,308	-0,19
260,775	-0,19
261,242	-0,18
261,709	-0,19
262,175	-0,2
262,642	-0,19
263,109	-0,19
263,575	-0,2
264,042	-0,18
264,508	-0,18
264,975	-0,19
265,441	-0,2
265,908	-0,2
266,374	-0,2
266,841	-0,2
267,307	-0,2
267,773	-0,19
268,24	-0,19
268,706	-0,2
269,172	-0,21
269,639	-0,22
270,105	-0,2
270,571	-0,2
271,037	-0,19
271,503	-0,2
271,969	-0,19
272,435	-0,19
272,902	-0,22
273,368	-0,22
273,834	-0,22
274,3	-0,22
274,765	-0,21
275,231	-0,21
275,697	-0,2
276,163	-0,2
276,629	-0,2
277,095	-0,2
277,56	-0,2
278,026	-0,19
278,492	-0,18
278,958	-0,18
279,423	-0,19
279,889	-0,18
280,354	-0,19
280,82	-0,2
281,286	-0,22
281,751	-0,22
282,217	-0,21
282,682	-0,21
283,147	-0,21
283,613	-0,22
284,078	-0,22
284,544	-0,23
285,009	-0,24
285,474	-0,24
285,939	-0,25
286,405	-0,24
286,87	-0,24
287,335	-0,23
287,8	-0,23
288,265	-0,21
288,73	-0,23
289,195	-0,24
289,66	-0,23
290,125	-0,22
290,59	-0,22
291,055	-0,2
291,52	-0,21
291,985	-0,21
292,45	-0,22
292,915	-0,22
293,38	-0,22
293,844	-0,2
294,309	-0,19
294,774	-0,18
295,239	-0,19
295,703	-0,19
296,168	-0,18
296,632	-0,18
297,097	-0,16
297,562	-0,15
298,026	-0,16
298,491	-0,16
298,955	-0,16
299,419	-0,16
299,884	-0,16
300,348	-0,15
300,813	-0,14
301,277	-0,15
301,741	-0,15
302,205	-0,15
302,67	-0,15
303,134	-0,15
303,598	-0,15
304,062	-0,15
304,526	-0,15
304,99	-0,16
305,454	-0,17
305,919	-0,17
306,383	-0,17
306,847	-0,16
307,31	-0,17
307,774	-0,17
308,238	-0,17
308,702	-0,16
309,166	-0,18
309,63	-0,17
310,094	-0,14
310,557	-0,13
311,021	-0,13
311,485	-0,13
311,948	-0,13
312,412	-0,11
312,876	-0,11
313,339	-0,11
313,803	-0,11
314,266	-0,1
314,73	-0,11
315,193	-0,11
315,657	-0,1
316,12	-0,1
316,584	-0,1
317,047	-0,1
317,51	-0,09
317,973	-0,09
318,437	-0,09
318,9	-0,08
319,363	-0,07
319,826	-0,07
320,29	-0,07
320,753	-0,07
321,216	-0,07
321,679	-0,06
322,142	-0,06
322,605	-0,07
323,068	-0,07
323,531	-0,07
323,994	-0,06
324,457	-0,06
324,92	-0,05
325,382	-0,05
325,845	-0,04
326,308	-0,04
326,771	-0,03
327,233	-0,02
327,696	-0,02
328,159	-0,02
328,622	-0,01
329,084	-0
329,547	-0
330,009	-0
330,472	0
330,934	0,01
331,397	0,01
331,859	0,02
332,322	0,02
332,784	0,03
333,246	0,04
333,709	0,03
334,171	0,03
334,633	0,04
335,096	0,03
335,558	0,03
336,02	0,02
336,482	0,03
336,944	0,03
337,406	0,04
337,868	0,04
338,331	0,05
338,793	0,06
339,255	0,06
339,717	0,07
340,178	0,08
340,64	0,08
341,102	0,09
341,564	0,1
342,026	0,1
342,488	0,1
342,949	0,11
343,411	0,13
343,873	0,16
344,335	0,18
344,796	0,21
345,258	0,24
345,719	0,28
346,181	0,32
346,643	0,35
347,104	0,37
347,566	0,4
348,027	0,42
348,488	0,44
348,95	0,45
349,411	0,46
349,873	0,48
350,334	0,49
350,795	0,5
351,256	0,51
351,718	0,51
352,179	0,52
352,64	0,52
353,101	0,52
353,562	0,52
354,023	0,52
354,484	0,53
354,945	0,53
355,406	0,53
355,867	0,53
356,328	0,53
356,789	0,54
357,25	0,54
357,711	0,54
358,172	0,54
358,633	0,54
359,093	0,54
359,554	0,54
360,015	0,54
360,476	0,54
360,936	0,54
361,397	0,54
361,858	0,54
362,318	0,54
362,779	0,54
363,239	0,54
363,7	0,54
364,16	0,54
364,621	0,54
365,081	0,54
365,541	0,54
366,002	0,54
366,462	0,54
366,922	0,54
367,383	0,54
367,843	0,54
368,303	0,54
368,763	0,54
369,223	0,54
369,684	0,54
370,144	0,54
370,604	0,54
371,064	0,54
371,524	0,54
371,984	0,54
372,444	0,54
372,904	0,54
373,363	0,54
373,823	0,54
374,283	0,54
374,743	0,54
375,203	0,54
375,663	0,54
376,122	0,53
376,582	0,53
377,042	0,53
377,501	0,53
377,961	0,53
378,42	0,53
378,88	0,53
379,34	0,53
379,799	0,53
380,259	0,53
380,718	0,53
381,177	0,53
381,637	0,53
382,096	0,53
382,555	0,53
383,015	0,53
383,474	0,53
383,933	0,53
384,393	0,53
384,852	0,53
385,311	0,53
385,77	0,53
386,229	0,53
386,688	0,53
387,147	0,53
387,606	0,53
388,065	0,53
388,524	0,53
388,983	0,53
389,442	0,52
389,901	0,52
390,36	0,52
390,819	0,52
391,277	0,52
391,736	0,52
392,195	0,52
392,654	0,52
393,112	0,52
393,571	0,52
394,03	0,52
394,488	0,52
394,947	0,52
395,405	0,52
395,864	0,52
396,322	0,52
396,781	0,52
397,239	0,52
397,698	0,52
398,156	0,52
398,614	0,52
399,073	0,52
399,531	0,52
399,989	0,52
400,447	0,52
400,905	0,52
401,364	0,52
401,822	0,52
402,28	0,52
402,738	0,52
403,196	0,52
403,654	0,52
404,112	0,52
404,57	0,52
405,028	0,52
405,486	0,51
405,944	0,51
406,402	0,51
406,859	0,51
407,317	0,51
407,775	0,51
408,233	0,51
408,691	0,51
409,148	0,51
409,606	0,51
410,064	0,51
410,521	0,51
410,979	0,51
411,436	0,51
411,894	0,51
412,351	0,51
412,809	0,51
413,266	0,51
413,724	0,51
414,181	0,51
414,638	0,51
415,096	0,51
415,553	0,51
416,01	0,51
416,467	0,51
416,925	0,51
417,382	0,51
417,839	0,51
418,296	0,51
418,753	0,51
419,21	0,51
419,667	0,51
420,124	0,51
420,581	0,51
421,038	0,51
421,495	0,51
421,952	0,51
422,409	0,51
422,866	0,51
423,322	0,51
423,779	0,51
424,236	0,51
424,693	0,51
425,149	0,51
425,606	0,51
426,063	0,51
426,519	0,51
426,976	0,51
427,433	0,51
427,889	0,51
428,346	0,51
428,802	0,51
429,258	0,51
429,715	0,51
430,171	0,5
430,628	0,5
431,084	0,5
431,54	0,5
431,997	0,5
432,453	0,5
432,909	0,5
433,365	0,5
433,821	0,5
434,277	0,5
434,734	0,5
435,19	0,5
435,646	0,5
436,102	0,5
436,558	0,5
437,014	0,5
437,47	0,5
437,925	0,5
438,381	0,5
438,837	0,5
439,293	0,5
439,749	0,5
440,205	0,5
440,66	0,5
441,116	0,5
441,572	0,5
442,027	0,5
442,483	0,5
442,939	0,5
443,394	0,5
443,85	0,5
444,305	0,5
444,761	0,5
445,216	0,5
445,672	0,5
446,127	0,5
446,582	0,5
447,038	0,5
447,493	0,5
447,948	0,5
448,403	0,5
448,859	0,5
449,314	0,5
449,769	0,51
450,224	0,51
450,679	0,51
451,134	0,51
451,589	0,51
452,044	0,51
452,499	0,51
452,954	0,51
453,409	0,51
453,864	0,51
454,319	0,51
454,774	0,51
455,229	0,51
455,684	0,51
456,138	0,51
456,593	0,51
457,048	0,51
457,503	0,51
457,957	0,51
458,412	0,51
458,866	0,51
459,321	0,51
459,776	0,51
460,23	0,51
460,685	0,51
461,139	0,51
461,593	0,51
462,048	0,51
462,502	0,51
462,957	0,51
463,411	0,51
463,865	0,51
464,319	0,51
464,774	0,51
465,228	0,52
465,682	0,52
466,136	0,52
466,59	0,52
467,044	0,52
467,499	0,52
467,953	0,52
468,407	0,52
468,861	0,52
469,315	0,52
469,768	0,52
470,222	0,52
470,676	0,52
471,13	0,52
471,584	0,52
472,038	0,52
472,491	0,52
472,945	0,52
473,399	0,52
473,852	0,53
474,306	0,53
474,76	0,53
475,213	0,53
475,667	0,53
476,12	0,53
476,574	0,53
477,027	0,53
477,481	0,53
477,934	0,53
478,388	0,53
478,841	0,54
479,294	0,54
479,748	0,54
480,201	0,54
480,654	0,54
481,107	0,54
481,561	0,54
482,014	0,55
482,467	0,55
482,92	0,55
483,373	0,55
483,826	0,55
484,279	0,55
484,732	0,55
485,185	0,56
485,638	0,56
486,091	0,56
486,544	0,56
486,997	0,56
487,449	0,56
487,902	0,56
488,355	0,57
488,808	0,57
489,26	0,57
489,713	0,57
490,166	0,57
490,618	0,58
491,071	0,58
491,523	0,58
491,976	0,58
492,429	0,59
492,881	0,59
493,333	0,59
493,786	0,59
494,238	0,59
494,691	0,6
495,143	0,6
495,595	0,6
496,048	0,6
496,5	0,61
496,952	0,61
497,404	0,61
497,856	0,62
498,309	0,62
498,761	0,62
499,213	0,62
499,665	0,63
500,117	0,63
500,569	0,63
501,021	0,64
501,473	0,64
501,925	0,64
502,377	0,65
502,828	0,65
503,28	0,65
503,732	0,66
504,184	0,66
504,636	0,66
505,087	0,67
505,539	0,67
505,991	0,67
506,442	0,67
506,894	0,68
507,345	0,68
507,797	0,68
508,249	0,69
508,7	0,69
509,151	0,69
509,603	0,7
510,054	0,7
510,506	0,7
510,957	0,7
511,408	0,71
511,86	0,71
512,311	0,71
512,762	0,72
513,213	0,72
513,665	0,72
514,116	0,72
514,567	0,73
515,018	0,73
515,469	0,73
515,92	0,74
516,371	0,74
516,822	0,74
517,273	0,74
517,724	0,75
518,175	0,75
518,626	0,75
519,076	0,75
519,527	0,75
519,978	0,75
520,429	0,76
520,88	0,76
521,33	0,76
521,781	0,76
522,232	0,76
522,682	0,76
523,133	0,76
523,583	0,77
524,034	0,77
524,484	0,77
524,935	0,77
525,385	0,77
525,836	0,77
526,286	0,77
526,736	0,77
527,187	0,77
527,637	0,77
528,087	0,77
528,538	0,77
528,988	0,77
529,438	0,77
529,888	0,77
530,338	0,77
530,788	0,77
531,238	0,77
531,688	0,76
532,139	0,76
532,589	0,76
533,038	0,76
533,488	0,76
533,938	0,76
534,388	0,76
534,838	0,76
535,288	0,75
535,738	0,75
536,187	0,75
536,637	0,75
537,087	0,74
537,537	0,74
537,986	0,74
538,436	0,73
538,885	0,73
539,335	0,73
539,785	0,72
540,234	0,72
540,684	0,72
541,133	0,71
541,582	0,71
542,032	0,71
542,481	0,7
542,931	0,7
543,38	0,7
543,829	0,69
544,278	0,69
544,728	0,69
545,177	0,68
545,626	0,68
546,075	0,68
546,524	0,67
546,973	0,67
547,422	0,67
547,871	0,67
548,32	0,66
548,769	0,66
549,218	0,66
549,667	0,66
550,116	0,65
550,565	0,65
551,014	0,65
551,463	0,64
551,911	0,64
552,36	0,64
552,809	0,63
553,258	0,63
553,706	0,63
554,155	0,62
554,603	0,62
555,052	0,62
555,501	0,61
555,949	0,61
556,398	0,61
556,846	0,61
557,294	0,6
557,743	0,6
558,191	0,6
558,64	0,59
559,088	0,59
559,536	0,58
559,985	0,58
560,433	0,58
560,881	0,57
561,329	0,57
561,777	0,57
562,225	0,56
562,674	0,56
563,122	0,56
563,57	0,56
564,018	0,55
564,466	0,55
564,914	0,55
565,362	0,54
565,809	0,54
566,257	0,54
566,705	0,53
567,153	0,53
567,601	0,53
568,048	0,53
568,496	0,52
568,944	0,52
569,392	0,52
569,839	0,52
570,287	0,51
570,734	0,51
571,182	0,51
571,63	0,5
572,077	0,5
572,525	0,5
572,972	0,5
573,419	0,49
573,867	0,49
574,314	0,49
574,761	0,49
575,209	0,48
575,656	0,48
576,103	0,48
576,551	0,48
576,998	0,47
577,445	0,47
577,892	0,47
578,339	0,47
578,786	0,47
579,233	0,46
579,68	0,46
580,127	0,46
580,574	0,46
581,021	0,46
581,468	0,45
581,915	0,45
582,362	0,45
582,809	0,45
583,255	0,45
583,702	0,45
584,149	0,44
584,596	0,44
585,042	0,44
585,489	0,44
585,936	0,44
586,382	0,44
586,829	0,43
587,275	0,43
587,722	0,43
588,168	0,43
588,615	0,43
589,061	0,43
589,508	0,42
589,954	0,42
590,4	0,42
590,847	0,42
591,293	0,42
591,739	0,42
592,185	0,42
592,632	0,42
593,078	0,41
593,524	0,41
593,97	0,41
594,416	0,41
594,862	0,41
595,308	0,41
595,754	0,41
596,2	0,41
596,646	0,41
597,092	0,4
597,538	0,4
597,984	0,4
598,43	0,4
598,876	0,4
599,321	0,4
599,767	0,4
600,213	0,4
600,659	0,4
601,104	0,4
601,55	0,39
601,995	0,39
602,441	0,39
602,887	0,39
603,332	0,39
603,778	0,39
604,223	0,39
604,668	0,39
605,114	0,39
605,559	0,39
606,005	0,39
606,45	0,39
606,895	0,39
607,341	0,38
607,786	0,38
608,231	0,38
608,676	0,38
609,121	0,38
609,566	0,37
610,012	0,37
610,457	0,37
610,902	0,36
611,347	0,36
611,792	0,36
612,237	0,36
612,682	0,36
613,127	0,36
613,571	0,36
614,016	0,36
614,461	0,36
614,906	0,36
615,351	0,36
615,795	0,36
616,24	0,36
616,685	0,36
617,129	0,36
617,574	0,36
618,019	0,36
618,463	0,36
618,908	0,36
619,352	0,36
619,797	0,36
620,241	0,36
620,686	0,36
621,13	0,36
621,574	0,36
622,019	0,36
622,463	0,36
622,907	0,36
623,352	0,36
623,796	0,36
624,24	0,35
624,684	0,35
625,128	0,35
625,572	0,35
626,016	0,35
626,461	0,35
626,905	0,35
627,349	0,35
627,793	0,35
628,236	0,35
628,68	0,35
629,124	0,35
629,568	0,35
630,012	0,35
630,456	0,35
630,9	0,35
631,343	0,35
631,787	0,35
632,231	0,35
632,674	0,35
633,118	0,35
633,562	0,35
634,005	0,35
634,449	0,35
634,892	0,35
635,336	0,35
635,779	0,35
636,223	0,35
636,666	0,35
637,109	0,34
637,553	0,34
637,996	0,34
638,439	0,34
638,883	0,34
639,326	0,34
639,769	0,34
640,212	0,34
640,655	0,34
641,099	0,34
641,542	0,34
641,985	0,34
642,428	0,34
642,871	0,34
643,314	0,34
643,757	0,34
644,2	0,34
644,643	0,34
645,085	0,34
645,528	0,34
645,971	0,33
646,414	0,33
646,857	0,33
647,299	0,33
647,742	0,33
648,185	0,33
648,627	0,33
649,07	0,33
649,513	0,33
649,955	0,33
650,398	0,33
650,84	0,33
651,283	0,33
651,725	0,33
652,168	0,33
652,61	0,33
653,052	0,33
653,495	0,33
653,937	0,26
654,379	0,21
654,821	0,21
655,264	0,21
655,706	0,21
656,148	0,21
656,59	0,21
657,032	0,21
657,474	0,21
657,916	0,21
658,358	0,21
658,8	0,26
659,242	0,33
659,684	0,33
660,126	0,33
660,568	0,33
661,01	0,33
661,452	0,33
661,894	0,33
662,335	0,33
662,777	0,33
663,219	0,33
663,661	0,32
664,102	0,32
664,544	0,32
664,985	0,32
665,427	0,32
665,869	0,32
666,31	0,32
666,752	0,32
667,193	0,32
667,634	0,32
668,076	0,32
668,517	0,32
668,959	0,33
669,4	0,33
669,841	0,33
670,282	0,33
670,724	0,33
671,165	0,33
671,606	0,33
672,047	0,33
672,488	0,33
672,929	0,33
673,37	0,32
673,811	0,32
674,252	0,32
674,693	0,32
675,134	0,32
675,575	0,32
676,016	0,32
676,457	0,32
676,898	0,32
677,339	0,32
677,78	0,32
678,22	0,32
678,661	0,32
679,102	0,32
679,542	0,32
679,983	0,32
680,424	0,32
680,864	0,32
681,305	0,32
681,745	0,32
682,186	0,32
682,626	0,32
683,067	0,32
683,507	0,32
683,948	0,32
684,388	0,32
684,828	0,32
685,269	0,32
685,709	0,31
686,149	0,31
686,589	0,31
687,029	0,31
687,47	0,31
687,91	0,31
688,35	0,31
688,79	0,31
689,23	0,31
689,67	0,31
690,11	0,31
690,55	0,31
690,99	0,31
691,43	0,31
691,87	0,31
692,31	0,31
692,749	0,31
693,189	0,31
693,629	0,31
694,069	0,31
694,508	0,3
694,948	0,3
695,388	0,3
695,827	0,31
696,267	0,31
696,706	0,31
697,146	0,31
697,586	0,31
698,025	0,31
698,464	0,31
698,904	0,31
699,343	0,31
699,783	0,31
700,222	0,31
700,661	0,31
701,101	0,31
701,54	0,31
701,979	0,31
702,418	0,31
702,857	0,31
703,297	0,31
703,736	0,31
704,175	0,31
704,614	0,31
705,053	0,31
705,492	0,31
705,931	0,31
706,37	0,31
706,809	0,31
707,248	0,31
707,687	0,3
708,125	0,3
708,564	0,3
709,003	0,3
709,442	0,3
709,88	0,3
710,319	0,3
710,758	0,3
711,196	0,3
711,635	0,3
712,074	0,3
712,512	0,3
712,951	0,3
713,389	0,3
713,828	0,3
714,266	0,3
714,705	0,3
715,143	0,3
715,581	0,29
716,02	0,29
716,458	0,29
716,896	0,29
717,334	0,29
717,773	0,29
718,211	0,29
718,649	0,29
719,087	0,29
719,525	0,29
719,963	0,29
720,401	0,29
720,839	0,29
721,277	0,29
721,715	0,29
722,153	0,29
722,591	0,29
723,029	0,29
723,467	0,29
723,905	0,29
724,342	0,29
724,78	0,29
725,218	0,29
725,656	0,29
726,093	0,29
726,531	0,29
726,969	0,29
727,406	0,3
727,844	0,29
728,281	0,29
728,719	0,29
729,156	0,29
729,594	0,29
730,031	0,29
730,469	0,29
730,906	0,29
731,343	0,29
731,781	0,29
732,218	0,29
732,655	0,29
733,092	0,29
733,53	0,29
733,967	0,29
734,404	0,29
734,841	0,29
735,278	0,29
735,715	0,29
736,152	0,29
736,589	0,29
737,026	0,29
737,463	0,29
737,9	0,29
738,337	0,29
738,774	0,28
739,211	0,28
739,647	0,28
740,084	0,28
740,521	0,28
740,958	0,28
741,394	0,28
741,831	0,28
742,268	0,28
742,704	0,28
743,141	0,28
743,577	0,28
744,014	0,28
744,45	0,28
744,887	0,27
745,323	0,27
745,76	0,27
746,196	0,27
746,632	0,27
747,069	0,27
747,505	0,27
747,941	0,27
748,378	0,27
748,814	0,27
749,25	0,27
749,686	0,28
750,122	0,28
750,558	0,28
750,994	0,28
751,43	0,28
751,866	0,29
752,302	0,29
752,738	0,29
753,174	0,29
753,61	0,29
754,046	0,29
754,482	0,29
754,918	0,29
755,354	0,29
755,789	0,29
756,225	0,29
756,661	0,29
757,096	0,29
757,532	0,29
757,968	0,28
758,403	0,28
758,839	0,28
759,274	0,28
759,71	0,28
760,145	0,27
760,581	0,27
761,016	0,26
761,452	0,26
761,887	0,26
762,322	0,25
762,758	0,25
763,193	0,25
763,628	0,24
764,063	0,24
764,499	0,23
764,934	0,23
765,369	0,22
765,804	0,22
766,239	0,21
766,674	0,21
767,109	0,2
767,544	0,2
767,979	0,19
768,414	0,19
768,849	0,18
769,284	0,17
769,719	0,16
770,154	0,16
770,588	0,16
771,023	0,14
771,458	0,14
771,893	0,13
772,327	0,12
772,762	0,12
773,197	0,11
773,631	0,1
774,066	0,1
774,5	0,09
774,935	0,08
775,369	0,07
775,804	0,06
776,238	0,05
776,673	0,04
777,107	0,03
777,541	0,02
777,976	0,02
778,41	0,01
778,844	0
779,279	-0
779,713	-0,01
780,147	-0,01
780,581	-0,02
781,015	-0,03
781,449	-0,04
781,883	-0,04
782,317	-0,06
782,751	-0,07
783,185	-0,08
783,619	-0,08
784,053	-0,09
784,487	-0,1
784,921	-0,11
785,355	-0,11
785,789	-0,11
786,223	-0,13
786,656	-0,14
787,09	-0,15
787,524	-0,15
787,957	-0,17
788,391	-0,19
788,825	-0,2
789,258	-0,21
789,692	-0,22
790,125	-0,24
790,559	-0,26
790,992	-0,28
791,426	-0,3
791,859	-0,31
792,293	-0,34
792,726	-0,35
793,159	-0,37
793,593	-0,39
794,026	-0,41
794,459	-0,44
794,892	-0,46
795,326	-0,48
795,759	-0,52
796,192	-0,56
796,625	-0,6
797,058	-0,63
797,491	-0,67
797,924	-0,71
798,357	-0,76
798,79	-0,8
799,223	-0,84
799,656	-0,89
800,089	-0,94
800,522	-0,98
800,955	-1,03
801,387	-1,08
801,82	-1,13
802,253	-1,2
802,686	-1,28
803,118	-1,33
803,551	-1,38
803,984	-1,43
804,416	-1,46
804,849	-1,49
805,281	-1,57
805,714	-1,93
806,146	-2,41
806,579	-2,68
807,011	-2,85
807,444	-2,95
807,876	-3,04
808,308	-3,08
808,741	-3,11
809,173	-3,16
809,605	-3,18
810,037	-3,26
810,47	-3,18
810,902	-2,99
811,334	-2,84
811,766	-2,69
812,198	-2,45
812,63	-2,02
813,062	-1,79
813,494	-1,69
813,926	-1,6
814,358	-1,55
814,79	-1,47
815,222	-1,41
815,654	-1,36
816,086	-1,29
816,518	-1,24
816,949	-1,19
817,381	-1,14
817,813	-1,12
818,245	-1,08
818,676	-1,04
819,108	-1,01
819,54	-1
819,971	-0,98
820,403	-0,93
820,834	-0,91
821,266	-0,87
821,697	-0,85
822,129	-0,83
822,56	-0,8
822,991	-0,78
823,423	-0,76
823,854	-0,74
824,286	-0,71
824,717	-0,7
825,148	-0,68
825,579	-0,67
826,01	-0,66
826,442	-0,65
826,873	-0,63
827,304	-0,6
827,735	-0,59
828,166	-0,59
828,597	-0,59
829,028	-0,59
829,459	-0,59
829,89	-0,6
830,321	-0,55
830,752	-0,56
831,183	-0,55
831,613	-0,54
832,044	-0,53
832,475	-0,52
832,906	-0,53
833,336	-0,54
833,767	-0,54
834,198	-0,53
834,628	-0,51
835,059	-0,54
835,49	-0,54
835,92	-0,52
836,351	-0,53
836,781	-0,53
837,212	-0,55
837,642	-0,56
838,072	-0,53
838,503	-0,54
838,933	-0,51
839,364	-0,53
839,794	-0,51
840,224	-0,51
840,654	-0,54
841,085	-0,54
841,515	-0,52
841,945	-0,52
842,375	-0,47
842,805	-0,46
843,235	-0,45
843,665	-0,47
844,095	-0,45
844,525	-0,47
844,955	-0,47
845,385	-0,45
845,815	-0,44
846,245	-0,45
846,675	-0,46
847,105	-0,48
847,534	-0,48
847,964	-0,46
848,394	-0,44
848,824	-0,46
849,253	-0,45
849,683	-0,45
850,112	-0,46
850,542	-0,49
850,972	-0,5
851,401	-0,48
851,831	-0,46
852,26	-0,47
852,69	-0,52
853,119	-0,52
853,548	-0,52
853,978	-0,53
854,407	-0,51
854,836	-0,51
855,266	-0,5
855,695	-0,52
856,124	-0,53
856,553	-0,54
856,983	-0,55
857,412	-0,54
857,841	-0,55
858,27	-0,56
858,699	-0,55
859,128	-0,59
859,557	-0,6
859,986	-0,61
860,415	-0,59
860,844	-0,56
861,273	-0,57
861,702	-0,57
862,13	-0,56
862,559	-0,58
862,988	-0,55
863,417	-0,53
863,845	-0,52
864,274	-0,52
864,703	-0,51
865,131	-0,52
865,56	-0,53
865,989	-0,56
866,417	-0,53
866,846	-0,54
867,274	-0,52
867,703	-0,55
868,131	-0,56
868,559	-0,57
868,988	-0,59
869,416	-0,58
869,844	-0,59
870,273	-0,61
870,701	-0,58
871,129	-0,62
871,557	-0,64
871,986	-0,64
872,414	-0,66
872,842	-0,63
873,27	-0,61
873,698	-0,59
874,126	-0,63
874,554	-0,61
874,982	-0,62
875,41	-0,65
875,838	-0,6
876,266	-0,57
876,694	-0,57
877,122	-0,55
877,549	-0,61
877,977	-0,59
878,405	-0,61
878,833	-0,57
879,26	-0,55
879,688	-0,54
880,116	-0,51
880,543	-0,5
880,971	-0,5
881,399	-0,53
881,826	-0,53
882,254	-0,52
882,681	-0,55
883,109	-0,51
883,536	-0,53
883,963	-0,55
884,391	-0,53
884,818	-0,52
885,245	-0,55
885,673	-0,57
886,1	-0,54
886,527	-0,54
886,954	-0,5
887,381	-0,52
887,809	-0,53
888,236	-0,54
888,663	-0,55
889,09	-0,6
889,517	-0,62
889,944	-0,62
890,371	-0,6
890,798	-0,6
891,225	-0,61
891,652	-0,63
892,078	-0,61
892,505	-0,64
892,932	-0,6
893,359	-0,6
893,786	-0,6
894,212	-0,57
894,639	-0,58
895,066	-0,61
895,492	-0,55
895,919	-0,55
896,346	-0,55
896,772	-0,55
897,199	-0,52
897,625	-0,55
898,052	-0,51
898,478	-0,49
898,904	-0,51
899,331	-0,5
899,757	-0,53
900,183	-0,54
900,61	-0,53
901,036	-0,54
901,462	-0,54
901,888	-0,54
902,315	-0,52
902,741	-0,57
903,167	-0,55
903,593	-0,58
904,019	-0,57
904,445	-0,54
904,871	-0,57
905,297	-0,59
905,723	-0,58
906,149	-0,57
906,575	-0,57
907,001	-0,58
907,427	-0,54
907,852	-0,54
908,278	-0,55
908,704	-0,53
909,13	-0,52
909,555	-0,51
909,981	-0,51
910,407	-0,51
910,832	-0,5
911,258	-0,52
911,684	-0,52
912,109	-0,52
912,535	-0,54
912,96	-0,5
913,386	-0,54
913,811	-0,54
914,236	-0,55
914,662	-0,53
915,087	-0,56
915,512	-0,56
915,938	-0,57
916,363	-0,56
916,788	-0,58
917,213	-0,56
917,639	-0,6
918,064	-0,57
918,489	-0,57
918,914	-0,58
919,339	-0,59
919,764	-0,56
920,189	-0,56
920,614	-0,58
921,039	-0,58
921,464	-0,54
921,889	-0,57
922,314	-0,57
922,738	-0,61
923,163	-0,62
923,588	-0,62
924,013	-0,63
924,437	-0,63
924,862	-0,64
925,287	-0,59
925,711	-0,6
926,136	-0,61
926,561	-0,59
926,985	-0,58
927,41	-0,54
927,834	-0,52
928,259	-0,49
928,683	-0,46
929,108	-0,44
929,532	-0,46
929,956	-0,46
930,381	-0,46
930,805	-0,45
931,229	-0,45
931,653	-0,44
932,078	-0,43
932,502	-0,45
932,926	-0,46
933,35	-0,47
933,774	-0,47
934,198	-0,44
934,622	-0,42
935,046	-0,42
935,47	-0,43
935,894	-0,43
936,318	-0,44
936,742	-0,44
937,166	-0,44
937,59	-0,43
938,014	-0,45
938,437	-0,46
938,861	-0,48
939,285	-0,49
939,709	-0,49
940,132	-0,48
940,556	-0,49
940,98	-0,49
941,403	-0,47
941,827	-0,47
942,25	-0,48
942,674	-0,47
943,097	-0,46
943,521	-0,45
943,944	-0,46
944,368	-0,46
944,791	-0,45
945,214	-0,46
945,638	-0,46
946,061	-0,49
946,484	-0,5
946,907	-0,49
947,331	-0,49
947,754	-0,53
948,177	-0,51
948,6	-0,51
949,023	-0,51
949,446	-0,51
949,869	-0,49
950,292	-0,49
950,715	-0,46
951,138	-0,44
951,561	-0,42
951,984	-0,41
952,407	-0,4
952,83	-0,39
953,252	-0,35
953,675	-0,35
954,098	-0,36
954,521	-0,35
954,943	-0,34
955,366	-0,36
955,789	-0,33
956,211	-0,36
956,634	-0,36
957,056	-0,34
957,479	-0,34
957,902	-0,36
958,324	-0,36
958,746	-0,35
959,169	-0,36
959,591	-0,37
960,014	-0,38
960,436	-0,38
960,858	-0,37
961,281	-0,37
961,703	-0,38
962,125	-0,39
962,547	-0,38
962,969	-0,38
963,391	-0,38
963,814	-0,39
964,236	-0,38
964,658	-0,34
965,08	-0,35
965,502	-0,35
965,924	-0,32
966,346	-0,32
966,768	-0,31
967,189	-0,32
967,611	-0,32
968,033	-0,32
968,455	-0,3
968,877	-0,31
969,298	-0,32
969,72	-0,33
970,142	-0,33
970,563	-0,33
970,985	-0,32
971,407	-0,32
971,828	-0,3
972,25	-0,29
972,671	-0,28
973,093	-0,28
973,514	-0,27
973,936	-0,25
974,357	-0,24
974,778	-0,24
975,2	-0,23
975,621	-0,22
976,042	-0,2
976,464	-0,2
976,885	-0,19
977,306	-0,18
977,727	-0,17
978,148	-0,16
978,57	-0,15
978,991	-0,13
979,412	-0,12
979,833	-0,1
980,254	-0,1
980,675	-0,11
981,096	-0,1
981,517	-0,08
981,937	-0,09
982,358	-0,08
982,779	-0,06
983,2	-0,06
983,621	-0,06
984,042	-0,05
984,462	-0,04
984,883	-0,04
985,304	-0,02
985,724	-0,01
986,145	-0,01
986,565	0,01
986,986	0,02
987,407	0,03
987,827	0,04
988,248	0,06
988,668	0,07
989,088	0,08
989,509	0,09
989,929	0,09
990,35	0,1
990,77	0,11
991,19	0,12
991,61	0,13
992,031	0,13
992,451	0,14
992,871	0,14
993,291	0,15
993,711	0,15
994,131	0,16
994,551	0,16
994,971	0,17
995,391	0,17
995,811	0,18
996,231	0,18
996,651	0,19
997,071	0,19
997,491	0,19
997,911	0,2
998,331	0,21
998,75	0,21
999,17	0,21
999,59	0,22
1000,009	0,22
1000,429	0,22
1000,849	0,23
1001,268	0,23
1001,688	0,24
1002,107	0,24
1002,527	0,24
1002,946	0,24
1003,366	0,25
1003,785	0,25
1004,205	0,25
1004,624	0,25
1005,044	0,25
1005,463	0,25
1005,882	0,25
1006,301	0,25
1006,721	0,26
1007,14	0,26
1007,559	0,26
1007,978	0,26
1008,397	0,26
1008,816	0,26
1009,235	0,26
1009,655	0,26
1010,074	0,26
1010,492	0,26
1010,911	0,25
1011,33	0,25
1011,749	0,25
1012,168	0,25
1012,587	0,25
1013,006	0,25
1013,425	0,25
1013,843	0,25
1014,262	0,25
1014,681	0,24
1015,099	0,24
1015,518	0,24
1015,937	0,24
1016,355	0,24
1016,774	0,24
1017,192	0,24
1017,611	0,24
1018,029	0,24
1018,448	0,25
1018,866	0,25
1019,285	0,25
1019,703	0,25
1020,121	0,25
1020,54	0,25
1020,958	0,25
1021,376	0,25
1021,794	0,25
1022,213	0,25
1022,631	0,25
1023,049	0,25
1023,467	0,25
1023,885	0,25
1024,303	0,24
1024,721	0,24
1025,139	0,24
1025,557	0,24
1025,975	0,24
1026,393	0,24
1026,811	0,24
1027,229	0,24
1027,647	0,24
1028,065	0,24
1028,482	0,24
1028,9	0,24
1029,318	0,24
1029,735	0,24
1030,153	0,24
1030,571	0,24
1030,988	0,24
1031,406	0,24
1031,823	0,24
1032,241	0,24
1032,659	0,24
1033,076	0,24
1033,493	0,24
1033,911	0,24
1034,328	0,24
1034,746	0,24
1035,163	0,24
1035,58	0,24
1035,997	0,24
1036,415	0,24
1036,832	0,24
1037,249	0,24
1037,666	0,24
1038,083	0,24
1038,501	0,24
1038,918	0,24
1039,335	0,24
1039,752	0,24
1040,169	0,24
1040,586	0,24
1041,003	0,24
1041,419	0,24
1041,836	0,24
1042,253	0,24
1042,67	0,24
1043,087	0,24
1043,504	0,24
1043,92	0,24
1044,337	0,24
1044,754	0,23
1045,17	0,23
1045,587	0,23
1046,004	0,23
1046,42	0,23
1046,837	0,23
1047,253	0,23
1047,67	0,23
1048,086	0,23
1048,503	0,23
1048,919	0,23
1049,335	0,23
1049,752	0,23
1050,168	0,23
1050,584	0,23
1051,001	0,23
1051,417	0,23
1051,833	0,23
1052,249	0,23
1052,665	0,23
1053,081	0,23
1053,497	0,23
1053,914	0,23
1054,33	0,24
1054,746	0,24
1055,162	0,24
1055,578	0,24
1055,993	0,24
1056,409	0,24
1056,825	0,24
1057,241	0,24
1057,657	0,24
1058,073	0,24
1058,488	0,24
1058,904	0,24
1059,32	0,24
1059,736	0,24
1060,151	0,24
1060,567	0,24
1060,982	0,24
1061,398	0,24
1061,813	0,24
1062,229	0,24
1062,644	0,24
1063,06	0,24
1063,475	0,24
1063,891	0,24
1064,306	0,24
1064,721	0,24
1065,137	0,23
1065,552	0,23
1065,967	0,23
1066,382	0,23
1066,798	0,23
1067,213	0,23
1067,628	0,23
1068,043	0,24
1068,458	0,24
1068,873	0,24
1069,288	0,24
1069,703	0,24
1070,118	0,24
1070,533	0,24
1070,948	0,24
1071,363	0,24
1071,778	0,24
1072,193	0,24
1072,607	0,24
1073,022	0,24
1073,437	0,24
1073,852	0,24
1074,266	0,24
1074,681	0,24
1075,096	0,24
1075,51	0,24
1075,925	0,24
1076,339	0,24
1076,754	0,24
1077,168	0,24
1077,583	0,24
1077,997	0,24
1078,412	0,24
1078,826	0,24
1079,24	0,24
1079,655	0,24
1080,069	0,24
1080,483	0,23
1080,897	0,23
1081,312	0,23
1081,726	0,23
1082,14	0,23
1082,554	0,23
1082,968	0,23
1083,382	0,23
1083,796	0,23
1084,21	0,23
1084,624	0,23
1085,038	0,23
1085,452	0,23
1085,866	0,23
1086,28	0,23
1086,694	0,23
1087,108	0,23
1087,521	0,22
1087,935	0,22
1088,349	0,22
1088,763	0,22
1089,176	0,22
1089,59	0,22
1090,004	0,21
1090,417	0,21
1090,831	0,21
1091,244	0,21
1091,658	0,2
1092,071	0,2
1092,485	0,2
1092,898	0,2
1093,312	0,2
1093,725	0,2
1094,138	0,2
1094,552	0,19
1094,965	0,19
1095,378	0,19
1095,791	0,19
1096,205	0,19
1096,618	0,19
1097,031	0,19
1097,444	0,18
1097,857	0,18
1098,27	0,18
1098,683	0,18
1099,096	0,18
1099,509	0,18
1099,922	0,17
1100,335	0,17
1100,748	0,17
1101,161	0,17
1101,574	0,16
1101,986	0,16
1102,399	0,16
1102,812	0,15
1103,225	0,15
1103,637	0,15
1104,05	0,14
1104,463	0,14
1104,875	0,14
1105,288	0,14
1105,7	0,13
1106,113	0,13
1106,525	0,13
1106,938	0,13
1107,35	0,13
1107,763	0,13
1108,175	0,12
1108,588	0,12
1109	0,12
1109,412	0,11
1109,824	0,11
1110,237	0,13
1110,649	0,12
1111,061	0,12
