Data from 18C-808nm-8A-cont_Absorbance__533__01962.txt Node

Date: Mon Jul 17 17:38:48 CEST 2023
User: Laser008
Spectrometer: MAYP115816
Trigger mode: 0
Integration Time (sec): 2,500000E-1
Scans to average: 10
Electric dark correction enabled: true
Nonlinearity correction enabled: true
Boxcar width: 5
XAxis mode: Wavelengths
Number of Pixels in Spectrum: 2068
>>>>>Begin Spectral Data<<<<<
198,914	-0,71
199,384	-0,52
199,855	-0,39
200,325	-0,3
200,796	-0,26
201,266	-0,2
201,737	-0,19
202,207	-0,18
202,677	-0,17
203,147	-0,15
203,618	-0,11
204,088	-0,1
204,558	-0,08
205,028	-0,07
205,498	-0,08
205,968	-0,09
206,439	-0,11
206,909	-0,1
207,379	-0,11
207,849	-0,11
208,319	-0,13
208,789	-0,14
209,258	-0,13
209,728	-0,15
210,198	-0,15
210,668	-0,14
211,138	-0,14
211,608	-0,14
212,077	-0,14
212,547	-0,14
213,017	-0,14
213,486	-0,14
213,956	-0,14
214,426	-0,15
214,895	-0,14
215,365	-0,14
215,834	-0,15
216,304	-0,16
216,773	-0,16
217,243	-0,17
217,712	-0,19
218,181	-0,18
218,651	-0,18
219,12	-0,19
219,589	-0,19
220,058	-0,19
220,528	-0,2
220,997	-0,2
221,466	-0,21
221,935	-0,21
222,404	-0,21
222,873	-0,19
223,342	-0,19
223,812	-0,2
224,281	-0,19
224,749	-0,19
225,218	-0,2
225,687	-0,2
226,156	-0,19
226,625	-0,18
227,094	-0,18
227,563	-0,18
228,031	-0,2
228,5	-0,2
228,969	-0,2
229,438	-0,19
229,906	-0,18
230,375	-0,18
230,844	-0,17
231,312	-0,17
231,781	-0,19
232,249	-0,18
232,718	-0,18
233,186	-0,16
233,655	-0,16
234,123	-0,15
234,591	-0,16
235,06	-0,16
235,528	-0,17
235,996	-0,16
236,465	-0,16
236,933	-0,15
237,401	-0,15
237,869	-0,14
238,337	-0,14
238,805	-0,13
239,274	-0,13
239,742	-0,13
240,21	-0,13
240,678	-0,12
241,146	-0,11
241,614	-0,12
242,081	-0,12
242,549	-0,12
243,017	-0,12
243,485	-0,12
243,953	-0,11
244,421	-0,1
244,888	-0,1
245,356	-0,11
245,824	-0,1
246,291	-0,1
246,759	-0,1
247,227	-0,1
247,694	-0,1
248,162	-0,1
248,629	-0,09
249,097	-0,11
249,564	-0,12
250,032	-0,13
250,499	-0,12
250,967	-0,13
251,434	-0,13
251,901	-0,12
252,369	-0,13
252,836	-0,14
253,303	-0,15
253,77	-0,17
254,237	-0,15
254,705	-0,15
255,172	-0,15
255,639	-0,15
256,106	-0,17
256,573	-0,17
257,04	-0,17
257,507	-0,18
257,974	-0,18
258,441	-0,15
258,908	-0,16
259,375	-0,17
259,841	-0,18
260,308	-0,18
260,775	-0,19
261,242	-0,18
261,709	-0,19
262,175	-0,2
262,642	-0,19
263,109	-0,19
263,575	-0,21
264,042	-0,19
264,508	-0,19
264,975	-0,2
265,441	-0,21
265,908	-0,22
266,374	-0,21
266,841	-0,21
267,307	-0,22
267,773	-0,21
268,24	-0,21
268,706	-0,22
269,172	-0,23
269,639	-0,23
270,105	-0,22
270,571	-0,23
271,037	-0,23
271,503	-0,23
271,969	-0,23
272,435	-0,23
272,902	-0,25
273,368	-0,25
273,834	-0,24
274,3	-0,24
274,765	-0,24
275,231	-0,24
275,697	-0,23
276,163	-0,23
276,629	-0,22
277,095	-0,23
277,56	-0,23
278,026	-0,23
278,492	-0,22
278,958	-0,22
279,423	-0,23
279,889	-0,22
280,354	-0,23
280,82	-0,22
281,286	-0,23
281,751	-0,23
282,217	-0,22
282,682	-0,22
283,147	-0,22
283,613	-0,23
284,078	-0,23
284,544	-0,24
285,009	-0,25
285,474	-0,25
285,939	-0,27
286,405	-0,26
286,87	-0,26
287,335	-0,25
287,8	-0,24
288,265	-0,23
288,73	-0,24
289,195	-0,27
289,66	-0,26
290,125	-0,24
290,59	-0,24
291,055	-0,24
291,52	-0,24
291,985	-0,25
292,45	-0,26
292,915	-0,26
293,38	-0,27
293,844	-0,24
294,309	-0,23
294,774	-0,22
295,239	-0,23
295,703	-0,24
296,168	-0,22
296,632	-0,21
297,097	-0,2
297,562	-0,18
298,026	-0,19
298,491	-0,19
298,955	-0,18
299,419	-0,17
299,884	-0,17
300,348	-0,16
300,813	-0,14
301,277	-0,15
301,741	-0,15
302,205	-0,15
302,67	-0,15
303,134	-0,14
303,598	-0,15
304,062	-0,14
304,526	-0,13
304,99	-0,14
305,454	-0,15
305,919	-0,14
306,383	-0,14
306,847	-0,14
307,31	-0,15
307,774	-0,16
308,238	-0,15
308,702	-0,15
309,166	-0,17
309,63	-0,17
310,094	-0,15
310,557	-0,14
311,021	-0,14
311,485	-0,14
311,948	-0,14
312,412	-0,14
312,876	-0,13
313,339	-0,13
313,803	-0,14
314,266	-0,13
314,73	-0,13
315,193	-0,13
315,657	-0,12
316,12	-0,12
316,584	-0,11
317,047	-0,12
317,51	-0,1
317,973	-0,1
318,437	-0,09
318,9	-0,07
319,363	-0,07
319,826	-0,05
320,29	-0,06
320,753	-0,07
321,216	-0,07
321,679	-0,07
322,142	-0,06
322,605	-0,07
323,068	-0,07
323,531	-0,07
323,994	-0,07
324,457	-0,07
324,92	-0,06
325,382	-0,06
325,845	-0,05
326,308	-0,04
326,771	-0,03
327,233	-0,02
327,696	-0,01
328,159	-0,01
328,622	0
329,084	-0
329,547	0,01
330,009	0,01
330,472	0,02
330,934	0,02
331,397	0,03
331,859	0,03
332,322	0,03
332,784	0,03
333,246	0,04
333,709	0,03
334,171	0,04
334,633	0,05
335,096	0,05
335,558	0,05
336,02	0,05
336,482	0,05
336,944	0,06
337,406	0,07
337,868	0,07
338,331	0,08
338,793	0,09
339,255	0,1
339,717	0,11
340,178	0,11
340,64	0,13
341,102	0,13
341,564	0,15
342,026	0,16
342,488	0,16
342,949	0,17
343,411	0,21
343,873	0,24
344,335	0,27
344,796	0,32
345,258	0,37
345,719	0,41
346,181	0,47
346,643	0,51
347,104	0,55
347,566	0,59
348,027	0,62
348,488	0,65
348,95	0,67
349,411	0,69
349,873	0,72
350,334	0,74
350,795	0,76
351,256	0,78
351,718	0,79
352,179	0,79
352,64	0,8
353,101	0,8
353,562	0,8
354,023	0,81
354,484	0,81
354,945	0,82
355,406	0,82
355,867	0,82
356,328	0,82
356,789	0,82
357,25	0,83
357,711	0,83
358,172	0,83
358,633	0,83
359,093	0,84
359,554	0,84
360,015	0,84
360,476	0,84
360,936	0,84
361,397	0,84
361,858	0,85
362,318	0,85
362,779	0,85
363,239	0,85
363,7	0,85
364,16	0,85
364,621	0,85
365,081	0,85
365,541	0,85
366,002	0,85
366,462	0,85
366,922	0,85
367,383	0,85
367,843	0,85
368,303	0,85
368,763	0,85
369,223	0,85
369,684	0,85
370,144	0,85
370,604	0,85
371,064	0,85
371,524	0,85
371,984	0,85
372,444	0,85
372,904	0,85
373,363	0,85
373,823	0,85
374,283	0,85
374,743	0,85
375,203	0,85
375,663	0,85
376,122	0,85
376,582	0,85
377,042	0,85
377,501	0,85
377,961	0,85
378,42	0,85
378,88	0,85
379,34	0,85
379,799	0,85
380,259	0,84
380,718	0,84
381,177	0,84
381,637	0,84
382,096	0,84
382,555	0,84
383,015	0,84
383,474	0,84
383,933	0,84
384,393	0,84
384,852	0,84
385,311	0,84
385,77	0,84
386,229	0,84
386,688	0,84
387,147	0,84
387,606	0,84
388,065	0,84
388,524	0,84
388,983	0,84
389,442	0,84
389,901	0,83
390,36	0,83
390,819	0,83
391,277	0,83
391,736	0,83
392,195	0,83
392,654	0,83
393,112	0,83
393,571	0,83
394,03	0,83
394,488	0,83
394,947	0,83
395,405	0,83
395,864	0,83
396,322	0,83
396,781	0,83
397,239	0,83
397,698	0,83
398,156	0,83
398,614	0,83
399,073	0,83
399,531	0,83
399,989	0,83
400,447	0,83
400,905	0,83
401,364	0,83
401,822	0,83
402,28	0,83
402,738	0,83
403,196	0,82
403,654	0,82
404,112	0,82
404,57	0,82
405,028	0,82
405,486	0,82
405,944	0,82
406,402	0,82
406,859	0,82
407,317	0,82
407,775	0,82
408,233	0,82
408,691	0,82
409,148	0,82
409,606	0,82
410,064	0,82
410,521	0,82
410,979	0,82
411,436	0,82
411,894	0,82
412,351	0,82
412,809	0,82
413,266	0,82
413,724	0,82
414,181	0,82
414,638	0,82
415,096	0,82
415,553	0,82
416,01	0,82
416,467	0,82
416,925	0,82
417,382	0,82
417,839	0,82
418,296	0,82
418,753	0,82
419,21	0,82
419,667	0,82
420,124	0,82
420,581	0,82
421,038	0,82
421,495	0,82
421,952	0,82
422,409	0,82
422,866	0,82
423,322	0,82
423,779	0,82
424,236	0,82
424,693	0,82
425,149	0,82
425,606	0,82
426,063	0,82
426,519	0,82
426,976	0,82
427,433	0,82
427,889	0,82
428,346	0,82
428,802	0,82
429,258	0,82
429,715	0,82
430,171	0,82
430,628	0,82
431,084	0,82
431,54	0,82
431,997	0,82
432,453	0,82
432,909	0,81
433,365	0,81
433,821	0,81
434,277	0,81
434,734	0,81
435,19	0,81
435,646	0,81
436,102	0,81
436,558	0,81
437,014	0,81
437,47	0,81
437,925	0,81
438,381	0,81
438,837	0,81
439,293	0,81
439,749	0,81
440,205	0,81
440,66	0,81
441,116	0,81
441,572	0,81
442,027	0,82
442,483	0,82
442,939	0,82
443,394	0,82
443,85	0,82
444,305	0,82
444,761	0,82
445,216	0,82
445,672	0,82
446,127	0,82
446,582	0,82
447,038	0,82
447,493	0,82
447,948	0,82
448,403	0,82
448,859	0,82
449,314	0,82
449,769	0,82
450,224	0,82
450,679	0,82
451,134	0,82
451,589	0,82
452,044	0,82
452,499	0,82
452,954	0,82
453,409	0,82
453,864	0,82
454,319	0,82
454,774	0,82
455,229	0,82
455,684	0,82
456,138	0,82
456,593	0,82
457,048	0,82
457,503	0,82
457,957	0,82
458,412	0,82
458,866	0,83
459,321	0,83
459,776	0,83
460,23	0,83
460,685	0,83
461,139	0,83
461,593	0,83
462,048	0,83
462,502	0,83
462,957	0,83
463,411	0,83
463,865	0,84
464,319	0,84
464,774	0,84
465,228	0,84
465,682	0,84
466,136	0,84
466,59	0,84
467,044	0,84
467,499	0,84
467,953	0,84
468,407	0,84
468,861	0,85
469,315	0,85
469,768	0,85
470,222	0,85
470,676	0,85
471,13	0,85
471,584	0,85
472,038	0,85
472,491	0,85
472,945	0,85
473,399	0,86
473,852	0,86
474,306	0,86
474,76	0,86
475,213	0,86
475,667	0,86
476,12	0,86
476,574	0,86
477,027	0,87
477,481	0,87
477,934	0,87
478,388	0,87
478,841	0,87
479,294	0,87
479,748	0,88
480,201	0,88
480,654	0,88
481,107	0,88
481,561	0,89
482,014	0,89
482,467	0,89
482,92	0,89
483,373	0,89
483,826	0,89
484,279	0,9
484,732	0,9
485,185	0,9
485,638	0,9
486,091	0,91
486,544	0,91
486,997	0,91
487,449	0,91
487,902	0,92
488,355	0,92
488,808	0,92
489,26	0,92
489,713	0,93
490,166	0,93
490,618	0,93
491,071	0,94
491,523	0,94
491,976	0,94
492,429	0,95
492,881	0,95
493,333	0,95
493,786	0,96
494,238	0,96
494,691	0,96
495,143	0,97
495,595	0,97
496,048	0,97
496,5	0,98
496,952	0,98
497,404	0,98
497,856	0,99
498,309	0,99
498,761	1
499,213	1
499,665	1,01
500,117	1,01
500,569	1,02
501,021	1,02
501,473	1,02
501,925	1,03
502,377	1,03
502,828	1,04
503,28	1,04
503,732	1,05
504,184	1,05
504,636	1,05
505,087	1,06
505,539	1,06
505,991	1,07
506,442	1,07
506,894	1,08
507,345	1,08
507,797	1,09
508,249	1,09
508,7	1,09
509,151	1,1
509,603	1,1
510,054	1,11
510,506	1,11
510,957	1,12
511,408	1,12
511,86	1,13
512,311	1,13
512,762	1,13
513,213	1,14
513,665	1,14
514,116	1,14
514,567	1,15
515,018	1,15
515,469	1,15
515,92	1,16
516,371	1,16
516,822	1,16
517,273	1,17
517,724	1,17
518,175	1,17
518,626	1,18
519,076	1,18
519,527	1,18
519,978	1,18
520,429	1,19
520,88	1,19
521,33	1,19
521,781	1,19
522,232	1,19
522,682	1,19
523,133	1,2
523,583	1,2
524,034	1,2
524,484	1,2
524,935	1,2
525,385	1,2
525,836	1,2
526,286	1,2
526,736	1,2
527,187	1,2
527,637	1,2
528,087	1,2
528,538	1,2
528,988	1,2
529,438	1,2
529,888	1,2
530,338	1,2
530,788	1,19
531,238	1,19
531,688	1,19
532,139	1,19
532,589	1,19
533,038	1,19
533,488	1,18
533,938	1,18
534,388	1,18
534,838	1,18
535,288	1,17
535,738	1,17
536,187	1,17
536,637	1,16
537,087	1,16
537,537	1,15
537,986	1,15
538,436	1,14
538,885	1,14
539,335	1,13
539,785	1,12
540,234	1,12
540,684	1,12
541,133	1,11
541,582	1,1
542,032	1,1
542,481	1,09
542,931	1,09
543,38	1,08
543,829	1,08
544,278	1,07
544,728	1,07
545,177	1,06
545,626	1,06
546,075	1,05
546,524	1,05
546,973	1,04
547,422	1,04
547,871	1,03
548,32	1,03
548,769	1,02
549,218	1,02
549,667	1,02
550,116	1,01
550,565	1,01
551,014	1
551,463	1
551,911	0,99
552,36	0,99
552,809	0,98
553,258	0,98
553,706	0,97
554,155	0,97
554,603	0,96
555,052	0,96
555,501	0,95
555,949	0,95
556,398	0,94
556,846	0,94
557,294	0,93
557,743	0,92
558,191	0,92
558,64	0,91
559,088	0,91
559,536	0,9
559,985	0,9
560,433	0,89
560,881	0,89
561,329	0,88
561,777	0,88
562,225	0,87
562,674	0,87
563,122	0,86
563,57	0,86
564,018	0,85
564,466	0,85
564,914	0,84
565,362	0,84
565,809	0,83
566,257	0,83
566,705	0,82
567,153	0,82
567,601	0,81
568,048	0,81
568,496	0,81
568,944	0,8
569,392	0,8
569,839	0,79
570,287	0,79
570,734	0,79
571,182	0,78
571,63	0,78
572,077	0,77
572,525	0,77
572,972	0,76
573,419	0,76
573,867	0,76
574,314	0,75
574,761	0,75
575,209	0,74
575,656	0,74
576,103	0,74
576,551	0,73
576,998	0,73
577,445	0,73
577,892	0,72
578,339	0,72
578,786	0,72
579,233	0,71
579,68	0,71
580,127	0,71
580,574	0,7
581,021	0,7
581,468	0,7
581,915	0,69
582,362	0,69
582,809	0,69
583,255	0,68
583,702	0,68
584,149	0,68
584,596	0,68
585,042	0,67
585,489	0,67
585,936	0,67
586,382	0,66
586,829	0,66
587,275	0,66
587,722	0,66
588,168	0,66
588,615	0,65
589,061	0,65
589,508	0,65
589,954	0,65
590,4	0,64
590,847	0,64
591,293	0,64
591,739	0,63
592,185	0,63
592,632	0,63
593,078	0,63
593,524	0,63
593,97	0,63
594,416	0,63
594,862	0,62
595,308	0,62
595,754	0,62
596,2	0,62
596,646	0,62
597,092	0,61
597,538	0,61
597,984	0,61
598,43	0,61
598,876	0,61
599,321	0,61
599,767	0,6
600,213	0,6
600,659	0,6
601,104	0,6
601,55	0,6
601,995	0,6
602,441	0,59
602,887	0,59
603,332	0,59
603,778	0,59
604,223	0,59
604,668	0,59
605,114	0,59
605,559	0,59
606,005	0,59
606,45	0,58
606,895	0,58
607,341	0,58
607,786	0,58
608,231	0,58
608,676	0,57
609,121	0,57
609,566	0,56
610,012	0,55
610,457	0,55
610,902	0,55
611,347	0,54
611,792	0,54
612,237	0,54
612,682	0,54
613,127	0,54
613,571	0,54
614,016	0,54
614,461	0,54
614,906	0,55
615,351	0,55
615,795	0,55
616,24	0,55
616,685	0,55
617,129	0,55
617,574	0,55
618,019	0,55
618,463	0,55
618,908	0,55
619,352	0,55
619,797	0,55
620,241	0,55
620,686	0,54
621,13	0,54
621,574	0,54
622,019	0,54
622,463	0,54
622,907	0,54
623,352	0,54
623,796	0,54
624,24	0,53
624,684	0,53
625,128	0,53
625,572	0,53
626,016	0,53
626,461	0,53
626,905	0,53
627,349	0,53
627,793	0,53
628,236	0,53
628,68	0,53
629,124	0,53
629,568	0,53
630,012	0,53
630,456	0,53
630,9	0,53
631,343	0,53
631,787	0,53
632,231	0,53
632,674	0,53
633,118	0,53
633,562	0,53
634,005	0,53
634,449	0,53
634,892	0,53
635,336	0,52
635,779	0,52
636,223	0,52
636,666	0,52
637,109	0,52
637,553	0,52
637,996	0,52
638,439	0,52
638,883	0,52
639,326	0,52
639,769	0,52
640,212	0,52
640,655	0,52
641,099	0,52
641,542	0,51
641,985	0,51
642,428	0,51
642,871	0,51
643,314	0,51
643,757	0,51
644,2	0,51
644,643	0,51
645,085	0,51
645,528	0,51
645,971	0,51
646,414	0,51
646,857	0,51
647,299	0,51
647,742	0,51
648,185	0,51
648,627	0,51
649,07	0,51
649,513	0,51
649,955	0,51
650,398	0,51
650,84	0,51
651,283	0,51
651,725	0,51
652,168	0,51
652,61	0,51
653,052	0,51
653,495	0,5
653,937	0,42
654,379	0,36
654,821	0,37
655,264	0,37
655,706	0,37
656,148	0,37
656,59	0,37
657,032	0,37
657,474	0,37
657,916	0,36
658,358	0,36
658,8	0,42
659,242	0,5
659,684	0,5
660,126	0,5
660,568	0,5
661,01	0,5
661,452	0,5
661,894	0,5
662,335	0,5
662,777	0,5
663,219	0,5
663,661	0,5
664,102	0,5
664,544	0,5
664,985	0,5
665,427	0,5
665,869	0,5
666,31	0,5
666,752	0,5
667,193	0,5
667,634	0,5
668,076	0,5
668,517	0,5
668,959	0,5
669,4	0,5
669,841	0,5
670,282	0,5
670,724	0,5
671,165	0,5
671,606	0,5
672,047	0,5
672,488	0,5
672,929	0,49
673,37	0,49
673,811	0,49
674,252	0,49
674,693	0,49
675,134	0,49
675,575	0,49
676,016	0,49
676,457	0,49
676,898	0,49
677,339	0,49
677,78	0,49
678,22	0,49
678,661	0,49
679,102	0,49
679,542	0,49
679,983	0,49
680,424	0,49
680,864	0,49
681,305	0,49
681,745	0,49
682,186	0,49
682,626	0,49
683,067	0,49
683,507	0,49
683,948	0,49
684,388	0,49
684,828	0,49
685,269	0,49
685,709	0,49
686,149	0,49
686,589	0,48
687,029	0,48
687,47	0,48
687,91	0,48
688,35	0,48
688,79	0,48
689,23	0,48
689,67	0,48
690,11	0,48
690,55	0,48
690,99	0,48
691,43	0,48
691,87	0,48
692,31	0,48
692,749	0,47
693,189	0,47
693,629	0,47
694,069	0,47
694,508	0,47
694,948	0,47
695,388	0,47
695,827	0,47
696,267	0,47
696,706	0,47
697,146	0,47
697,586	0,47
698,025	0,48
698,464	0,48
698,904	0,48
699,343	0,48
699,783	0,48
700,222	0,48
700,661	0,48
701,101	0,48
701,54	0,48
701,979	0,48
702,418	0,48
702,857	0,48
703,297	0,48
703,736	0,48
704,175	0,48
704,614	0,48
705,053	0,48
705,492	0,48
705,931	0,48
706,37	0,47
706,809	0,47
707,248	0,47
707,687	0,47
708,125	0,47
708,564	0,47
709,003	0,47
709,442	0,47
709,88	0,47
710,319	0,47
710,758	0,47
711,196	0,47
711,635	0,47
712,074	0,47
712,512	0,47
712,951	0,47
713,389	0,47
713,828	0,47
714,266	0,47
714,705	0,46
715,143	0,46
715,581	0,46
716,02	0,47
716,458	0,47
716,896	0,47
717,334	0,47
717,773	0,47
718,211	0,47
718,649	0,47
719,087	0,47
719,525	0,47
719,963	0,47
720,401	0,47
720,839	0,47
721,277	0,47
721,715	0,47
722,153	0,47
722,591	0,47
723,029	0,47
723,467	0,47
723,905	0,46
724,342	0,46
724,78	0,46
725,218	0,46
725,656	0,46
726,093	0,46
726,531	0,46
726,969	0,46
727,406	0,46
727,844	0,46
728,281	0,46
728,719	0,46
729,156	0,46
729,594	0,46
730,031	0,46
730,469	0,46
730,906	0,46
731,343	0,46
731,781	0,46
732,218	0,46
732,655	0,46
733,092	0,46
733,53	0,46
733,967	0,45
734,404	0,45
734,841	0,45
735,278	0,45
735,715	0,45
736,152	0,45
736,589	0,45
737,026	0,45
737,463	0,45
737,9	0,45
738,337	0,45
738,774	0,45
739,211	0,45
739,647	0,45
740,084	0,45
740,521	0,45
740,958	0,46
741,394	0,46
741,831	0,46
742,268	0,46
742,704	0,46
743,141	0,46
743,577	0,46
744,014	0,45
744,45	0,45
744,887	0,45
745,323	0,45
745,76	0,45
746,196	0,45
746,632	0,45
747,069	0,45
747,505	0,45
747,941	0,45
748,378	0,45
748,814	0,45
749,25	0,45
749,686	0,45
750,122	0,45
750,558	0,45
750,994	0,45
751,43	0,45
751,866	0,45
752,302	0,45
752,738	0,45
753,174	0,45
753,61	0,45
754,046	0,45
754,482	0,45
754,918	0,45
755,354	0,45
755,789	0,45
756,225	0,45
756,661	0,45
757,096	0,45
757,532	0,44
757,968	0,44
758,403	0,44
758,839	0,44
759,274	0,43
759,71	0,43
760,145	0,42
760,581	0,42
761,016	0,41
761,452	0,41
761,887	0,4
762,322	0,4
762,758	0,39
763,193	0,39
763,628	0,38
764,063	0,37
764,499	0,37
764,934	0,36
765,369	0,35
765,804	0,35
766,239	0,34
766,674	0,33
767,109	0,33
767,544	0,32
767,979	0,31
768,414	0,3
768,849	0,29
769,284	0,28
769,719	0,27
770,154	0,26
770,588	0,25
771,023	0,23
771,458	0,22
771,893	0,21
772,327	0,19
772,762	0,18
773,197	0,18
773,631	0,17
774,066	0,16
774,5	0,15
774,935	0,14
775,369	0,12
775,804	0,12
776,238	0,11
776,673	0,1
777,107	0,09
777,541	0,08
777,976	0,07
778,41	0,06
778,844	0,05
779,279	0,04
779,713	0,03
780,147	0,03
780,581	0,01
781,015	0
781,449	-0,01
781,883	-0,01
782,317	-0,03
782,751	-0,04
783,185	-0,05
783,619	-0,07
784,053	-0,07
784,487	-0,08
784,921	-0,09
785,355	-0,09
785,789	-0,1
786,223	-0,11
786,656	-0,12
787,09	-0,13
787,524	-0,13
787,957	-0,14
788,391	-0,16
788,825	-0,17
789,258	-0,19
789,692	-0,2
790,125	-0,21
790,559	-0,23
790,992	-0,25
791,426	-0,28
791,859	-0,3
792,293	-0,33
792,726	-0,34
793,159	-0,36
793,593	-0,38
794,026	-0,4
794,459	-0,43
794,892	-0,46
795,326	-0,48
795,759	-0,51
796,192	-0,55
796,625	-0,6
797,058	-0,62
797,491	-0,67
797,924	-0,7
798,357	-0,75
798,79	-0,79
799,223	-0,84
799,656	-0,89
800,089	-0,94
800,522	-0,98
800,955	-1,02
801,387	-1,08
801,82	-1,13
802,253	-1,19
802,686	-1,27
803,118	-1,33
803,551	-1,38
803,984	-1,42
804,416	-1,46
804,849	-1,48
805,281	-1,57
805,714	-1,92
806,146	-2,41
806,579	-2,69
807,011	-2,86
807,444	-2,95
807,876	-3,04
808,308	-3,07
808,741	-3,1
809,173	-3,15
809,605	-3,17
810,037	-3,25
810,47	-3,17
810,902	-2,97
811,334	-2,82
811,766	-2,66
812,198	-2,4
812,63	-1,97
813,062	-1,77
813,494	-1,67
813,926	-1,59
814,358	-1,54
814,79	-1,46
815,222	-1,4
815,654	-1,35
816,086	-1,29
816,518	-1,23
816,949	-1,18
817,381	-1,14
817,813	-1,12
818,245	-1,08
818,676	-1,04
819,108	-1,01
819,54	-0,99
819,971	-0,97
820,403	-0,92
820,834	-0,91
821,266	-0,87
821,697	-0,85
822,129	-0,83
822,56	-0,81
822,991	-0,79
823,423	-0,76
823,854	-0,75
824,286	-0,73
824,717	-0,72
825,148	-0,7
825,579	-0,7
826,01	-0,68
826,442	-0,68
826,873	-0,66
827,304	-0,62
827,735	-0,62
828,166	-0,62
828,597	-0,63
829,028	-0,62
829,459	-0,63
829,89	-0,63
830,321	-0,58
830,752	-0,59
831,183	-0,58
831,613	-0,57
832,044	-0,57
832,475	-0,56
832,906	-0,57
833,336	-0,58
833,767	-0,58
834,198	-0,56
834,628	-0,54
835,059	-0,57
835,49	-0,58
835,92	-0,55
836,351	-0,55
836,781	-0,56
837,212	-0,57
837,642	-0,56
838,072	-0,54
838,503	-0,56
838,933	-0,54
839,364	-0,55
839,794	-0,53
840,224	-0,52
840,654	-0,57
841,085	-0,57
841,515	-0,54
841,945	-0,55
842,375	-0,5
842,805	-0,49
843,235	-0,48
843,665	-0,5
844,095	-0,49
844,525	-0,51
844,955	-0,51
845,385	-0,48
845,815	-0,47
846,245	-0,49
846,675	-0,5
847,105	-0,52
847,534	-0,52
847,964	-0,5
848,394	-0,48
848,824	-0,51
849,253	-0,51
849,683	-0,51
850,112	-0,52
850,542	-0,55
850,972	-0,56
851,401	-0,53
851,831	-0,51
852,26	-0,52
852,69	-0,56
853,119	-0,56
853,548	-0,55
853,978	-0,55
854,407	-0,54
854,836	-0,54
855,266	-0,53
855,695	-0,54
856,124	-0,56
856,553	-0,57
856,983	-0,59
857,412	-0,58
857,841	-0,59
858,27	-0,6
858,699	-0,61
859,128	-0,64
859,557	-0,66
859,986	-0,66
860,415	-0,64
860,844	-0,6
861,273	-0,61
861,702	-0,61
862,13	-0,6
862,559	-0,62
862,988	-0,59
863,417	-0,58
863,845	-0,57
864,274	-0,57
864,703	-0,57
865,131	-0,58
865,56	-0,59
865,989	-0,61
866,417	-0,57
866,846	-0,57
867,274	-0,57
867,703	-0,59
868,131	-0,6
868,559	-0,6
868,988	-0,62
869,416	-0,61
869,844	-0,62
870,273	-0,64
870,701	-0,63
871,129	-0,66
871,557	-0,69
871,986	-0,69
872,414	-0,71
872,842	-0,68
873,27	-0,66
873,698	-0,63
874,126	-0,68
874,554	-0,66
874,982	-0,66
875,41	-0,69
875,838	-0,64
876,266	-0,61
876,694	-0,6
877,122	-0,6
877,549	-0,66
877,977	-0,63
878,405	-0,66
878,833	-0,63
879,26	-0,61
879,688	-0,61
880,116	-0,6
880,543	-0,58
880,971	-0,56
881,399	-0,6
881,826	-0,6
882,254	-0,58
882,681	-0,62
883,109	-0,57
883,536	-0,58
883,963	-0,6
884,391	-0,59
884,818	-0,57
885,245	-0,61
885,673	-0,64
886,1	-0,61
886,527	-0,6
886,954	-0,57
887,381	-0,59
887,809	-0,59
888,236	-0,61
888,663	-0,61
889,09	-0,65
889,517	-0,66
889,944	-0,66
890,371	-0,64
890,798	-0,65
891,225	-0,65
891,652	-0,67
892,078	-0,65
892,505	-0,68
892,932	-0,64
893,359	-0,65
893,786	-0,64
894,212	-0,61
894,639	-0,63
895,066	-0,66
895,492	-0,6
895,919	-0,6
896,346	-0,6
896,772	-0,61
897,199	-0,58
897,625	-0,61
898,052	-0,57
898,478	-0,56
898,904	-0,58
899,331	-0,57
899,757	-0,58
900,183	-0,6
900,61	-0,57
901,036	-0,59
901,462	-0,58
901,888	-0,58
902,315	-0,56
902,741	-0,61
903,167	-0,59
903,593	-0,62
904,019	-0,6
904,445	-0,58
904,871	-0,6
905,297	-0,62
905,723	-0,61
906,149	-0,6
906,575	-0,61
907,001	-0,6
907,427	-0,57
907,852	-0,56
908,278	-0,56
908,704	-0,55
909,13	-0,55
909,555	-0,54
909,981	-0,53
910,407	-0,54
910,832	-0,53
911,258	-0,53
911,684	-0,53
912,109	-0,53
912,535	-0,55
912,96	-0,51
913,386	-0,54
913,811	-0,54
914,236	-0,56
914,662	-0,54
915,087	-0,57
915,512	-0,57
915,938	-0,59
916,363	-0,59
916,788	-0,6
917,213	-0,59
917,639	-0,64
918,064	-0,62
918,489	-0,62
918,914	-0,62
919,339	-0,63
919,764	-0,61
920,189	-0,61
920,614	-0,62
921,039	-0,62
921,464	-0,58
921,889	-0,62
922,314	-0,62
922,738	-0,64
923,163	-0,66
923,588	-0,66
924,013	-0,65
924,437	-0,65
924,862	-0,67
925,287	-0,63
925,711	-0,64
926,136	-0,66
926,561	-0,63
926,985	-0,62
927,41	-0,59
927,834	-0,57
928,259	-0,54
928,683	-0,52
929,108	-0,49
929,532	-0,5
929,956	-0,5
930,381	-0,49
930,805	-0,49
931,229	-0,49
931,653	-0,47
932,078	-0,48
932,502	-0,49
932,926	-0,5
933,35	-0,49
933,774	-0,49
934,198	-0,47
934,622	-0,46
935,046	-0,46
935,47	-0,47
935,894	-0,46
936,318	-0,46
936,742	-0,46
937,166	-0,46
937,59	-0,45
938,014	-0,48
938,437	-0,48
938,861	-0,5
939,285	-0,5
939,709	-0,5
940,132	-0,5
940,556	-0,5
940,98	-0,5
941,403	-0,49
941,827	-0,49
942,25	-0,51
942,674	-0,5
943,097	-0,49
943,521	-0,49
943,944	-0,51
944,368	-0,5
944,791	-0,48
945,214	-0,5
945,638	-0,51
946,061	-0,55
946,484	-0,55
946,907	-0,53
947,331	-0,53
947,754	-0,57
948,177	-0,54
948,6	-0,54
949,023	-0,55
949,446	-0,55
949,869	-0,53
950,292	-0,53
950,715	-0,49
951,138	-0,48
951,561	-0,46
951,984	-0,46
952,407	-0,45
952,83	-0,44
953,252	-0,39
953,675	-0,39
954,098	-0,41
954,521	-0,39
954,943	-0,39
955,366	-0,4
955,789	-0,38
956,211	-0,39
956,634	-0,4
957,056	-0,37
957,479	-0,38
957,902	-0,4
958,324	-0,4
958,746	-0,38
959,169	-0,39
959,591	-0,39
960,014	-0,39
960,436	-0,39
960,858	-0,39
961,281	-0,39
961,703	-0,4
962,125	-0,4
962,547	-0,38
962,969	-0,39
963,391	-0,4
963,814	-0,41
964,236	-0,4
964,658	-0,38
965,08	-0,38
965,502	-0,37
965,924	-0,35
966,346	-0,35
966,768	-0,34
967,189	-0,36
967,611	-0,35
968,033	-0,35
968,455	-0,32
968,877	-0,33
969,298	-0,33
969,72	-0,34
970,142	-0,33
970,563	-0,35
970,985	-0,33
971,407	-0,32
971,828	-0,3
972,25	-0,29
972,671	-0,27
973,093	-0,27
973,514	-0,25
973,936	-0,23
974,357	-0,22
974,778	-0,22
975,2	-0,21
975,621	-0,2
976,042	-0,19
976,464	-0,19
976,885	-0,19
977,306	-0,18
977,727	-0,17
978,148	-0,17
978,57	-0,15
978,991	-0,14
979,412	-0,13
979,833	-0,12
980,254	-0,11
980,675	-0,12
981,096	-0,09
981,517	-0,08
981,937	-0,07
982,358	-0,05
982,779	-0,03
983,2	-0,03
983,621	-0,03
984,042	-0,01
984,462	0
984,883	0,01
985,304	0,03
985,724	0,03
986,145	0,05
986,565	0,06
986,986	0,07
987,407	0,08
987,827	0,1
988,248	0,11
988,668	0,13
989,088	0,14
989,509	0,16
989,929	0,17
990,35	0,18
990,77	0,19
991,19	0,21
991,61	0,22
992,031	0,23
992,451	0,25
992,871	0,25
993,291	0,26
993,711	0,27
994,131	0,28
994,551	0,29
994,971	0,3
995,391	0,31
995,811	0,32
996,231	0,32
996,651	0,33
997,071	0,34
997,491	0,34
997,911	0,35
998,331	0,36
998,75	0,37
999,17	0,38
999,59	0,38
1000,009	0,39
1000,429	0,39
1000,849	0,4
1001,268	0,41
1001,688	0,41
1002,107	0,41
1002,527	0,42
1002,946	0,42
1003,366	0,42
1003,785	0,43
1004,205	0,43
1004,624	0,44
1005,044	0,44
1005,463	0,44
1005,882	0,44
1006,301	0,44
1006,721	0,45
1007,14	0,45
1007,559	0,45
1007,978	0,45
1008,397	0,45
1008,816	0,45
1009,235	0,45
1009,655	0,45
1010,074	0,45
1010,492	0,45
1010,911	0,45
1011,33	0,45
1011,749	0,45
1012,168	0,45
1012,587	0,45
1013,006	0,45
1013,425	0,45
1013,843	0,44
1014,262	0,44
1014,681	0,44
1015,099	0,44
1015,518	0,44
1015,937	0,44
1016,355	0,44
1016,774	0,44
1017,192	0,44
1017,611	0,44
1018,029	0,44
1018,448	0,44
1018,866	0,44
1019,285	0,44
1019,703	0,44
1020,121	0,44
1020,54	0,44
1020,958	0,44
1021,376	0,44
1021,794	0,44
1022,213	0,44
1022,631	0,44
1023,049	0,44
1023,467	0,44
1023,885	0,44
1024,303	0,43
1024,721	0,43
1025,139	0,43
1025,557	0,43
1025,975	0,43
1026,393	0,43
1026,811	0,43
1027,229	0,43
1027,647	0,43
1028,065	0,43
1028,482	0,43
1028,9	0,42
1029,318	0,42
1029,735	0,42
1030,153	0,42
1030,571	0,42
1030,988	0,42
1031,406	0,42
1031,823	0,42
1032,241	0,42
1032,659	0,42
1033,076	0,42
1033,493	0,42
1033,911	0,43
1034,328	0,43
1034,746	0,43
1035,163	0,43
1035,58	0,43
1035,997	0,43
1036,415	0,43
1036,832	0,43
1037,249	0,43
1037,666	0,43
1038,083	0,43
1038,501	0,43
1038,918	0,43
1039,335	0,43
1039,752	0,43
1040,169	0,43
1040,586	0,43
1041,003	0,43
1041,419	0,43
1041,836	0,43
1042,253	0,43
1042,67	0,43
1043,087	0,43
1043,504	0,43
1043,92	0,42
1044,337	0,43
1044,754	0,42
1045,17	0,42
1045,587	0,42
1046,004	0,42
1046,42	0,42
1046,837	0,42
1047,253	0,42
1047,67	0,42
1048,086	0,42
1048,503	0,42
1048,919	0,42
1049,335	0,42
1049,752	0,42
1050,168	0,42
1050,584	0,42
1051,001	0,42
1051,417	0,42
1051,833	0,42
1052,249	0,42
1052,665	0,42
1053,081	0,43
1053,497	0,43
1053,914	0,43
1054,33	0,43
1054,746	0,43
1055,162	0,43
1055,578	0,43
1055,993	0,44
1056,409	0,44
1056,825	0,44
1057,241	0,44
1057,657	0,44
1058,073	0,44
1058,488	0,44
1058,904	0,44
1059,32	0,44
1059,736	0,44
1060,151	0,44
1060,567	0,44
1060,982	0,44
1061,398	0,44
1061,813	0,44
1062,229	0,44
1062,644	0,43
1063,06	0,43
1063,475	0,43
1063,891	0,43
1064,306	0,43
1064,721	0,43
1065,137	0,43
1065,552	0,43
1065,967	0,43
1066,382	0,43
1066,798	0,43
1067,213	0,43
1067,628	0,43
1068,043	0,43
1068,458	0,43
1068,873	0,43
1069,288	0,43
1069,703	0,43
1070,118	0,43
1070,533	0,43
1070,948	0,43
1071,363	0,43
1071,778	0,43
1072,193	0,43
1072,607	0,43
1073,022	0,43
1073,437	0,43
1073,852	0,43
1074,266	0,43
1074,681	0,43
1075,096	0,43
1075,51	0,43
1075,925	0,43
1076,339	0,43
1076,754	0,43
1077,168	0,43
1077,583	0,43
1077,997	0,43
1078,412	0,43
1078,826	0,43
1079,24	0,42
1079,655	0,42
1080,069	0,42
1080,483	0,42
1080,897	0,42
1081,312	0,42
1081,726	0,42
1082,14	0,42
1082,554	0,42
1082,968	0,42
1083,382	0,42
1083,796	0,41
1084,21	0,41
1084,624	0,41
1085,038	0,41
1085,452	0,41
1085,866	0,41
1086,28	0,4
1086,694	0,4
1087,108	0,4
1087,521	0,4
1087,935	0,4
1088,349	0,4
1088,763	0,4
1089,176	0,39
1089,59	0,39
1090,004	0,39
1090,417	0,38
1090,831	0,38
1091,244	0,38
1091,658	0,38
1092,071	0,37
1092,485	0,37
1092,898	0,37
1093,312	0,36
1093,725	0,36
1094,138	0,36
1094,552	0,36
1094,965	0,35
1095,378	0,35
1095,791	0,35
1096,205	0,35
1096,618	0,34
1097,031	0,34
1097,444	0,34
1097,857	0,33
1098,27	0,33
1098,683	0,33
1099,096	0,32
1099,509	0,32
1099,922	0,32
1100,335	0,31
1100,748	0,3
1101,161	0,3
1101,574	0,3
1101,986	0,29
1102,399	0,29
1102,812	0,29
1103,225	0,28
1103,637	0,28
1104,05	0,28
1104,463	0,28
1104,875	0,28
1105,288	0,27
1105,7	0,27
1106,113	0,26
1106,525	0,26
1106,938	0,25
1107,35	0,24
1107,763	0,24
1108,175	0,24
1108,588	0,23
1109	0,22
1109,412	0,22
1109,824	0,22
1110,237	0,22
1110,649	0,21
1111,061	0,2
