Data from 18C-808nm-8A-cont_Absorbance__449__01878.txt Node

Date: Mon Jul 17 17:35:18 CEST 2023
User: Laser008
Spectrometer: MAYP115816
Trigger mode: 0
Integration Time (sec): 2,500000E-1
Scans to average: 10
Electric dark correction enabled: true
Nonlinearity correction enabled: true
Boxcar width: 5
XAxis mode: Wavelengths
Number of Pixels in Spectrum: 2068
>>>>>Begin Spectral Data<<<<<
198,914	-0,76
199,384	-0,5
199,855	-0,37
200,325	-0,29
200,796	-0,27
201,266	-0,21
201,737	-0,2
202,207	-0,18
202,677	-0,16
203,147	-0,15
203,618	-0,12
204,088	-0,11
204,558	-0,09
205,028	-0,09
205,498	-0,1
205,968	-0,09
206,439	-0,11
206,909	-0,1
207,379	-0,11
207,849	-0,12
208,319	-0,12
208,789	-0,12
209,258	-0,12
209,728	-0,14
210,198	-0,14
210,668	-0,12
211,138	-0,12
211,608	-0,12
212,077	-0,11
212,547	-0,11
213,017	-0,12
213,486	-0,12
213,956	-0,13
214,426	-0,14
214,895	-0,13
215,365	-0,14
215,834	-0,15
216,304	-0,16
216,773	-0,16
217,243	-0,17
217,712	-0,18
218,181	-0,18
218,651	-0,17
219,12	-0,17
219,589	-0,17
220,058	-0,16
220,528	-0,17
220,997	-0,18
221,466	-0,19
221,935	-0,2
222,404	-0,2
222,873	-0,19
223,342	-0,19
223,812	-0,19
224,281	-0,19
224,749	-0,2
225,218	-0,21
225,687	-0,21
226,156	-0,2
226,625	-0,18
227,094	-0,19
227,563	-0,19
228,031	-0,21
228,5	-0,21
228,969	-0,21
229,438	-0,19
229,906	-0,18
230,375	-0,18
230,844	-0,17
231,312	-0,17
231,781	-0,18
232,249	-0,17
232,718	-0,17
233,186	-0,14
233,655	-0,14
234,123	-0,14
234,591	-0,15
235,06	-0,15
235,528	-0,15
235,996	-0,15
236,465	-0,15
236,933	-0,14
237,401	-0,14
237,869	-0,13
238,337	-0,14
238,805	-0,13
239,274	-0,12
239,742	-0,12
240,21	-0,12
240,678	-0,12
241,146	-0,12
241,614	-0,11
242,081	-0,11
242,549	-0,11
243,017	-0,12
243,485	-0,12
243,953	-0,12
244,421	-0,12
244,888	-0,11
245,356	-0,11
245,824	-0,11
246,291	-0,11
246,759	-0,12
247,227	-0,12
247,694	-0,11
248,162	-0,1
248,629	-0,09
249,097	-0,1
249,564	-0,1
250,032	-0,11
250,499	-0,11
250,967	-0,12
251,434	-0,12
251,901	-0,12
252,369	-0,12
252,836	-0,14
253,303	-0,15
253,77	-0,17
254,237	-0,16
254,705	-0,17
255,172	-0,16
255,639	-0,17
256,106	-0,18
256,573	-0,18
257,04	-0,18
257,507	-0,18
257,974	-0,18
258,441	-0,16
258,908	-0,17
259,375	-0,18
259,841	-0,18
260,308	-0,18
260,775	-0,18
261,242	-0,18
261,709	-0,18
262,175	-0,2
262,642	-0,19
263,109	-0,2
263,575	-0,22
264,042	-0,2
264,508	-0,2
264,975	-0,21
265,441	-0,22
265,908	-0,23
266,374	-0,22
266,841	-0,22
267,307	-0,21
267,773	-0,21
268,24	-0,21
268,706	-0,21
269,172	-0,23
269,639	-0,23
270,105	-0,21
270,571	-0,22
271,037	-0,22
271,503	-0,23
271,969	-0,23
272,435	-0,23
272,902	-0,24
273,368	-0,25
273,834	-0,24
274,3	-0,24
274,765	-0,25
275,231	-0,25
275,697	-0,23
276,163	-0,23
276,629	-0,23
277,095	-0,24
277,56	-0,22
278,026	-0,23
278,492	-0,21
278,958	-0,21
279,423	-0,21
279,889	-0,2
280,354	-0,21
280,82	-0,2
281,286	-0,22
281,751	-0,22
282,217	-0,21
282,682	-0,22
283,147	-0,22
283,613	-0,23
284,078	-0,24
284,544	-0,25
285,009	-0,25
285,474	-0,25
285,939	-0,26
286,405	-0,26
286,87	-0,24
287,335	-0,24
287,8	-0,24
288,265	-0,22
288,73	-0,23
289,195	-0,25
289,66	-0,25
290,125	-0,24
290,59	-0,23
291,055	-0,23
291,52	-0,22
291,985	-0,23
292,45	-0,24
292,915	-0,23
293,38	-0,24
293,844	-0,22
294,309	-0,2
294,774	-0,19
295,239	-0,2
295,703	-0,21
296,168	-0,2
296,632	-0,19
297,097	-0,18
297,562	-0,16
298,026	-0,17
298,491	-0,17
298,955	-0,16
299,419	-0,16
299,884	-0,16
300,348	-0,15
300,813	-0,14
301,277	-0,15
301,741	-0,14
302,205	-0,14
302,67	-0,14
303,134	-0,14
303,598	-0,14
304,062	-0,14
304,526	-0,13
304,99	-0,14
305,454	-0,14
305,919	-0,13
306,383	-0,13
306,847	-0,13
307,31	-0,14
307,774	-0,16
308,238	-0,16
308,702	-0,15
309,166	-0,17
309,63	-0,17
310,094	-0,14
310,557	-0,14
311,021	-0,14
311,485	-0,15
311,948	-0,15
312,412	-0,14
312,876	-0,13
313,339	-0,13
313,803	-0,13
314,266	-0,13
314,73	-0,13
315,193	-0,14
315,657	-0,12
316,12	-0,12
316,584	-0,1
317,047	-0,1
317,51	-0,09
317,973	-0,08
318,437	-0,07
318,9	-0,07
319,363	-0,05
319,826	-0,05
320,29	-0,05
320,753	-0,06
321,216	-0,05
321,679	-0,06
322,142	-0,05
322,605	-0,07
323,068	-0,07
323,531	-0,07
323,994	-0,07
324,457	-0,07
324,92	-0,05
325,382	-0,06
325,845	-0,05
326,308	-0,05
326,771	-0,04
327,233	-0,04
327,696	-0,02
328,159	-0,01
328,622	-0
329,084	-0,01
329,547	0
330,009	0
330,472	0,02
330,934	0,03
331,397	0,03
331,859	0,04
332,322	0,04
332,784	0,04
333,246	0,04
333,709	0,04
334,171	0,05
334,633	0,05
335,096	0,06
335,558	0,06
336,02	0,05
336,482	0,05
336,944	0,06
337,406	0,07
337,868	0,07
338,331	0,08
338,793	0,1
339,255	0,11
339,717	0,11
340,178	0,12
340,64	0,13
341,102	0,14
341,564	0,15
342,026	0,17
342,488	0,17
342,949	0,19
343,411	0,22
343,873	0,25
344,335	0,28
344,796	0,32
345,258	0,37
345,719	0,42
346,181	0,47
346,643	0,51
347,104	0,55
347,566	0,58
348,027	0,61
348,488	0,64
348,95	0,66
349,411	0,69
349,873	0,72
350,334	0,74
350,795	0,76
351,256	0,77
351,718	0,78
352,179	0,79
352,64	0,8
353,101	0,8
353,562	0,81
354,023	0,81
354,484	0,81
354,945	0,82
355,406	0,82
355,867	0,83
356,328	0,83
356,789	0,83
357,25	0,83
357,711	0,84
358,172	0,84
358,633	0,84
359,093	0,84
359,554	0,84
360,015	0,84
360,476	0,85
360,936	0,85
361,397	0,85
361,858	0,85
362,318	0,85
362,779	0,85
363,239	0,85
363,7	0,86
364,16	0,86
364,621	0,86
365,081	0,86
365,541	0,86
366,002	0,86
366,462	0,85
366,922	0,85
367,383	0,85
367,843	0,85
368,303	0,85
368,763	0,86
369,223	0,86
369,684	0,86
370,144	0,86
370,604	0,86
371,064	0,86
371,524	0,86
371,984	0,86
372,444	0,85
372,904	0,85
373,363	0,85
373,823	0,85
374,283	0,85
374,743	0,85
375,203	0,85
375,663	0,85
376,122	0,85
376,582	0,85
377,042	0,85
377,501	0,85
377,961	0,85
378,42	0,85
378,88	0,85
379,34	0,85
379,799	0,85
380,259	0,85
380,718	0,85
381,177	0,85
381,637	0,85
382,096	0,85
382,555	0,85
383,015	0,85
383,474	0,85
383,933	0,85
384,393	0,85
384,852	0,85
385,311	0,85
385,77	0,85
386,229	0,85
386,688	0,84
387,147	0,84
387,606	0,84
388,065	0,84
388,524	0,84
388,983	0,84
389,442	0,84
389,901	0,84
390,36	0,84
390,819	0,84
391,277	0,84
391,736	0,84
392,195	0,84
392,654	0,84
393,112	0,84
393,571	0,84
394,03	0,84
394,488	0,84
394,947	0,84
395,405	0,84
395,864	0,84
396,322	0,84
396,781	0,84
397,239	0,84
397,698	0,84
398,156	0,84
398,614	0,84
399,073	0,84
399,531	0,84
399,989	0,84
400,447	0,84
400,905	0,84
401,364	0,83
401,822	0,83
402,28	0,83
402,738	0,83
403,196	0,83
403,654	0,83
404,112	0,83
404,57	0,83
405,028	0,83
405,486	0,83
405,944	0,83
406,402	0,83
406,859	0,83
407,317	0,83
407,775	0,83
408,233	0,83
408,691	0,83
409,148	0,83
409,606	0,83
410,064	0,83
410,521	0,83
410,979	0,83
411,436	0,83
411,894	0,83
412,351	0,83
412,809	0,83
413,266	0,83
413,724	0,83
414,181	0,83
414,638	0,83
415,096	0,83
415,553	0,83
416,01	0,83
416,467	0,83
416,925	0,83
417,382	0,83
417,839	0,83
418,296	0,83
418,753	0,83
419,21	0,82
419,667	0,82
420,124	0,82
420,581	0,82
421,038	0,82
421,495	0,82
421,952	0,82
422,409	0,82
422,866	0,82
423,322	0,82
423,779	0,82
424,236	0,82
424,693	0,82
425,149	0,82
425,606	0,82
426,063	0,82
426,519	0,82
426,976	0,82
427,433	0,82
427,889	0,82
428,346	0,82
428,802	0,82
429,258	0,82
429,715	0,82
430,171	0,82
430,628	0,82
431,084	0,82
431,54	0,82
431,997	0,82
432,453	0,82
432,909	0,82
433,365	0,82
433,821	0,82
434,277	0,82
434,734	0,82
435,19	0,82
435,646	0,82
436,102	0,82
436,558	0,82
437,014	0,82
437,47	0,82
437,925	0,82
438,381	0,82
438,837	0,82
439,293	0,82
439,749	0,82
440,205	0,82
440,66	0,82
441,116	0,82
441,572	0,82
442,027	0,82
442,483	0,82
442,939	0,82
443,394	0,82
443,85	0,82
444,305	0,82
444,761	0,82
445,216	0,83
445,672	0,83
446,127	0,83
446,582	0,83
447,038	0,83
447,493	0,83
447,948	0,83
448,403	0,83
448,859	0,83
449,314	0,83
449,769	0,83
450,224	0,83
450,679	0,83
451,134	0,83
451,589	0,83
452,044	0,83
452,499	0,83
452,954	0,83
453,409	0,83
453,864	0,83
454,319	0,83
454,774	0,83
455,229	0,83
455,684	0,83
456,138	0,83
456,593	0,83
457,048	0,83
457,503	0,83
457,957	0,83
458,412	0,83
458,866	0,83
459,321	0,83
459,776	0,83
460,23	0,84
460,685	0,84
461,139	0,84
461,593	0,84
462,048	0,84
462,502	0,84
462,957	0,84
463,411	0,84
463,865	0,84
464,319	0,84
464,774	0,84
465,228	0,85
465,682	0,85
466,136	0,85
466,59	0,85
467,044	0,85
467,499	0,85
467,953	0,85
468,407	0,85
468,861	0,85
469,315	0,85
469,768	0,85
470,222	0,85
470,676	0,85
471,13	0,86
471,584	0,86
472,038	0,86
472,491	0,86
472,945	0,86
473,399	0,86
473,852	0,86
474,306	0,86
474,76	0,86
475,213	0,87
475,667	0,87
476,12	0,87
476,574	0,87
477,027	0,87
477,481	0,87
477,934	0,88
478,388	0,88
478,841	0,88
479,294	0,88
479,748	0,88
480,201	0,88
480,654	0,89
481,107	0,89
481,561	0,89
482,014	0,89
482,467	0,89
482,92	0,9
483,373	0,9
483,826	0,9
484,279	0,9
484,732	0,9
485,185	0,91
485,638	0,91
486,091	0,91
486,544	0,91
486,997	0,91
487,449	0,92
487,902	0,92
488,355	0,92
488,808	0,93
489,26	0,93
489,713	0,93
490,166	0,93
490,618	0,94
491,071	0,94
491,523	0,94
491,976	0,95
492,429	0,95
492,881	0,95
493,333	0,95
493,786	0,96
494,238	0,96
494,691	0,97
495,143	0,97
495,595	0,97
496,048	0,98
496,5	0,98
496,952	0,98
497,404	0,99
497,856	0,99
498,309	1
498,761	1
499,213	1
499,665	1,01
500,117	1,01
500,569	1,02
501,021	1,02
501,473	1,03
501,925	1,03
502,377	1,03
502,828	1,04
503,28	1,04
503,732	1,05
504,184	1,05
504,636	1,05
505,087	1,06
505,539	1,06
505,991	1,06
506,442	1,07
506,894	1,07
507,345	1,08
507,797	1,08
508,249	1,09
508,7	1,09
509,151	1,1
509,603	1,1
510,054	1,1
510,506	1,11
510,957	1,11
511,408	1,12
511,86	1,12
512,311	1,12
512,762	1,13
513,213	1,13
513,665	1,13
514,116	1,14
514,567	1,14
515,018	1,15
515,469	1,15
515,92	1,15
516,371	1,16
516,822	1,16
517,273	1,16
517,724	1,17
518,175	1,17
518,626	1,17
519,076	1,17
519,527	1,17
519,978	1,18
520,429	1,18
520,88	1,18
521,33	1,18
521,781	1,18
522,232	1,19
522,682	1,19
523,133	1,19
523,583	1,19
524,034	1,19
524,484	1,19
524,935	1,2
525,385	1,2
525,836	1,2
526,286	1,2
526,736	1,2
527,187	1,2
527,637	1,2
528,087	1,2
528,538	1,19
528,988	1,19
529,438	1,19
529,888	1,19
530,338	1,19
530,788	1,19
531,238	1,19
531,688	1,19
532,139	1,18
532,589	1,18
533,038	1,18
533,488	1,18
533,938	1,18
534,388	1,18
534,838	1,17
535,288	1,17
535,738	1,17
536,187	1,16
536,637	1,16
537,087	1,15
537,537	1,15
537,986	1,15
538,436	1,14
538,885	1,14
539,335	1,13
539,785	1,12
540,234	1,12
540,684	1,12
541,133	1,11
541,582	1,11
542,032	1,1
542,481	1,09
542,931	1,09
543,38	1,08
543,829	1,08
544,278	1,07
544,728	1,07
545,177	1,06
545,626	1,06
546,075	1,05
546,524	1,05
546,973	1,04
547,422	1,04
547,871	1,03
548,32	1,03
548,769	1,03
549,218	1,02
549,667	1,02
550,116	1,02
550,565	1,01
551,014	1,01
551,463	1
551,911	1
552,36	0,99
552,809	0,99
553,258	0,98
553,706	0,98
554,155	0,97
554,603	0,97
555,052	0,96
555,501	0,96
555,949	0,95
556,398	0,95
556,846	0,94
557,294	0,94
557,743	0,93
558,191	0,93
558,64	0,92
559,088	0,91
559,536	0,91
559,985	0,9
560,433	0,9
560,881	0,9
561,329	0,89
561,777	0,89
562,225	0,88
562,674	0,88
563,122	0,87
563,57	0,87
564,018	0,87
564,466	0,86
564,914	0,86
565,362	0,85
565,809	0,85
566,257	0,84
566,705	0,84
567,153	0,83
567,601	0,83
568,048	0,82
568,496	0,82
568,944	0,81
569,392	0,81
569,839	0,81
570,287	0,8
570,734	0,8
571,182	0,8
571,63	0,79
572,077	0,79
572,525	0,78
572,972	0,78
573,419	0,78
573,867	0,77
574,314	0,77
574,761	0,76
575,209	0,76
575,656	0,76
576,103	0,75
576,551	0,75
576,998	0,75
577,445	0,74
577,892	0,74
578,339	0,74
578,786	0,73
579,233	0,73
579,68	0,73
580,127	0,72
580,574	0,72
581,021	0,72
581,468	0,71
581,915	0,71
582,362	0,71
582,809	0,71
583,255	0,7
583,702	0,7
584,149	0,7
584,596	0,7
585,042	0,69
585,489	0,69
585,936	0,69
586,382	0,68
586,829	0,68
587,275	0,68
587,722	0,68
588,168	0,68
588,615	0,67
589,061	0,67
589,508	0,67
589,954	0,67
590,4	0,66
590,847	0,66
591,293	0,66
591,739	0,66
592,185	0,65
592,632	0,65
593,078	0,65
593,524	0,65
593,97	0,65
594,416	0,65
594,862	0,65
595,308	0,64
595,754	0,64
596,2	0,64
596,646	0,64
597,092	0,64
597,538	0,63
597,984	0,63
598,43	0,63
598,876	0,63
599,321	0,63
599,767	0,63
600,213	0,63
600,659	0,62
601,104	0,62
601,55	0,62
601,995	0,62
602,441	0,62
602,887	0,62
603,332	0,62
603,778	0,61
604,223	0,61
604,668	0,61
605,114	0,61
605,559	0,61
606,005	0,61
606,45	0,61
606,895	0,61
607,341	0,61
607,786	0,6
608,231	0,6
608,676	0,6
609,121	0,59
609,566	0,58
610,012	0,58
610,457	0,57
610,902	0,57
611,347	0,57
611,792	0,56
612,237	0,56
612,682	0,56
613,127	0,56
613,571	0,56
614,016	0,56
614,461	0,57
614,906	0,57
615,351	0,57
615,795	0,57
616,24	0,57
616,685	0,57
617,129	0,57
617,574	0,57
618,019	0,57
618,463	0,57
618,908	0,57
619,352	0,57
619,797	0,57
620,241	0,57
620,686	0,57
621,13	0,57
621,574	0,57
622,019	0,57
622,463	0,56
622,907	0,56
623,352	0,56
623,796	0,56
624,24	0,56
624,684	0,56
625,128	0,56
625,572	0,56
626,016	0,56
626,461	0,56
626,905	0,56
627,349	0,56
627,793	0,56
628,236	0,56
628,68	0,56
629,124	0,56
629,568	0,56
630,012	0,56
630,456	0,56
630,9	0,56
631,343	0,56
631,787	0,56
632,231	0,56
632,674	0,56
633,118	0,56
633,562	0,56
634,005	0,56
634,449	0,55
634,892	0,55
635,336	0,55
635,779	0,55
636,223	0,55
636,666	0,55
637,109	0,55
637,553	0,55
637,996	0,55
638,439	0,55
638,883	0,55
639,326	0,55
639,769	0,55
640,212	0,55
640,655	0,54
641,099	0,54
641,542	0,54
641,985	0,54
642,428	0,54
642,871	0,54
643,314	0,54
643,757	0,54
644,2	0,54
644,643	0,54
645,085	0,54
645,528	0,54
645,971	0,54
646,414	0,54
646,857	0,54
647,299	0,53
647,742	0,53
648,185	0,53
648,627	0,53
649,07	0,53
649,513	0,53
649,955	0,53
650,398	0,53
650,84	0,53
651,283	0,53
651,725	0,54
652,168	0,54
652,61	0,54
653,052	0,54
653,495	0,53
653,937	0,45
654,379	0,39
654,821	0,4
655,264	0,4
655,706	0,4
656,148	0,4
656,59	0,4
657,032	0,4
657,474	0,4
657,916	0,39
658,358	0,39
658,8	0,45
659,242	0,53
659,684	0,53
660,126	0,53
660,568	0,53
661,01	0,53
661,452	0,53
661,894	0,53
662,335	0,53
662,777	0,53
663,219	0,53
663,661	0,53
664,102	0,53
664,544	0,53
664,985	0,53
665,427	0,53
665,869	0,53
666,31	0,53
666,752	0,53
667,193	0,53
667,634	0,53
668,076	0,53
668,517	0,53
668,959	0,53
669,4	0,53
669,841	0,53
670,282	0,53
670,724	0,53
671,165	0,53
671,606	0,53
672,047	0,52
672,488	0,52
672,929	0,52
673,37	0,52
673,811	0,52
674,252	0,52
674,693	0,52
675,134	0,52
675,575	0,52
676,016	0,52
676,457	0,52
676,898	0,52
677,339	0,51
677,78	0,51
678,22	0,51
678,661	0,51
679,102	0,52
679,542	0,52
679,983	0,52
680,424	0,52
680,864	0,52
681,305	0,52
681,745	0,52
682,186	0,52
682,626	0,52
683,067	0,52
683,507	0,52
683,948	0,52
684,388	0,52
684,828	0,52
685,269	0,52
685,709	0,52
686,149	0,51
686,589	0,51
687,029	0,51
687,47	0,51
687,91	0,51
688,35	0,51
688,79	0,51
689,23	0,51
689,67	0,51
690,11	0,51
690,55	0,51
690,99	0,51
691,43	0,51
691,87	0,51
692,31	0,5
692,749	0,5
693,189	0,5
693,629	0,5
694,069	0,5
694,508	0,5
694,948	0,5
695,388	0,5
695,827	0,5
696,267	0,5
696,706	0,5
697,146	0,5
697,586	0,5
698,025	0,5
698,464	0,5
698,904	0,51
699,343	0,51
699,783	0,51
700,222	0,51
700,661	0,5
701,101	0,5
701,54	0,5
701,979	0,5
702,418	0,5
702,857	0,51
703,297	0,51
703,736	0,51
704,175	0,51
704,614	0,51
705,053	0,5
705,492	0,5
705,931	0,5
706,37	0,5
706,809	0,5
707,248	0,5
707,687	0,5
708,125	0,5
708,564	0,5
709,003	0,5
709,442	0,5
709,88	0,5
710,319	0,5
710,758	0,5
711,196	0,5
711,635	0,5
712,074	0,5
712,512	0,5
712,951	0,5
713,389	0,49
713,828	0,49
714,266	0,49
714,705	0,49
715,143	0,49
715,581	0,49
716,02	0,49
716,458	0,49
716,896	0,49
717,334	0,49
717,773	0,49
718,211	0,49
718,649	0,49
719,087	0,49
719,525	0,5
719,963	0,5
720,401	0,5
720,839	0,5
721,277	0,5
721,715	0,5
722,153	0,5
722,591	0,5
723,029	0,5
723,467	0,49
723,905	0,49
724,342	0,49
724,78	0,49
725,218	0,49
725,656	0,49
726,093	0,49
726,531	0,49
726,969	0,49
727,406	0,49
727,844	0,49
728,281	0,49
728,719	0,49
729,156	0,49
729,594	0,49
730,031	0,49
730,469	0,49
730,906	0,49
731,343	0,49
731,781	0,49
732,218	0,49
732,655	0,48
733,092	0,48
733,53	0,48
733,967	0,48
734,404	0,48
734,841	0,48
735,278	0,48
735,715	0,48
736,152	0,48
736,589	0,48
737,026	0,48
737,463	0,48
737,9	0,48
738,337	0,48
738,774	0,48
739,211	0,48
739,647	0,48
740,084	0,48
740,521	0,48
740,958	0,48
741,394	0,48
741,831	0,48
742,268	0,48
742,704	0,48
743,141	0,48
743,577	0,48
744,014	0,48
744,45	0,48
744,887	0,48
745,323	0,48
745,76	0,48
746,196	0,47
746,632	0,47
747,069	0,47
747,505	0,47
747,941	0,47
748,378	0,47
748,814	0,47
749,25	0,47
749,686	0,47
750,122	0,47
750,558	0,48
750,994	0,48
751,43	0,48
751,866	0,48
752,302	0,48
752,738	0,48
753,174	0,48
753,61	0,48
754,046	0,48
754,482	0,48
754,918	0,48
755,354	0,48
755,789	0,48
756,225	0,47
756,661	0,47
757,096	0,47
757,532	0,47
757,968	0,47
758,403	0,46
758,839	0,46
759,274	0,46
759,71	0,45
760,145	0,44
760,581	0,44
761,016	0,43
761,452	0,43
761,887	0,42
762,322	0,42
762,758	0,41
763,193	0,41
763,628	0,4
764,063	0,39
764,499	0,39
764,934	0,38
765,369	0,37
765,804	0,37
766,239	0,36
766,674	0,35
767,109	0,34
767,544	0,33
767,979	0,32
768,414	0,31
768,849	0,3
769,284	0,29
769,719	0,28
770,154	0,27
770,588	0,26
771,023	0,25
771,458	0,24
771,893	0,23
772,327	0,22
772,762	0,21
773,197	0,2
773,631	0,19
774,066	0,18
774,5	0,17
774,935	0,16
775,369	0,15
775,804	0,13
776,238	0,13
776,673	0,12
777,107	0,11
777,541	0,1
777,976	0,08
778,41	0,07
778,844	0,06
779,279	0,05
779,713	0,04
780,147	0,03
780,581	0,03
781,015	0,01
781,449	0
781,883	-0,01
782,317	-0,02
782,751	-0,03
783,185	-0,03
783,619	-0,04
784,053	-0,06
784,487	-0,07
784,921	-0,07
785,355	-0,08
785,789	-0,09
786,223	-0,1
786,656	-0,11
787,09	-0,12
787,524	-0,13
787,957	-0,14
788,391	-0,16
788,825	-0,18
789,258	-0,19
789,692	-0,2
790,125	-0,22
790,559	-0,24
790,992	-0,26
791,426	-0,29
791,859	-0,3
792,293	-0,33
792,726	-0,35
793,159	-0,37
793,593	-0,39
794,026	-0,41
794,459	-0,44
794,892	-0,47
795,326	-0,49
795,759	-0,53
796,192	-0,57
796,625	-0,62
797,058	-0,64
797,491	-0,69
797,924	-0,72
798,357	-0,77
798,79	-0,82
799,223	-0,86
799,656	-0,91
800,089	-0,96
800,522	-1
800,955	-1,04
801,387	-1,1
801,82	-1,15
802,253	-1,22
802,686	-1,3
803,118	-1,35
803,551	-1,4
803,984	-1,45
804,416	-1,49
804,849	-1,53
805,281	-1,69
805,714	-2,08
806,146	-2,49
806,579	-2,74
807,011	-2,89
807,444	-2,98
807,876	-3,06
808,308	-3,09
808,741	-3,12
809,173	-3,17
809,605	-3,19
810,037	-3,27
810,47	-3,18
810,902	-2,98
811,334	-2,83
811,766	-2,67
812,198	-2,42
812,63	-1,99
813,062	-1,78
813,494	-1,68
813,926	-1,6
814,358	-1,55
814,79	-1,47
815,222	-1,41
815,654	-1,36
816,086	-1,3
816,518	-1,24
816,949	-1,19
817,381	-1,15
817,813	-1,13
818,245	-1,09
818,676	-1,05
819,108	-1,02
819,54	-1
819,971	-0,98
820,403	-0,93
820,834	-0,92
821,266	-0,87
821,697	-0,85
822,129	-0,84
822,56	-0,81
822,991	-0,79
823,423	-0,76
823,854	-0,75
824,286	-0,73
824,717	-0,72
825,148	-0,7
825,579	-0,7
826,01	-0,68
826,442	-0,68
826,873	-0,66
827,304	-0,63
827,735	-0,62
828,166	-0,63
828,597	-0,63
829,028	-0,62
829,459	-0,63
829,89	-0,64
830,321	-0,59
830,752	-0,6
831,183	-0,58
831,613	-0,58
832,044	-0,57
832,475	-0,57
832,906	-0,58
833,336	-0,58
833,767	-0,58
834,198	-0,57
834,628	-0,55
835,059	-0,58
835,49	-0,6
835,92	-0,57
836,351	-0,57
836,781	-0,57
837,212	-0,58
837,642	-0,59
838,072	-0,57
838,503	-0,58
838,933	-0,55
839,364	-0,56
839,794	-0,53
840,224	-0,51
840,654	-0,55
841,085	-0,55
841,515	-0,53
841,945	-0,53
842,375	-0,47
842,805	-0,47
843,235	-0,46
843,665	-0,47
844,095	-0,46
844,525	-0,48
844,955	-0,49
845,385	-0,48
845,815	-0,46
846,245	-0,48
846,675	-0,48
847,105	-0,51
847,534	-0,51
847,964	-0,49
848,394	-0,48
848,824	-0,51
849,253	-0,5
849,683	-0,51
850,112	-0,52
850,542	-0,55
850,972	-0,56
851,401	-0,54
851,831	-0,52
852,26	-0,53
852,69	-0,56
853,119	-0,56
853,548	-0,56
853,978	-0,56
854,407	-0,54
854,836	-0,54
855,266	-0,53
855,695	-0,55
856,124	-0,56
856,553	-0,57
856,983	-0,59
857,412	-0,58
857,841	-0,59
858,27	-0,6
858,699	-0,6
859,128	-0,63
859,557	-0,65
859,986	-0,66
860,415	-0,64
860,844	-0,61
861,273	-0,62
861,702	-0,63
862,13	-0,61
862,559	-0,63
862,988	-0,6
863,417	-0,59
863,845	-0,58
864,274	-0,58
864,703	-0,59
865,131	-0,59
865,56	-0,59
865,989	-0,62
866,417	-0,59
866,846	-0,59
867,274	-0,59
867,703	-0,61
868,131	-0,63
868,559	-0,63
868,988	-0,65
869,416	-0,63
869,844	-0,65
870,273	-0,68
870,701	-0,66
871,129	-0,69
871,557	-0,71
871,986	-0,72
872,414	-0,72
872,842	-0,69
873,27	-0,67
873,698	-0,64
874,126	-0,68
874,554	-0,66
874,982	-0,66
875,41	-0,68
875,838	-0,64
876,266	-0,62
876,694	-0,61
877,122	-0,61
877,549	-0,66
877,977	-0,63
878,405	-0,65
878,833	-0,62
879,26	-0,61
879,688	-0,6
880,116	-0,59
880,543	-0,56
880,971	-0,55
881,399	-0,57
881,826	-0,58
882,254	-0,56
882,681	-0,59
883,109	-0,56
883,536	-0,57
883,963	-0,57
884,391	-0,56
884,818	-0,55
885,245	-0,6
885,673	-0,62
886,1	-0,59
886,527	-0,59
886,954	-0,56
887,381	-0,58
887,809	-0,59
888,236	-0,6
888,663	-0,61
889,09	-0,66
889,517	-0,68
889,944	-0,67
890,371	-0,66
890,798	-0,67
891,225	-0,67
891,652	-0,7
892,078	-0,68
892,505	-0,71
892,932	-0,66
893,359	-0,66
893,786	-0,66
894,212	-0,63
894,639	-0,64
895,066	-0,66
895,492	-0,6
895,919	-0,61
896,346	-0,6
896,772	-0,61
897,199	-0,57
897,625	-0,6
898,052	-0,57
898,478	-0,55
898,904	-0,57
899,331	-0,56
899,757	-0,58
900,183	-0,6
900,61	-0,58
901,036	-0,58
901,462	-0,57
901,888	-0,57
902,315	-0,56
902,741	-0,61
903,167	-0,6
903,593	-0,62
904,019	-0,6
904,445	-0,57
904,871	-0,6
905,297	-0,62
905,723	-0,62
906,149	-0,61
906,575	-0,61
907,001	-0,61
907,427	-0,58
907,852	-0,58
908,278	-0,59
908,704	-0,57
909,13	-0,57
909,555	-0,56
909,981	-0,54
910,407	-0,54
910,832	-0,54
911,258	-0,54
911,684	-0,54
912,109	-0,54
912,535	-0,55
912,96	-0,51
913,386	-0,55
913,811	-0,54
914,236	-0,56
914,662	-0,54
915,087	-0,58
915,512	-0,58
915,938	-0,6
916,363	-0,59
916,788	-0,6
917,213	-0,58
917,639	-0,63
918,064	-0,6
918,489	-0,61
918,914	-0,61
919,339	-0,63
919,764	-0,6
920,189	-0,59
920,614	-0,62
921,039	-0,63
921,464	-0,58
921,889	-0,61
922,314	-0,62
922,738	-0,65
923,163	-0,66
923,588	-0,67
924,013	-0,67
924,437	-0,67
924,862	-0,68
925,287	-0,64
925,711	-0,65
926,136	-0,67
926,561	-0,65
926,985	-0,64
927,41	-0,62
927,834	-0,59
928,259	-0,54
928,683	-0,53
929,108	-0,5
929,532	-0,5
929,956	-0,5
930,381	-0,48
930,805	-0,48
931,229	-0,48
931,653	-0,45
932,078	-0,44
932,502	-0,46
932,926	-0,47
933,35	-0,47
933,774	-0,47
934,198	-0,45
934,622	-0,44
935,046	-0,45
935,47	-0,45
935,894	-0,45
936,318	-0,45
936,742	-0,45
937,166	-0,45
937,59	-0,44
938,014	-0,47
938,437	-0,47
938,861	-0,49
939,285	-0,49
939,709	-0,49
940,132	-0,49
940,556	-0,49
940,98	-0,49
941,403	-0,47
941,827	-0,48
942,25	-0,5
942,674	-0,48
943,097	-0,48
943,521	-0,47
943,944	-0,49
944,368	-0,49
944,791	-0,47
945,214	-0,49
945,638	-0,5
946,061	-0,53
946,484	-0,54
946,907	-0,52
947,331	-0,53
947,754	-0,57
948,177	-0,55
948,6	-0,55
949,023	-0,54
949,446	-0,55
949,869	-0,54
950,292	-0,53
950,715	-0,49
951,138	-0,48
951,561	-0,46
951,984	-0,46
952,407	-0,44
952,83	-0,42
953,252	-0,37
953,675	-0,37
954,098	-0,37
954,521	-0,36
954,943	-0,36
955,366	-0,37
955,789	-0,35
956,211	-0,37
956,634	-0,38
957,056	-0,36
957,479	-0,38
957,902	-0,4
958,324	-0,41
958,746	-0,39
959,169	-0,4
959,591	-0,4
960,014	-0,41
960,436	-0,4
960,858	-0,4
961,281	-0,39
961,703	-0,41
962,125	-0,4
962,547	-0,38
962,969	-0,38
963,391	-0,38
963,814	-0,4
964,236	-0,39
964,658	-0,36
965,08	-0,38
965,502	-0,37
965,924	-0,34
966,346	-0,35
966,768	-0,35
967,189	-0,37
967,611	-0,36
968,033	-0,36
968,455	-0,34
968,877	-0,36
969,298	-0,36
969,72	-0,36
970,142	-0,34
970,563	-0,35
970,985	-0,32
971,407	-0,32
971,828	-0,3
972,25	-0,29
972,671	-0,27
973,093	-0,27
973,514	-0,25
973,936	-0,23
974,357	-0,22
974,778	-0,23
975,2	-0,22
975,621	-0,22
976,042	-0,2
976,464	-0,19
976,885	-0,18
977,306	-0,18
977,727	-0,17
978,148	-0,17
978,57	-0,15
978,991	-0,14
979,412	-0,13
979,833	-0,12
980,254	-0,11
980,675	-0,11
981,096	-0,1
981,517	-0,09
981,937	-0,08
982,358	-0,06
982,779	-0,04
983,2	-0,04
983,621	-0,03
984,042	-0,02
984,462	-0
984,883	0,01
985,304	0,03
985,724	0,04
986,145	0,06
986,565	0,08
986,986	0,09
987,407	0,1
987,827	0,12
988,248	0,14
988,668	0,15
989,088	0,16
989,509	0,18
989,929	0,19
990,35	0,21
990,77	0,22
991,19	0,23
991,61	0,25
992,031	0,26
992,451	0,26
992,871	0,27
993,291	0,28
993,711	0,29
994,131	0,3
994,551	0,31
994,971	0,32
995,391	0,33
995,811	0,33
996,231	0,34
996,651	0,34
997,071	0,35
997,491	0,36
997,911	0,37
998,331	0,38
998,75	0,39
999,17	0,39
999,59	0,4
1000,009	0,4
1000,429	0,41
1000,849	0,42
1001,268	0,42
1001,688	0,42
1002,107	0,43
1002,527	0,43
1002,946	0,44
1003,366	0,44
1003,785	0,45
1004,205	0,45
1004,624	0,45
1005,044	0,46
1005,463	0,46
1005,882	0,46
1006,301	0,47
1006,721	0,47
1007,14	0,47
1007,559	0,47
1007,978	0,47
1008,397	0,47
1008,816	0,47
1009,235	0,47
1009,655	0,47
1010,074	0,47
1010,492	0,47
1010,911	0,47
1011,33	0,47
1011,749	0,47
1012,168	0,47
1012,587	0,47
1013,006	0,47
1013,425	0,47
1013,843	0,47
1014,262	0,47
1014,681	0,47
1015,099	0,47
1015,518	0,47
1015,937	0,47
1016,355	0,47
1016,774	0,46
1017,192	0,46
1017,611	0,46
1018,029	0,46
1018,448	0,46
1018,866	0,46
1019,285	0,46
1019,703	0,46
1020,121	0,46
1020,54	0,46
1020,958	0,46
1021,376	0,46
1021,794	0,46
1022,213	0,46
1022,631	0,46
1023,049	0,46
1023,467	0,46
1023,885	0,46
1024,303	0,46
1024,721	0,45
1025,139	0,45
1025,557	0,45
1025,975	0,45
1026,393	0,45
1026,811	0,45
1027,229	0,45
1027,647	0,45
1028,065	0,45
1028,482	0,45
1028,9	0,45
1029,318	0,45
1029,735	0,44
1030,153	0,44
1030,571	0,44
1030,988	0,44
1031,406	0,45
1031,823	0,45
1032,241	0,45
1032,659	0,45
1033,076	0,45
1033,493	0,45
1033,911	0,45
1034,328	0,45
1034,746	0,45
1035,163	0,45
1035,58	0,45
1035,997	0,45
1036,415	0,45
1036,832	0,45
1037,249	0,45
1037,666	0,45
1038,083	0,45
1038,501	0,45
1038,918	0,45
1039,335	0,45
1039,752	0,45
1040,169	0,45
1040,586	0,45
1041,003	0,45
1041,419	0,45
1041,836	0,45
1042,253	0,45
1042,67	0,45
1043,087	0,45
1043,504	0,45
1043,92	0,45
1044,337	0,45
1044,754	0,45
1045,17	0,45
1045,587	0,45
1046,004	0,44
1046,42	0,44
1046,837	0,44
1047,253	0,44
1047,67	0,44
1048,086	0,44
1048,503	0,44
1048,919	0,44
1049,335	0,44
1049,752	0,44
1050,168	0,44
1050,584	0,44
1051,001	0,44
1051,417	0,44
1051,833	0,45
1052,249	0,45
1052,665	0,45
1053,081	0,45
1053,497	0,45
1053,914	0,45
1054,33	0,45
1054,746	0,45
1055,162	0,46
1055,578	0,46
1055,993	0,46
1056,409	0,46
1056,825	0,46
1057,241	0,46
1057,657	0,46
1058,073	0,46
1058,488	0,46
1058,904	0,46
1059,32	0,46
1059,736	0,46
1060,151	0,46
1060,567	0,46
1060,982	0,46
1061,398	0,46
1061,813	0,46
1062,229	0,46
1062,644	0,46
1063,06	0,46
1063,475	0,46
1063,891	0,45
1064,306	0,45
1064,721	0,45
1065,137	0,45
1065,552	0,45
1065,967	0,45
1066,382	0,45
1066,798	0,45
1067,213	0,45
1067,628	0,45
1068,043	0,45
1068,458	0,45
1068,873	0,45
1069,288	0,45
1069,703	0,45
1070,118	0,45
1070,533	0,45
1070,948	0,45
1071,363	0,45
1071,778	0,45
1072,193	0,45
1072,607	0,45
1073,022	0,45
1073,437	0,45
1073,852	0,45
1074,266	0,45
1074,681	0,45
1075,096	0,45
1075,51	0,45
1075,925	0,45
1076,339	0,45
1076,754	0,45
1077,168	0,45
1077,583	0,45
1077,997	0,45
1078,412	0,45
1078,826	0,45
1079,24	0,45
1079,655	0,45
1080,069	0,45
1080,483	0,44
1080,897	0,44
1081,312	0,44
1081,726	0,44
1082,14	0,44
1082,554	0,44
1082,968	0,44
1083,382	0,44
1083,796	0,43
1084,21	0,43
1084,624	0,43
1085,038	0,43
1085,452	0,43
1085,866	0,43
1086,28	0,43
1086,694	0,42
1087,108	0,42
1087,521	0,42
1087,935	0,42
1088,349	0,42
1088,763	0,42
1089,176	0,41
1089,59	0,41
1090,004	0,41
1090,417	0,4
1090,831	0,4
1091,244	0,4
1091,658	0,39
1092,071	0,39
1092,485	0,39
1092,898	0,39
1093,312	0,38
1093,725	0,38
1094,138	0,38
1094,552	0,38
1094,965	0,38
1095,378	0,37
1095,791	0,37
1096,205	0,37
1096,618	0,37
1097,031	0,36
1097,444	0,36
1097,857	0,35
1098,27	0,35
1098,683	0,35
1099,096	0,35
1099,509	0,34
1099,922	0,34
1100,335	0,33
1100,748	0,33
1101,161	0,32
1101,574	0,32
1101,986	0,31
1102,399	0,31
1102,812	0,3
1103,225	0,3
1103,637	0,29
1104,05	0,29
1104,463	0,29
1104,875	0,29
1105,288	0,28
1105,7	0,28
1106,113	0,27
1106,525	0,27
1106,938	0,26
1107,35	0,25
1107,763	0,25
1108,175	0,24
1108,588	0,24
1109	0,23
1109,412	0,23
1109,824	0,23
1110,237	0,23
1110,649	0,23
1111,061	0,23
