Data from 18C-808nm-8A-cont_Absorbance__515__01944.txt Node

Date: Mon Jul 17 17:38:03 CEST 2023
User: Laser008
Spectrometer: MAYP115816
Trigger mode: 0
Integration Time (sec): 2,500000E-1
Scans to average: 10
Electric dark correction enabled: true
Nonlinearity correction enabled: true
Boxcar width: 5
XAxis mode: Wavelengths
Number of Pixels in Spectrum: 2068
>>>>>Begin Spectral Data<<<<<
198,914	-0,73
199,384	-0,49
199,855	-0,34
200,325	-0,25
200,796	-0,22
201,266	-0,19
201,737	-0,17
202,207	-0,16
202,677	-0,16
203,147	-0,15
203,618	-0,11
204,088	-0,1
204,558	-0,09
205,028	-0,09
205,498	-0,11
205,968	-0,1
206,439	-0,11
206,909	-0,11
207,379	-0,11
207,849	-0,11
208,319	-0,12
208,789	-0,13
209,258	-0,12
209,728	-0,14
210,198	-0,14
210,668	-0,14
211,138	-0,13
211,608	-0,13
212,077	-0,14
212,547	-0,13
213,017	-0,13
213,486	-0,13
213,956	-0,14
214,426	-0,15
214,895	-0,14
215,365	-0,15
215,834	-0,15
216,304	-0,15
216,773	-0,15
217,243	-0,17
217,712	-0,18
218,181	-0,18
218,651	-0,17
219,12	-0,17
219,589	-0,17
220,058	-0,17
220,528	-0,18
220,997	-0,18
221,466	-0,2
221,935	-0,21
222,404	-0,2
222,873	-0,19
223,342	-0,19
223,812	-0,2
224,281	-0,19
224,749	-0,2
225,218	-0,21
225,687	-0,21
226,156	-0,2
226,625	-0,19
227,094	-0,18
227,563	-0,18
228,031	-0,19
228,5	-0,19
228,969	-0,19
229,438	-0,18
229,906	-0,16
230,375	-0,15
230,844	-0,14
231,312	-0,14
231,781	-0,15
232,249	-0,14
232,718	-0,14
233,186	-0,13
233,655	-0,13
234,123	-0,12
234,591	-0,13
235,06	-0,13
235,528	-0,13
235,996	-0,13
236,465	-0,12
236,933	-0,12
237,401	-0,12
237,869	-0,11
238,337	-0,11
238,805	-0,1
239,274	-0,1
239,742	-0,09
240,21	-0,09
240,678	-0,09
241,146	-0,08
241,614	-0,08
242,081	-0,09
242,549	-0,09
243,017	-0,09
243,485	-0,09
243,953	-0,09
244,421	-0,1
244,888	-0,1
245,356	-0,1
245,824	-0,09
246,291	-0,1
246,759	-0,11
247,227	-0,11
247,694	-0,1
248,162	-0,09
248,629	-0,09
249,097	-0,09
249,564	-0,09
250,032	-0,1
250,499	-0,11
250,967	-0,13
251,434	-0,14
251,901	-0,14
252,369	-0,14
252,836	-0,15
253,303	-0,16
253,77	-0,18
254,237	-0,17
254,705	-0,17
255,172	-0,16
255,639	-0,16
256,106	-0,16
256,573	-0,16
257,04	-0,16
257,507	-0,16
257,974	-0,16
258,441	-0,15
258,908	-0,15
259,375	-0,16
259,841	-0,16
260,308	-0,17
260,775	-0,17
261,242	-0,16
261,709	-0,17
262,175	-0,17
262,642	-0,17
263,109	-0,17
263,575	-0,18
264,042	-0,16
264,508	-0,16
264,975	-0,17
265,441	-0,18
265,908	-0,18
266,374	-0,17
266,841	-0,17
267,307	-0,17
267,773	-0,17
268,24	-0,16
268,706	-0,17
269,172	-0,17
269,639	-0,18
270,105	-0,18
270,571	-0,18
271,037	-0,19
271,503	-0,2
271,969	-0,2
272,435	-0,2
272,902	-0,22
273,368	-0,23
273,834	-0,23
274,3	-0,24
274,765	-0,24
275,231	-0,24
275,697	-0,23
276,163	-0,22
276,629	-0,22
277,095	-0,22
277,56	-0,22
278,026	-0,22
278,492	-0,2
278,958	-0,2
279,423	-0,2
279,889	-0,2
280,354	-0,2
280,82	-0,21
281,286	-0,23
281,751	-0,23
282,217	-0,22
282,682	-0,22
283,147	-0,21
283,613	-0,22
284,078	-0,22
284,544	-0,23
285,009	-0,24
285,474	-0,23
285,939	-0,24
286,405	-0,22
286,87	-0,21
287,335	-0,21
287,8	-0,21
288,265	-0,2
288,73	-0,22
289,195	-0,24
289,66	-0,24
290,125	-0,22
290,59	-0,22
291,055	-0,21
291,52	-0,22
291,985	-0,23
292,45	-0,24
292,915	-0,23
293,38	-0,23
293,844	-0,22
294,309	-0,2
294,774	-0,2
295,239	-0,21
295,703	-0,22
296,168	-0,21
296,632	-0,2
297,097	-0,19
297,562	-0,18
298,026	-0,18
298,491	-0,19
298,955	-0,18
299,419	-0,17
299,884	-0,18
300,348	-0,17
300,813	-0,16
301,277	-0,17
301,741	-0,17
302,205	-0,17
302,67	-0,16
303,134	-0,16
303,598	-0,15
304,062	-0,15
304,526	-0,14
304,99	-0,14
305,454	-0,15
305,919	-0,14
306,383	-0,14
306,847	-0,13
307,31	-0,14
307,774	-0,15
308,238	-0,14
308,702	-0,14
309,166	-0,15
309,63	-0,16
310,094	-0,14
310,557	-0,12
311,021	-0,12
311,485	-0,12
311,948	-0,13
312,412	-0,11
312,876	-0,11
313,339	-0,11
313,803	-0,11
314,266	-0,11
314,73	-0,11
315,193	-0,11
315,657	-0,1
316,12	-0,1
316,584	-0,08
317,047	-0,08
317,51	-0,07
317,973	-0,07
318,437	-0,06
318,9	-0,04
319,363	-0,03
319,826	-0,02
320,29	-0,02
320,753	-0,03
321,216	-0,02
321,679	-0,03
322,142	-0,02
322,605	-0,03
323,068	-0,03
323,531	-0,04
323,994	-0,03
324,457	-0,03
324,92	-0,02
325,382	-0,02
325,845	-0,02
326,308	-0,02
326,771	-0,01
327,233	-0,01
327,696	-0
328,159	0
328,622	0,02
329,084	0,02
329,547	0,02
330,009	0,02
330,472	0,04
330,934	0,04
331,397	0,05
331,859	0,05
332,322	0,06
332,784	0,06
333,246	0,07
333,709	0,06
334,171	0,06
334,633	0,06
335,096	0,06
335,558	0,06
336,02	0,07
336,482	0,07
336,944	0,08
337,406	0,08
337,868	0,09
338,331	0,09
338,793	0,1
339,255	0,11
339,717	0,11
340,178	0,12
340,64	0,13
341,102	0,14
341,564	0,15
342,026	0,16
342,488	0,17
342,949	0,19
343,411	0,22
343,873	0,25
344,335	0,28
344,796	0,33
345,258	0,37
345,719	0,42
346,181	0,47
346,643	0,52
347,104	0,56
347,566	0,6
348,027	0,64
348,488	0,66
348,95	0,68
349,411	0,71
349,873	0,74
350,334	0,77
350,795	0,79
351,256	0,81
351,718	0,81
352,179	0,82
352,64	0,83
353,101	0,83
353,562	0,84
354,023	0,84
354,484	0,85
354,945	0,85
355,406	0,85
355,867	0,86
356,328	0,86
356,789	0,86
357,25	0,86
357,711	0,87
358,172	0,87
358,633	0,87
359,093	0,87
359,554	0,87
360,015	0,88
360,476	0,88
360,936	0,88
361,397	0,88
361,858	0,88
362,318	0,88
362,779	0,88
363,239	0,89
363,7	0,89
364,16	0,89
364,621	0,89
365,081	0,89
365,541	0,89
366,002	0,89
366,462	0,89
366,922	0,89
367,383	0,89
367,843	0,89
368,303	0,89
368,763	0,89
369,223	0,89
369,684	0,89
370,144	0,89
370,604	0,89
371,064	0,89
371,524	0,89
371,984	0,89
372,444	0,89
372,904	0,89
373,363	0,89
373,823	0,89
374,283	0,89
374,743	0,88
375,203	0,88
375,663	0,88
376,122	0,88
376,582	0,88
377,042	0,88
377,501	0,88
377,961	0,88
378,42	0,88
378,88	0,88
379,34	0,88
379,799	0,88
380,259	0,88
380,718	0,88
381,177	0,88
381,637	0,88
382,096	0,88
382,555	0,88
383,015	0,88
383,474	0,88
383,933	0,88
384,393	0,88
384,852	0,88
385,311	0,88
385,77	0,88
386,229	0,88
386,688	0,88
387,147	0,88
387,606	0,88
388,065	0,88
388,524	0,88
388,983	0,88
389,442	0,87
389,901	0,87
390,36	0,87
390,819	0,87
391,277	0,87
391,736	0,87
392,195	0,87
392,654	0,87
393,112	0,87
393,571	0,87
394,03	0,87
394,488	0,87
394,947	0,87
395,405	0,87
395,864	0,87
396,322	0,87
396,781	0,87
397,239	0,87
397,698	0,87
398,156	0,87
398,614	0,87
399,073	0,87
399,531	0,87
399,989	0,87
400,447	0,87
400,905	0,87
401,364	0,87
401,822	0,87
402,28	0,87
402,738	0,86
403,196	0,86
403,654	0,86
404,112	0,86
404,57	0,86
405,028	0,86
405,486	0,86
405,944	0,86
406,402	0,86
406,859	0,86
407,317	0,86
407,775	0,86
408,233	0,86
408,691	0,86
409,148	0,86
409,606	0,86
410,064	0,86
410,521	0,86
410,979	0,86
411,436	0,86
411,894	0,86
412,351	0,86
412,809	0,86
413,266	0,86
413,724	0,86
414,181	0,86
414,638	0,86
415,096	0,86
415,553	0,86
416,01	0,86
416,467	0,86
416,925	0,86
417,382	0,86
417,839	0,86
418,296	0,86
418,753	0,86
419,21	0,86
419,667	0,86
420,124	0,86
420,581	0,86
421,038	0,86
421,495	0,86
421,952	0,86
422,409	0,86
422,866	0,86
423,322	0,86
423,779	0,86
424,236	0,86
424,693	0,86
425,149	0,86
425,606	0,86
426,063	0,86
426,519	0,86
426,976	0,86
427,433	0,86
427,889	0,86
428,346	0,86
428,802	0,86
429,258	0,86
429,715	0,86
430,171	0,86
430,628	0,86
431,084	0,86
431,54	0,86
431,997	0,86
432,453	0,86
432,909	0,86
433,365	0,85
433,821	0,85
434,277	0,85
434,734	0,85
435,19	0,85
435,646	0,85
436,102	0,85
436,558	0,85
437,014	0,85
437,47	0,85
437,925	0,85
438,381	0,85
438,837	0,85
439,293	0,85
439,749	0,85
440,205	0,85
440,66	0,85
441,116	0,86
441,572	0,86
442,027	0,86
442,483	0,86
442,939	0,86
443,394	0,86
443,85	0,86
444,305	0,86
444,761	0,86
445,216	0,86
445,672	0,86
446,127	0,86
446,582	0,86
447,038	0,86
447,493	0,86
447,948	0,86
448,403	0,86
448,859	0,86
449,314	0,86
449,769	0,86
450,224	0,86
450,679	0,86
451,134	0,86
451,589	0,86
452,044	0,86
452,499	0,86
452,954	0,86
453,409	0,86
453,864	0,86
454,319	0,86
454,774	0,86
455,229	0,86
455,684	0,86
456,138	0,86
456,593	0,86
457,048	0,86
457,503	0,86
457,957	0,86
458,412	0,86
458,866	0,87
459,321	0,87
459,776	0,87
460,23	0,87
460,685	0,87
461,139	0,87
461,593	0,87
462,048	0,87
462,502	0,87
462,957	0,87
463,411	0,87
463,865	0,88
464,319	0,88
464,774	0,88
465,228	0,88
465,682	0,88
466,136	0,88
466,59	0,88
467,044	0,88
467,499	0,88
467,953	0,88
468,407	0,89
468,861	0,89
469,315	0,89
469,768	0,89
470,222	0,89
470,676	0,89
471,13	0,89
471,584	0,89
472,038	0,89
472,491	0,89
472,945	0,9
473,399	0,9
473,852	0,9
474,306	0,9
474,76	0,9
475,213	0,9
475,667	0,9
476,12	0,9
476,574	0,91
477,027	0,91
477,481	0,91
477,934	0,91
478,388	0,91
478,841	0,91
479,294	0,92
479,748	0,92
480,201	0,92
480,654	0,92
481,107	0,92
481,561	0,93
482,014	0,93
482,467	0,93
482,92	0,93
483,373	0,93
483,826	0,93
484,279	0,94
484,732	0,94
485,185	0,94
485,638	0,94
486,091	0,95
486,544	0,95
486,997	0,95
487,449	0,95
487,902	0,96
488,355	0,96
488,808	0,96
489,26	0,96
489,713	0,97
490,166	0,97
490,618	0,97
491,071	0,98
491,523	0,98
491,976	0,98
492,429	0,99
492,881	0,99
493,333	0,99
493,786	1
494,238	1
494,691	1
495,143	1,01
495,595	1,01
496,048	1,01
496,5	1,02
496,952	1,02
497,404	1,03
497,856	1,03
498,309	1,03
498,761	1,04
499,213	1,04
499,665	1,05
500,117	1,05
500,569	1,06
501,021	1,06
501,473	1,07
501,925	1,07
502,377	1,07
502,828	1,08
503,28	1,08
503,732	1,09
504,184	1,09
504,636	1,09
505,087	1,1
505,539	1,1
505,991	1,11
506,442	1,11
506,894	1,12
507,345	1,12
507,797	1,12
508,249	1,13
508,7	1,13
509,151	1,14
509,603	1,14
510,054	1,15
510,506	1,15
510,957	1,16
511,408	1,16
511,86	1,16
512,311	1,17
512,762	1,17
513,213	1,17
513,665	1,18
514,116	1,18
514,567	1,18
515,018	1,19
515,469	1,19
515,92	1,2
516,371	1,2
516,822	1,2
517,273	1,21
517,724	1,21
518,175	1,21
518,626	1,21
519,076	1,22
519,527	1,22
519,978	1,22
520,429	1,22
520,88	1,22
521,33	1,23
521,781	1,23
522,232	1,23
522,682	1,23
523,133	1,23
523,583	1,24
524,034	1,24
524,484	1,24
524,935	1,24
525,385	1,24
525,836	1,24
526,286	1,24
526,736	1,24
527,187	1,24
527,637	1,24
528,087	1,24
528,538	1,24
528,988	1,24
529,438	1,24
529,888	1,24
530,338	1,23
530,788	1,23
531,238	1,23
531,688	1,23
532,139	1,23
532,589	1,23
533,038	1,22
533,488	1,22
533,938	1,22
534,388	1,22
534,838	1,21
535,288	1,21
535,738	1,21
536,187	1,2
536,637	1,2
537,087	1,2
537,537	1,19
537,986	1,19
538,436	1,18
538,885	1,17
539,335	1,17
539,785	1,16
540,234	1,16
540,684	1,15
541,133	1,15
541,582	1,14
542,032	1,14
542,481	1,13
542,931	1,13
543,38	1,12
543,829	1,11
544,278	1,11
544,728	1,1
545,177	1,1
545,626	1,09
546,075	1,09
546,524	1,08
546,973	1,08
547,422	1,07
547,871	1,07
548,32	1,07
548,769	1,06
549,218	1,06
549,667	1,06
550,116	1,05
550,565	1,05
551,014	1,04
551,463	1,04
551,911	1,03
552,36	1,03
552,809	1,02
553,258	1,02
553,706	1,01
554,155	1,01
554,603	1
555,052	1
555,501	0,99
555,949	0,99
556,398	0,98
556,846	0,98
557,294	0,97
557,743	0,97
558,191	0,96
558,64	0,96
559,088	0,95
559,536	0,94
559,985	0,94
560,433	0,93
560,881	0,93
561,329	0,92
561,777	0,92
562,225	0,91
562,674	0,91
563,122	0,91
563,57	0,9
564,018	0,9
564,466	0,89
564,914	0,89
565,362	0,88
565,809	0,88
566,257	0,87
566,705	0,87
567,153	0,86
567,601	0,86
568,048	0,85
568,496	0,85
568,944	0,85
569,392	0,84
569,839	0,84
570,287	0,83
570,734	0,83
571,182	0,83
571,63	0,82
572,077	0,82
572,525	0,81
572,972	0,81
573,419	0,81
573,867	0,8
574,314	0,8
574,761	0,79
575,209	0,79
575,656	0,79
576,103	0,78
576,551	0,78
576,998	0,78
577,445	0,77
577,892	0,77
578,339	0,77
578,786	0,76
579,233	0,76
579,68	0,75
580,127	0,75
580,574	0,75
581,021	0,74
581,468	0,74
581,915	0,74
582,362	0,74
582,809	0,73
583,255	0,73
583,702	0,73
584,149	0,73
584,596	0,72
585,042	0,72
585,489	0,71
585,936	0,71
586,382	0,71
586,829	0,71
587,275	0,71
587,722	0,7
588,168	0,7
588,615	0,7
589,061	0,69
589,508	0,69
589,954	0,69
590,4	0,69
590,847	0,68
591,293	0,68
591,739	0,68
592,185	0,68
592,632	0,68
593,078	0,67
593,524	0,67
593,97	0,67
594,416	0,67
594,862	0,67
595,308	0,67
595,754	0,67
596,2	0,67
596,646	0,66
597,092	0,66
597,538	0,66
597,984	0,66
598,43	0,66
598,876	0,65
599,321	0,65
599,767	0,65
600,213	0,65
600,659	0,65
601,104	0,65
601,55	0,65
601,995	0,64
602,441	0,64
602,887	0,64
603,332	0,64
603,778	0,64
604,223	0,64
604,668	0,63
605,114	0,63
605,559	0,63
606,005	0,63
606,45	0,63
606,895	0,63
607,341	0,63
607,786	0,63
608,231	0,62
608,676	0,62
609,121	0,61
609,566	0,6
610,012	0,6
610,457	0,59
610,902	0,59
611,347	0,59
611,792	0,58
612,237	0,58
612,682	0,58
613,127	0,58
613,571	0,58
614,016	0,58
614,461	0,59
614,906	0,59
615,351	0,59
615,795	0,59
616,24	0,59
616,685	0,59
617,129	0,59
617,574	0,59
618,019	0,59
618,463	0,59
618,908	0,59
619,352	0,59
619,797	0,59
620,241	0,59
620,686	0,59
621,13	0,59
621,574	0,59
622,019	0,59
622,463	0,59
622,907	0,58
623,352	0,58
623,796	0,58
624,24	0,58
624,684	0,58
625,128	0,58
625,572	0,58
626,016	0,58
626,461	0,58
626,905	0,58
627,349	0,58
627,793	0,58
628,236	0,58
628,68	0,58
629,124	0,58
629,568	0,58
630,012	0,58
630,456	0,58
630,9	0,58
631,343	0,58
631,787	0,58
632,231	0,58
632,674	0,58
633,118	0,58
633,562	0,57
634,005	0,57
634,449	0,57
634,892	0,57
635,336	0,57
635,779	0,57
636,223	0,57
636,666	0,57
637,109	0,57
637,553	0,57
637,996	0,57
638,439	0,57
638,883	0,57
639,326	0,57
639,769	0,57
640,212	0,57
640,655	0,57
641,099	0,56
641,542	0,56
641,985	0,56
642,428	0,56
642,871	0,56
643,314	0,56
643,757	0,56
644,2	0,56
644,643	0,56
645,085	0,56
645,528	0,56
645,971	0,56
646,414	0,56
646,857	0,56
647,299	0,56
647,742	0,55
648,185	0,55
648,627	0,55
649,07	0,55
649,513	0,55
649,955	0,55
650,398	0,55
650,84	0,55
651,283	0,56
651,725	0,56
652,168	0,56
652,61	0,56
653,052	0,56
653,495	0,55
653,937	0,46
654,379	0,41
654,821	0,41
655,264	0,42
655,706	0,42
656,148	0,42
656,59	0,42
657,032	0,42
657,474	0,42
657,916	0,41
658,358	0,41
658,8	0,47
659,242	0,55
659,684	0,55
660,126	0,55
660,568	0,55
661,01	0,55
661,452	0,55
661,894	0,55
662,335	0,55
662,777	0,55
663,219	0,55
663,661	0,55
664,102	0,55
664,544	0,55
664,985	0,55
665,427	0,55
665,869	0,55
666,31	0,55
666,752	0,55
667,193	0,55
667,634	0,55
668,076	0,55
668,517	0,55
668,959	0,55
669,4	0,55
669,841	0,55
670,282	0,55
670,724	0,55
671,165	0,55
671,606	0,55
672,047	0,54
672,488	0,54
672,929	0,54
673,37	0,54
673,811	0,54
674,252	0,54
674,693	0,54
675,134	0,54
675,575	0,54
676,016	0,54
676,457	0,54
676,898	0,54
677,339	0,54
677,78	0,53
678,22	0,53
678,661	0,54
679,102	0,54
679,542	0,54
679,983	0,54
680,424	0,54
680,864	0,54
681,305	0,54
681,745	0,54
682,186	0,54
682,626	0,54
683,067	0,54
683,507	0,54
683,948	0,54
684,388	0,54
684,828	0,54
685,269	0,54
685,709	0,54
686,149	0,54
686,589	0,53
687,029	0,53
687,47	0,53
687,91	0,53
688,35	0,53
688,79	0,53
689,23	0,53
689,67	0,53
690,11	0,53
690,55	0,53
690,99	0,53
691,43	0,53
691,87	0,53
692,31	0,52
692,749	0,52
693,189	0,52
693,629	0,52
694,069	0,52
694,508	0,52
694,948	0,52
695,388	0,52
695,827	0,52
696,267	0,52
696,706	0,52
697,146	0,52
697,586	0,52
698,025	0,53
698,464	0,53
698,904	0,53
699,343	0,53
699,783	0,53
700,222	0,53
700,661	0,53
701,101	0,53
701,54	0,53
701,979	0,53
702,418	0,53
702,857	0,53
703,297	0,53
703,736	0,53
704,175	0,53
704,614	0,53
705,053	0,53
705,492	0,52
705,931	0,52
706,37	0,52
706,809	0,52
707,248	0,52
707,687	0,52
708,125	0,52
708,564	0,52
709,003	0,52
709,442	0,52
709,88	0,52
710,319	0,52
710,758	0,52
711,196	0,52
711,635	0,52
712,074	0,52
712,512	0,52
712,951	0,52
713,389	0,51
713,828	0,51
714,266	0,51
714,705	0,51
715,143	0,51
715,581	0,51
716,02	0,51
716,458	0,51
716,896	0,51
717,334	0,51
717,773	0,51
718,211	0,51
718,649	0,52
719,087	0,52
719,525	0,52
719,963	0,52
720,401	0,52
720,839	0,52
721,277	0,52
721,715	0,52
722,153	0,52
722,591	0,52
723,029	0,52
723,467	0,52
723,905	0,51
724,342	0,51
724,78	0,51
725,218	0,51
725,656	0,51
726,093	0,51
726,531	0,51
726,969	0,51
727,406	0,51
727,844	0,51
728,281	0,51
728,719	0,51
729,156	0,51
729,594	0,51
730,031	0,51
730,469	0,51
730,906	0,51
731,343	0,51
731,781	0,51
732,218	0,51
732,655	0,5
733,092	0,5
733,53	0,5
733,967	0,5
734,404	0,5
734,841	0,5
735,278	0,5
735,715	0,5
736,152	0,5
736,589	0,5
737,026	0,5
737,463	0,5
737,9	0,5
738,337	0,5
738,774	0,5
739,211	0,5
739,647	0,5
740,084	0,5
740,521	0,5
740,958	0,5
741,394	0,5
741,831	0,5
742,268	0,5
742,704	0,5
743,141	0,5
743,577	0,5
744,014	0,5
744,45	0,5
744,887	0,5
745,323	0,5
745,76	0,5
746,196	0,49
746,632	0,49
747,069	0,49
747,505	0,49
747,941	0,49
748,378	0,49
748,814	0,49
749,25	0,49
749,686	0,49
750,122	0,49
750,558	0,5
750,994	0,5
751,43	0,5
751,866	0,5
752,302	0,5
752,738	0,5
753,174	0,5
753,61	0,5
754,046	0,5
754,482	0,5
754,918	0,5
755,354	0,49
755,789	0,49
756,225	0,49
756,661	0,49
757,096	0,49
757,532	0,49
757,968	0,48
758,403	0,48
758,839	0,48
759,274	0,48
759,71	0,47
760,145	0,46
760,581	0,46
761,016	0,45
761,452	0,45
761,887	0,44
762,322	0,44
762,758	0,43
763,193	0,43
763,628	0,42
764,063	0,41
764,499	0,4
764,934	0,4
765,369	0,39
765,804	0,38
766,239	0,37
766,674	0,36
767,109	0,35
767,544	0,35
767,979	0,33
768,414	0,33
768,849	0,32
769,284	0,31
769,719	0,3
770,154	0,29
770,588	0,28
771,023	0,27
771,458	0,26
771,893	0,24
772,327	0,23
772,762	0,22
773,197	0,21
773,631	0,2
774,066	0,19
774,5	0,18
774,935	0,18
775,369	0,17
775,804	0,15
776,238	0,14
776,673	0,13
777,107	0,12
777,541	0,11
777,976	0,1
778,41	0,09
778,844	0,07
779,279	0,06
779,713	0,05
780,147	0,04
780,581	0,04
781,015	0,03
781,449	0,02
781,883	0,01
782,317	-0,01
782,751	-0,02
783,185	-0,03
783,619	-0,04
784,053	-0,05
784,487	-0,06
784,921	-0,06
785,355	-0,07
785,789	-0,08
786,223	-0,09
786,656	-0,1
787,09	-0,12
787,524	-0,12
787,957	-0,13
788,391	-0,15
788,825	-0,16
789,258	-0,17
789,692	-0,19
790,125	-0,2
790,559	-0,23
790,992	-0,24
791,426	-0,26
791,859	-0,28
792,293	-0,3
792,726	-0,32
793,159	-0,34
793,593	-0,36
794,026	-0,39
794,459	-0,42
794,892	-0,45
795,326	-0,48
795,759	-0,52
796,192	-0,56
796,625	-0,61
797,058	-0,64
797,491	-0,68
797,924	-0,72
798,357	-0,76
798,79	-0,81
799,223	-0,85
799,656	-0,9
800,089	-0,95
800,522	-0,99
800,955	-1,03
801,387	-1,09
801,82	-1,14
802,253	-1,21
802,686	-1,29
803,118	-1,34
803,551	-1,4
803,984	-1,44
804,416	-1,48
804,849	-1,51
805,281	-1,59
805,714	-1,93
806,146	-2,42
806,579	-2,69
807,011	-2,86
807,444	-2,96
807,876	-3,04
808,308	-3,08
808,741	-3,11
809,173	-3,16
809,605	-3,18
810,037	-3,26
810,47	-3,18
810,902	-2,98
811,334	-2,83
811,766	-2,68
812,198	-2,43
812,63	-2,01
813,062	-1,79
813,494	-1,7
813,926	-1,61
814,358	-1,56
814,79	-1,48
815,222	-1,42
815,654	-1,37
816,086	-1,31
816,518	-1,25
816,949	-1,2
817,381	-1,16
817,813	-1,14
818,245	-1,1
818,676	-1,06
819,108	-1,03
819,54	-1,01
819,971	-0,99
820,403	-0,94
820,834	-0,93
821,266	-0,88
821,697	-0,86
822,129	-0,84
822,56	-0,82
822,991	-0,8
823,423	-0,77
823,854	-0,76
824,286	-0,73
824,717	-0,72
825,148	-0,7
825,579	-0,69
826,01	-0,68
826,442	-0,68
826,873	-0,66
827,304	-0,62
827,735	-0,62
828,166	-0,62
828,597	-0,62
829,028	-0,61
829,459	-0,62
829,89	-0,62
830,321	-0,58
830,752	-0,58
831,183	-0,57
831,613	-0,57
832,044	-0,57
832,475	-0,55
832,906	-0,57
833,336	-0,58
833,767	-0,58
834,198	-0,57
834,628	-0,55
835,059	-0,57
835,49	-0,57
835,92	-0,54
836,351	-0,54
836,781	-0,54
837,212	-0,56
837,642	-0,55
838,072	-0,54
838,503	-0,55
838,933	-0,53
839,364	-0,54
839,794	-0,52
840,224	-0,52
840,654	-0,57
841,085	-0,58
841,515	-0,54
841,945	-0,55
842,375	-0,5
842,805	-0,49
843,235	-0,47
843,665	-0,48
844,095	-0,46
844,525	-0,48
844,955	-0,47
845,385	-0,45
845,815	-0,44
846,245	-0,47
846,675	-0,48
847,105	-0,5
847,534	-0,49
847,964	-0,48
848,394	-0,47
848,824	-0,51
849,253	-0,51
849,683	-0,51
850,112	-0,51
850,542	-0,54
850,972	-0,54
851,401	-0,52
851,831	-0,5
852,26	-0,51
852,69	-0,54
853,119	-0,54
853,548	-0,54
853,978	-0,54
854,407	-0,52
854,836	-0,53
855,266	-0,52
855,695	-0,53
856,124	-0,54
856,553	-0,56
856,983	-0,58
857,412	-0,57
857,841	-0,59
858,27	-0,59
858,699	-0,59
859,128	-0,63
859,557	-0,63
859,986	-0,64
860,415	-0,63
860,844	-0,6
861,273	-0,6
861,702	-0,61
862,13	-0,59
862,559	-0,6
862,988	-0,58
863,417	-0,57
863,845	-0,57
864,274	-0,58
864,703	-0,57
865,131	-0,58
865,56	-0,58
865,989	-0,6
866,417	-0,57
866,846	-0,58
867,274	-0,56
867,703	-0,59
868,131	-0,6
868,559	-0,6
868,988	-0,62
869,416	-0,61
869,844	-0,62
870,273	-0,65
870,701	-0,64
871,129	-0,68
871,557	-0,7
871,986	-0,71
872,414	-0,71
872,842	-0,68
873,27	-0,67
873,698	-0,64
874,126	-0,67
874,554	-0,65
874,982	-0,66
875,41	-0,68
875,838	-0,63
876,266	-0,6
876,694	-0,61
877,122	-0,6
877,549	-0,65
877,977	-0,62
878,405	-0,65
878,833	-0,62
879,26	-0,61
879,688	-0,6
880,116	-0,59
880,543	-0,57
880,971	-0,57
881,399	-0,59
881,826	-0,6
882,254	-0,58
882,681	-0,61
883,109	-0,57
883,536	-0,58
883,963	-0,6
884,391	-0,59
884,818	-0,57
885,245	-0,61
885,673	-0,63
886,1	-0,6
886,527	-0,6
886,954	-0,56
887,381	-0,58
887,809	-0,6
888,236	-0,62
888,663	-0,62
889,09	-0,67
889,517	-0,69
889,944	-0,68
890,371	-0,66
890,798	-0,67
891,225	-0,66
891,652	-0,69
892,078	-0,66
892,505	-0,68
892,932	-0,62
893,359	-0,63
893,786	-0,62
894,212	-0,59
894,639	-0,6
895,066	-0,63
895,492	-0,57
895,919	-0,57
896,346	-0,56
896,772	-0,57
897,199	-0,54
897,625	-0,58
898,052	-0,55
898,478	-0,54
898,904	-0,55
899,331	-0,54
899,757	-0,55
900,183	-0,58
900,61	-0,56
901,036	-0,57
901,462	-0,57
901,888	-0,57
902,315	-0,55
902,741	-0,59
903,167	-0,59
903,593	-0,61
904,019	-0,6
904,445	-0,56
904,871	-0,59
905,297	-0,61
905,723	-0,61
906,149	-0,59
906,575	-0,59
907,001	-0,59
907,427	-0,57
907,852	-0,55
908,278	-0,56
908,704	-0,55
909,13	-0,55
909,555	-0,54
909,981	-0,54
910,407	-0,54
910,832	-0,53
911,258	-0,53
911,684	-0,54
912,109	-0,53
912,535	-0,56
912,96	-0,52
913,386	-0,55
913,811	-0,55
914,236	-0,57
914,662	-0,55
915,087	-0,58
915,512	-0,59
915,938	-0,61
916,363	-0,6
916,788	-0,62
917,213	-0,59
917,639	-0,64
918,064	-0,61
918,489	-0,61
918,914	-0,61
919,339	-0,62
919,764	-0,59
920,189	-0,59
920,614	-0,61
921,039	-0,62
921,464	-0,57
921,889	-0,6
922,314	-0,61
922,738	-0,64
923,163	-0,66
923,588	-0,66
924,013	-0,66
924,437	-0,65
924,862	-0,66
925,287	-0,62
925,711	-0,62
926,136	-0,64
926,561	-0,62
926,985	-0,61
927,41	-0,57
927,834	-0,55
928,259	-0,52
928,683	-0,5
929,108	-0,48
929,532	-0,48
929,956	-0,48
930,381	-0,47
930,805	-0,46
931,229	-0,46
931,653	-0,45
932,078	-0,45
932,502	-0,46
932,926	-0,47
933,35	-0,47
933,774	-0,47
934,198	-0,45
934,622	-0,45
935,046	-0,46
935,47	-0,47
935,894	-0,46
936,318	-0,45
936,742	-0,45
937,166	-0,45
937,59	-0,45
938,014	-0,48
938,437	-0,48
938,861	-0,5
939,285	-0,5
939,709	-0,49
940,132	-0,5
940,556	-0,5
940,98	-0,5
941,403	-0,49
941,827	-0,49
942,25	-0,5
942,674	-0,49
943,097	-0,48
943,521	-0,48
943,944	-0,49
944,368	-0,48
944,791	-0,46
945,214	-0,48
945,638	-0,48
946,061	-0,52
946,484	-0,53
946,907	-0,5
947,331	-0,5
947,754	-0,54
948,177	-0,51
948,6	-0,51
949,023	-0,51
949,446	-0,51
949,869	-0,49
950,292	-0,5
950,715	-0,46
951,138	-0,45
951,561	-0,43
951,984	-0,43
952,407	-0,41
952,83	-0,41
953,252	-0,37
953,675	-0,38
954,098	-0,38
954,521	-0,37
954,943	-0,36
955,366	-0,36
955,789	-0,34
956,211	-0,37
956,634	-0,37
957,056	-0,35
957,479	-0,37
957,902	-0,39
958,324	-0,38
958,746	-0,36
959,169	-0,37
959,591	-0,37
960,014	-0,38
960,436	-0,38
960,858	-0,38
961,281	-0,38
961,703	-0,39
962,125	-0,38
962,547	-0,35
962,969	-0,36
963,391	-0,37
963,814	-0,38
964,236	-0,36
964,658	-0,33
965,08	-0,35
965,502	-0,33
965,924	-0,31
966,346	-0,31
966,768	-0,29
967,189	-0,32
967,611	-0,32
968,033	-0,32
968,455	-0,31
968,877	-0,32
969,298	-0,33
969,72	-0,33
970,142	-0,33
970,563	-0,33
970,985	-0,31
971,407	-0,31
971,828	-0,28
972,25	-0,27
972,671	-0,25
973,093	-0,25
973,514	-0,23
973,936	-0,22
974,357	-0,21
974,778	-0,21
975,2	-0,21
975,621	-0,21
976,042	-0,2
976,464	-0,19
976,885	-0,19
977,306	-0,18
977,727	-0,17
978,148	-0,16
978,57	-0,15
978,991	-0,14
979,412	-0,12
979,833	-0,11
980,254	-0,09
980,675	-0,09
981,096	-0,08
981,517	-0,06
981,937	-0,06
982,358	-0,04
982,779	-0,03
983,2	-0,02
983,621	-0,02
984,042	0
984,462	0,01
984,883	0,03
985,304	0,05
985,724	0,06
986,145	0,07
986,565	0,09
986,986	0,1
987,407	0,12
987,827	0,13
988,248	0,15
988,668	0,17
989,088	0,17
989,509	0,19
989,929	0,19
990,35	0,21
990,77	0,23
991,19	0,24
991,61	0,25
992,031	0,26
992,451	0,27
992,871	0,28
993,291	0,29
993,711	0,31
994,131	0,32
994,551	0,33
994,971	0,34
995,391	0,34
995,811	0,35
996,231	0,36
996,651	0,36
997,071	0,37
997,491	0,38
997,911	0,39
998,331	0,4
998,75	0,41
999,17	0,42
999,59	0,42
1000,009	0,43
1000,429	0,43
1000,849	0,44
1001,268	0,45
1001,688	0,45
1002,107	0,46
1002,527	0,46
1002,946	0,46
1003,366	0,47
1003,785	0,47
1004,205	0,47
1004,624	0,48
1005,044	0,48
1005,463	0,48
1005,882	0,49
1006,301	0,49
1006,721	0,49
1007,14	0,49
1007,559	0,49
1007,978	0,49
1008,397	0,5
1008,816	0,5
1009,235	0,5
1009,655	0,5
1010,074	0,5
1010,492	0,5
1010,911	0,5
1011,33	0,5
1011,749	0,49
1012,168	0,49
1012,587	0,49
1013,006	0,49
1013,425	0,49
1013,843	0,49
1014,262	0,49
1014,681	0,49
1015,099	0,49
1015,518	0,49
1015,937	0,49
1016,355	0,49
1016,774	0,49
1017,192	0,49
1017,611	0,49
1018,029	0,49
1018,448	0,49
1018,866	0,49
1019,285	0,49
1019,703	0,49
1020,121	0,49
1020,54	0,49
1020,958	0,48
1021,376	0,48
1021,794	0,48
1022,213	0,48
1022,631	0,48
1023,049	0,48
1023,467	0,48
1023,885	0,48
1024,303	0,48
1024,721	0,48
1025,139	0,48
1025,557	0,48
1025,975	0,48
1026,393	0,47
1026,811	0,47
1027,229	0,47
1027,647	0,47
1028,065	0,47
1028,482	0,47
1028,9	0,47
1029,318	0,47
1029,735	0,47
1030,153	0,47
1030,571	0,47
1030,988	0,47
1031,406	0,47
1031,823	0,47
1032,241	0,47
1032,659	0,47
1033,076	0,47
1033,493	0,47
1033,911	0,47
1034,328	0,47
1034,746	0,47
1035,163	0,47
1035,58	0,47
1035,997	0,47
1036,415	0,47
1036,832	0,47
1037,249	0,47
1037,666	0,47
1038,083	0,47
1038,501	0,47
1038,918	0,47
1039,335	0,47
1039,752	0,47
1040,169	0,47
1040,586	0,47
1041,003	0,47
1041,419	0,47
1041,836	0,47
1042,253	0,47
1042,67	0,47
1043,087	0,47
1043,504	0,47
1043,92	0,47
1044,337	0,47
1044,754	0,47
1045,17	0,47
1045,587	0,47
1046,004	0,47
1046,42	0,46
1046,837	0,46
1047,253	0,46
1047,67	0,47
1048,086	0,47
1048,503	0,47
1048,919	0,47
1049,335	0,47
1049,752	0,47
1050,168	0,47
1050,584	0,47
1051,001	0,47
1051,417	0,47
1051,833	0,47
1052,249	0,47
1052,665	0,47
1053,081	0,47
1053,497	0,47
1053,914	0,47
1054,33	0,48
1054,746	0,48
1055,162	0,48
1055,578	0,48
1055,993	0,48
1056,409	0,48
1056,825	0,48
1057,241	0,48
1057,657	0,48
1058,073	0,48
1058,488	0,48
1058,904	0,48
1059,32	0,48
1059,736	0,48
1060,151	0,48
1060,567	0,48
1060,982	0,48
1061,398	0,48
1061,813	0,48
1062,229	0,48
1062,644	0,48
1063,06	0,48
1063,475	0,48
1063,891	0,48
1064,306	0,48
1064,721	0,48
1065,137	0,48
1065,552	0,47
1065,967	0,47
1066,382	0,47
1066,798	0,47
1067,213	0,47
1067,628	0,47
1068,043	0,47
1068,458	0,47
1068,873	0,47
1069,288	0,47
1069,703	0,47
1070,118	0,47
1070,533	0,47
1070,948	0,47
1071,363	0,47
1071,778	0,47
1072,193	0,48
1072,607	0,48
1073,022	0,48
1073,437	0,48
1073,852	0,48
1074,266	0,48
1074,681	0,48
1075,096	0,48
1075,51	0,48
1075,925	0,48
1076,339	0,47
1076,754	0,47
1077,168	0,47
1077,583	0,47
1077,997	0,47
1078,412	0,47
1078,826	0,47
1079,24	0,47
1079,655	0,47
1080,069	0,47
1080,483	0,47
1080,897	0,47
1081,312	0,47
1081,726	0,47
1082,14	0,46
1082,554	0,46
1082,968	0,46
1083,382	0,46
1083,796	0,46
1084,21	0,46
1084,624	0,46
1085,038	0,45
1085,452	0,45
1085,866	0,45
1086,28	0,45
1086,694	0,45
1087,108	0,45
1087,521	0,44
1087,935	0,44
1088,349	0,44
1088,763	0,43
1089,176	0,43
1089,59	0,43
1090,004	0,43
1090,417	0,42
1090,831	0,42
1091,244	0,41
1091,658	0,41
1092,071	0,41
1092,485	0,4
1092,898	0,4
1093,312	0,4
1093,725	0,4
1094,138	0,4
1094,552	0,39
1094,965	0,39
1095,378	0,39
1095,791	0,39
1096,205	0,39
1096,618	0,39
1097,031	0,38
1097,444	0,38
1097,857	0,37
1098,27	0,37
1098,683	0,36
1099,096	0,36
1099,509	0,36
1099,922	0,35
1100,335	0,34
1100,748	0,34
1101,161	0,33
1101,574	0,33
1101,986	0,32
1102,399	0,32
1102,812	0,31
1103,225	0,31
1103,637	0,31
1104,05	0,3
1104,463	0,3
1104,875	0,3
1105,288	0,3
1105,7	0,29
1106,113	0,29
1106,525	0,29
1106,938	0,29
1107,35	0,28
1107,763	0,28
1108,175	0,27
1108,588	0,26
1109	0,26
1109,412	0,25
1109,824	0,25
1110,237	0,25
1110,649	0,25
1111,061	0,24
