Data from 18C-808nm-8A-cont_Absorbance__681__02110.txt Node

Date: Mon Jul 17 17:44:58 CEST 2023
User: Laser008
Spectrometer: MAYP115816
Trigger mode: 0
Integration Time (sec): 2,500000E-1
Scans to average: 10
Electric dark correction enabled: true
Nonlinearity correction enabled: true
Boxcar width: 5
XAxis mode: Wavelengths
Number of Pixels in Spectrum: 2068
>>>>>Begin Spectral Data<<<<<
198,914	-0,68
199,384	-0,48
199,855	-0,33
200,325	-0,25
200,796	-0,21
201,266	-0,17
201,737	-0,15
202,207	-0,13
202,677	-0,12
203,147	-0,11
203,618	-0,07
204,088	-0,06
204,558	-0,04
205,028	-0,04
205,498	-0,06
205,968	-0,06
206,439	-0,07
206,909	-0,07
207,379	-0,07
207,849	-0,08
208,319	-0,09
208,789	-0,1
209,258	-0,09
209,728	-0,1
210,198	-0,09
210,668	-0,08
211,138	-0,08
211,608	-0,08
212,077	-0,07
212,547	-0,07
213,017	-0,06
213,486	-0,06
213,956	-0,07
214,426	-0,09
214,895	-0,08
215,365	-0,1
215,834	-0,11
216,304	-0,12
216,773	-0,12
217,243	-0,14
217,712	-0,16
218,181	-0,15
218,651	-0,15
219,12	-0,15
219,589	-0,15
220,058	-0,15
220,528	-0,16
220,997	-0,16
221,466	-0,17
221,935	-0,17
222,404	-0,16
222,873	-0,16
223,342	-0,15
223,812	-0,16
224,281	-0,15
224,749	-0,16
225,218	-0,17
225,687	-0,17
226,156	-0,16
226,625	-0,15
227,094	-0,16
227,563	-0,15
228,031	-0,16
228,5	-0,16
228,969	-0,15
229,438	-0,15
229,906	-0,14
230,375	-0,13
230,844	-0,13
231,312	-0,13
231,781	-0,13
232,249	-0,12
232,718	-0,13
233,186	-0,1
233,655	-0,11
234,123	-0,11
234,591	-0,11
235,06	-0,12
235,528	-0,12
235,996	-0,12
236,465	-0,11
236,933	-0,11
237,401	-0,1
237,869	-0,1
238,337	-0,11
238,805	-0,1
239,274	-0,1
239,742	-0,09
240,21	-0,09
240,678	-0,08
241,146	-0,07
241,614	-0,07
242,081	-0,07
242,549	-0,08
243,017	-0,08
243,485	-0,07
243,953	-0,06
244,421	-0,06
244,888	-0,06
245,356	-0,06
245,824	-0,06
246,291	-0,06
246,759	-0,06
247,227	-0,07
247,694	-0,06
248,162	-0,05
248,629	-0,05
249,097	-0,06
249,564	-0,07
250,032	-0,08
250,499	-0,07
250,967	-0,08
251,434	-0,09
251,901	-0,09
252,369	-0,08
252,836	-0,09
253,303	-0,11
253,77	-0,13
254,237	-0,12
254,705	-0,12
255,172	-0,11
255,639	-0,12
256,106	-0,13
256,573	-0,13
257,04	-0,14
257,507	-0,15
257,974	-0,16
258,441	-0,14
258,908	-0,14
259,375	-0,16
259,841	-0,16
260,308	-0,17
260,775	-0,17
261,242	-0,15
261,709	-0,15
262,175	-0,16
262,642	-0,15
263,109	-0,14
263,575	-0,16
264,042	-0,14
264,508	-0,14
264,975	-0,15
265,441	-0,16
265,908	-0,16
266,374	-0,16
266,841	-0,17
267,307	-0,17
267,773	-0,17
268,24	-0,18
268,706	-0,17
269,172	-0,19
269,639	-0,2
270,105	-0,18
270,571	-0,19
271,037	-0,19
271,503	-0,19
271,969	-0,18
272,435	-0,17
272,902	-0,18
273,368	-0,19
273,834	-0,19
274,3	-0,2
274,765	-0,21
275,231	-0,21
275,697	-0,2
276,163	-0,2
276,629	-0,2
277,095	-0,21
277,56	-0,21
278,026	-0,21
278,492	-0,19
278,958	-0,19
279,423	-0,19
279,889	-0,17
280,354	-0,18
280,82	-0,18
281,286	-0,2
281,751	-0,2
282,217	-0,2
282,682	-0,19
283,147	-0,19
283,613	-0,2
284,078	-0,2
284,544	-0,21
285,009	-0,22
285,474	-0,21
285,939	-0,22
286,405	-0,2
286,87	-0,19
287,335	-0,19
287,8	-0,18
288,265	-0,17
288,73	-0,18
289,195	-0,2
289,66	-0,2
290,125	-0,18
290,59	-0,19
291,055	-0,18
291,52	-0,19
291,985	-0,19
292,45	-0,21
292,915	-0,21
293,38	-0,22
293,844	-0,2
294,309	-0,19
294,774	-0,18
295,239	-0,2
295,703	-0,21
296,168	-0,19
296,632	-0,19
297,097	-0,17
297,562	-0,16
298,026	-0,16
298,491	-0,16
298,955	-0,16
299,419	-0,15
299,884	-0,14
300,348	-0,12
300,813	-0,11
301,277	-0,12
301,741	-0,11
302,205	-0,12
302,67	-0,11
303,134	-0,11
303,598	-0,11
304,062	-0,1
304,526	-0,08
304,99	-0,1
305,454	-0,09
305,919	-0,09
306,383	-0,1
306,847	-0,09
307,31	-0,1
307,774	-0,11
308,238	-0,11
308,702	-0,11
309,166	-0,13
309,63	-0,14
310,094	-0,12
310,557	-0,12
311,021	-0,12
311,485	-0,12
311,948	-0,12
312,412	-0,1
312,876	-0,1
313,339	-0,1
313,803	-0,11
314,266	-0,1
314,73	-0,1
315,193	-0,1
315,657	-0,08
316,12	-0,08
316,584	-0,07
317,047	-0,07
317,51	-0,06
317,973	-0,05
318,437	-0,03
318,9	-0,02
319,363	-0,01
319,826	-0,01
320,29	-0,02
320,753	-0,02
321,216	-0,03
321,679	-0,03
322,142	-0,02
322,605	-0,04
323,068	-0,04
323,531	-0,05
323,994	-0,04
324,457	-0,04
324,92	-0,03
325,382	-0,02
325,845	-0
326,308	0,01
326,771	0,01
327,233	0,02
327,696	0,03
328,159	0,04
328,622	0,05
329,084	0,05
329,547	0,06
330,009	0,06
330,472	0,07
330,934	0,06
331,397	0,06
331,859	0,06
332,322	0,07
332,784	0,07
333,246	0,08
333,709	0,09
334,171	0,09
334,633	0,09
335,096	0,09
335,558	0,1
336,02	0,1
336,482	0,1
336,944	0,12
337,406	0,13
337,868	0,13
338,331	0,14
338,793	0,14
339,255	0,15
339,717	0,15
340,178	0,17
340,64	0,18
341,102	0,19
341,564	0,2
342,026	0,21
342,488	0,22
342,949	0,23
343,411	0,25
343,873	0,28
344,335	0,32
344,796	0,36
345,258	0,4
345,719	0,45
346,181	0,5
346,643	0,55
347,104	0,58
347,566	0,62
348,027	0,66
348,488	0,69
348,95	0,71
349,411	0,74
349,873	0,77
350,334	0,8
350,795	0,82
351,256	0,84
351,718	0,85
352,179	0,85
352,64	0,86
353,101	0,86
353,562	0,87
354,023	0,87
354,484	0,88
354,945	0,88
355,406	0,88
355,867	0,89
356,328	0,89
356,789	0,89
357,25	0,9
357,711	0,9
358,172	0,9
358,633	0,91
359,093	0,91
359,554	0,91
360,015	0,91
360,476	0,91
360,936	0,92
361,397	0,92
361,858	0,92
362,318	0,92
362,779	0,92
363,239	0,92
363,7	0,92
364,16	0,93
364,621	0,93
365,081	0,93
365,541	0,93
366,002	0,93
366,462	0,93
366,922	0,92
367,383	0,92
367,843	0,92
368,303	0,92
368,763	0,93
369,223	0,93
369,684	0,93
370,144	0,93
370,604	0,93
371,064	0,93
371,524	0,93
371,984	0,93
372,444	0,93
372,904	0,92
373,363	0,92
373,823	0,92
374,283	0,92
374,743	0,92
375,203	0,92
375,663	0,92
376,122	0,92
376,582	0,92
377,042	0,92
377,501	0,92
377,961	0,92
378,42	0,92
378,88	0,92
379,34	0,92
379,799	0,92
380,259	0,92
380,718	0,92
381,177	0,92
381,637	0,92
382,096	0,92
382,555	0,92
383,015	0,92
383,474	0,92
383,933	0,92
384,393	0,92
384,852	0,92
385,311	0,92
385,77	0,92
386,229	0,92
386,688	0,92
387,147	0,91
387,606	0,91
388,065	0,91
388,524	0,91
388,983	0,91
389,442	0,91
389,901	0,91
390,36	0,91
390,819	0,91
391,277	0,91
391,736	0,91
392,195	0,91
392,654	0,91
393,112	0,91
393,571	0,91
394,03	0,91
394,488	0,91
394,947	0,91
395,405	0,91
395,864	0,91
396,322	0,91
396,781	0,91
397,239	0,91
397,698	0,91
398,156	0,91
398,614	0,91
399,073	0,91
399,531	0,91
399,989	0,91
400,447	0,91
400,905	0,91
401,364	0,91
401,822	0,91
402,28	0,9
402,738	0,9
403,196	0,9
403,654	0,9
404,112	0,9
404,57	0,9
405,028	0,9
405,486	0,9
405,944	0,9
406,402	0,9
406,859	0,9
407,317	0,9
407,775	0,9
408,233	0,9
408,691	0,9
409,148	0,9
409,606	0,9
410,064	0,9
410,521	0,9
410,979	0,9
411,436	0,9
411,894	0,9
412,351	0,9
412,809	0,9
413,266	0,9
413,724	0,9
414,181	0,9
414,638	0,9
415,096	0,9
415,553	0,9
416,01	0,9
416,467	0,9
416,925	0,9
417,382	0,9
417,839	0,9
418,296	0,9
418,753	0,9
419,21	0,9
419,667	0,89
420,124	0,9
420,581	0,9
421,038	0,9
421,495	0,9
421,952	0,89
422,409	0,9
422,866	0,9
423,322	0,9
423,779	0,9
424,236	0,9
424,693	0,9
425,149	0,9
425,606	0,9
426,063	0,9
426,519	0,9
426,976	0,9
427,433	0,9
427,889	0,9
428,346	0,9
428,802	0,9
429,258	0,9
429,715	0,9
430,171	0,9
430,628	0,9
431,084	0,9
431,54	0,9
431,997	0,9
432,453	0,9
432,909	0,89
433,365	0,89
433,821	0,89
434,277	0,89
434,734	0,89
435,19	0,89
435,646	0,89
436,102	0,89
436,558	0,89
437,014	0,89
437,47	0,89
437,925	0,89
438,381	0,89
438,837	0,89
439,293	0,89
439,749	0,89
440,205	0,89
440,66	0,89
441,116	0,89
441,572	0,89
442,027	0,89
442,483	0,89
442,939	0,89
443,394	0,89
443,85	0,89
444,305	0,9
444,761	0,9
445,216	0,9
445,672	0,9
446,127	0,9
446,582	0,9
447,038	0,9
447,493	0,9
447,948	0,9
448,403	0,9
448,859	0,9
449,314	0,9
449,769	0,9
450,224	0,9
450,679	0,9
451,134	0,9
451,589	0,9
452,044	0,9
452,499	0,9
452,954	0,9
453,409	0,9
453,864	0,9
454,319	0,9
454,774	0,9
455,229	0,9
455,684	0,9
456,138	0,9
456,593	0,9
457,048	0,9
457,503	0,9
457,957	0,9
458,412	0,9
458,866	0,91
459,321	0,91
459,776	0,91
460,23	0,91
460,685	0,91
461,139	0,91
461,593	0,91
462,048	0,91
462,502	0,91
462,957	0,92
463,411	0,92
463,865	0,92
464,319	0,92
464,774	0,92
465,228	0,92
465,682	0,92
466,136	0,92
466,59	0,92
467,044	0,92
467,499	0,92
467,953	0,93
468,407	0,93
468,861	0,93
469,315	0,93
469,768	0,93
470,222	0,93
470,676	0,93
471,13	0,93
471,584	0,93
472,038	0,93
472,491	0,93
472,945	0,94
473,399	0,94
473,852	0,94
474,306	0,94
474,76	0,94
475,213	0,94
475,667	0,94
476,12	0,95
476,574	0,95
477,027	0,95
477,481	0,95
477,934	0,95
478,388	0,95
478,841	0,96
479,294	0,96
479,748	0,96
480,201	0,96
480,654	0,96
481,107	0,97
481,561	0,97
482,014	0,97
482,467	0,97
482,92	0,97
483,373	0,98
483,826	0,98
484,279	0,98
484,732	0,98
485,185	0,99
485,638	0,99
486,091	0,99
486,544	0,99
486,997	0,99
487,449	1
487,902	1
488,355	1
488,808	1
489,26	1,01
489,713	1,01
490,166	1,01
490,618	1,02
491,071	1,02
491,523	1,02
491,976	1,03
492,429	1,03
492,881	1,03
493,333	1,04
493,786	1,04
494,238	1,04
494,691	1,05
495,143	1,05
495,595	1,06
496,048	1,06
496,5	1,06
496,952	1,07
497,404	1,07
497,856	1,08
498,309	1,08
498,761	1,08
499,213	1,09
499,665	1,09
500,117	1,1
500,569	1,1
501,021	1,11
501,473	1,11
501,925	1,11
502,377	1,12
502,828	1,12
503,28	1,13
503,732	1,13
504,184	1,14
504,636	1,14
505,087	1,15
505,539	1,15
505,991	1,15
506,442	1,16
506,894	1,16
507,345	1,17
507,797	1,17
508,249	1,18
508,7	1,18
509,151	1,19
509,603	1,19
510,054	1,2
510,506	1,2
510,957	1,2
511,408	1,21
511,86	1,21
512,311	1,21
512,762	1,22
513,213	1,22
513,665	1,22
514,116	1,23
514,567	1,23
515,018	1,24
515,469	1,24
515,92	1,24
516,371	1,25
516,822	1,25
517,273	1,25
517,724	1,26
518,175	1,26
518,626	1,26
519,076	1,26
519,527	1,27
519,978	1,27
520,429	1,27
520,88	1,27
521,33	1,28
521,781	1,28
522,232	1,28
522,682	1,28
523,133	1,28
523,583	1,29
524,034	1,29
524,484	1,29
524,935	1,29
525,385	1,29
525,836	1,29
526,286	1,29
526,736	1,29
527,187	1,29
527,637	1,29
528,087	1,29
528,538	1,29
528,988	1,29
529,438	1,29
529,888	1,29
530,338	1,28
530,788	1,28
531,238	1,28
531,688	1,28
532,139	1,27
532,589	1,27
533,038	1,27
533,488	1,27
533,938	1,27
534,388	1,27
534,838	1,26
535,288	1,26
535,738	1,26
536,187	1,25
536,637	1,25
537,087	1,24
537,537	1,24
537,986	1,23
538,436	1,23
538,885	1,22
539,335	1,21
539,785	1,21
540,234	1,2
540,684	1,2
541,133	1,19
541,582	1,19
542,032	1,18
542,481	1,18
542,931	1,17
543,38	1,16
543,829	1,15
544,278	1,15
544,728	1,14
545,177	1,14
545,626	1,13
546,075	1,13
546,524	1,12
546,973	1,12
547,422	1,11
547,871	1,11
548,32	1,1
548,769	1,1
549,218	1,1
549,667	1,1
550,116	1,09
550,565	1,09
551,014	1,09
551,463	1,08
551,911	1,08
552,36	1,07
552,809	1,07
553,258	1,06
553,706	1,06
554,155	1,05
554,603	1,05
555,052	1,04
555,501	1,04
555,949	1,03
556,398	1,02
556,846	1,02
557,294	1,01
557,743	1,01
558,191	1
558,64	1
559,088	0,99
559,536	0,98
559,985	0,98
560,433	0,97
560,881	0,97
561,329	0,96
561,777	0,96
562,225	0,95
562,674	0,95
563,122	0,95
563,57	0,94
564,018	0,94
564,466	0,93
564,914	0,93
565,362	0,92
565,809	0,92
566,257	0,91
566,705	0,91
567,153	0,9
567,601	0,9
568,048	0,89
568,496	0,89
568,944	0,88
569,392	0,88
569,839	0,87
570,287	0,87
570,734	0,87
571,182	0,86
571,63	0,86
572,077	0,85
572,525	0,85
572,972	0,85
573,419	0,84
573,867	0,84
574,314	0,83
574,761	0,83
575,209	0,82
575,656	0,82
576,103	0,82
576,551	0,81
576,998	0,81
577,445	0,81
577,892	0,8
578,339	0,8
578,786	0,79
579,233	0,79
579,68	0,79
580,127	0,78
580,574	0,78
581,021	0,78
581,468	0,77
581,915	0,77
582,362	0,77
582,809	0,77
583,255	0,76
583,702	0,76
584,149	0,76
584,596	0,75
585,042	0,75
585,489	0,74
585,936	0,74
586,382	0,74
586,829	0,74
587,275	0,74
587,722	0,73
588,168	0,73
588,615	0,73
589,061	0,72
589,508	0,72
589,954	0,72
590,4	0,72
590,847	0,72
591,293	0,71
591,739	0,71
592,185	0,71
592,632	0,71
593,078	0,71
593,524	0,71
593,97	0,7
594,416	0,7
594,862	0,7
595,308	0,7
595,754	0,7
596,2	0,7
596,646	0,69
597,092	0,69
597,538	0,69
597,984	0,69
598,43	0,68
598,876	0,68
599,321	0,68
599,767	0,68
600,213	0,68
600,659	0,68
601,104	0,68
601,55	0,67
601,995	0,67
602,441	0,67
602,887	0,67
603,332	0,67
603,778	0,67
604,223	0,67
604,668	0,66
605,114	0,66
605,559	0,66
606,005	0,66
606,45	0,66
606,895	0,66
607,341	0,66
607,786	0,66
608,231	0,65
608,676	0,65
609,121	0,64
609,566	0,63
610,012	0,62
610,457	0,62
610,902	0,61
611,347	0,61
611,792	0,61
612,237	0,61
612,682	0,6
613,127	0,6
613,571	0,61
614,016	0,61
614,461	0,62
614,906	0,62
615,351	0,62
615,795	0,62
616,24	0,62
616,685	0,62
617,129	0,62
617,574	0,62
618,019	0,62
618,463	0,62
618,908	0,62
619,352	0,62
619,797	0,62
620,241	0,62
620,686	0,62
621,13	0,62
621,574	0,62
622,019	0,62
622,463	0,62
622,907	0,61
623,352	0,61
623,796	0,61
624,24	0,61
624,684	0,61
625,128	0,61
625,572	0,61
626,016	0,61
626,461	0,61
626,905	0,61
627,349	0,61
627,793	0,61
628,236	0,61
628,68	0,6
629,124	0,6
629,568	0,6
630,012	0,6
630,456	0,6
630,9	0,6
631,343	0,6
631,787	0,6
632,231	0,6
632,674	0,6
633,118	0,6
633,562	0,6
634,005	0,6
634,449	0,6
634,892	0,6
635,336	0,6
635,779	0,6
636,223	0,6
636,666	0,6
637,109	0,6
637,553	0,6
637,996	0,6
638,439	0,6
638,883	0,6
639,326	0,6
639,769	0,6
640,212	0,6
640,655	0,59
641,099	0,59
641,542	0,59
641,985	0,59
642,428	0,59
642,871	0,59
643,314	0,59
643,757	0,59
644,2	0,59
644,643	0,59
645,085	0,59
645,528	0,59
645,971	0,59
646,414	0,59
646,857	0,59
647,299	0,58
647,742	0,58
648,185	0,58
648,627	0,58
649,07	0,58
649,513	0,58
649,955	0,58
650,398	0,58
650,84	0,58
651,283	0,58
651,725	0,58
652,168	0,58
652,61	0,58
653,052	0,58
653,495	0,58
653,937	0,49
654,379	0,43
654,821	0,44
655,264	0,44
655,706	0,44
656,148	0,44
656,59	0,44
657,032	0,44
657,474	0,44
657,916	0,44
658,358	0,43
658,8	0,5
659,242	0,58
659,684	0,58
660,126	0,58
660,568	0,58
661,01	0,58
661,452	0,58
661,894	0,58
662,335	0,58
662,777	0,58
663,219	0,57
663,661	0,57
664,102	0,57
664,544	0,57
664,985	0,57
665,427	0,57
665,869	0,57
666,31	0,57
666,752	0,57
667,193	0,57
667,634	0,57
668,076	0,57
668,517	0,57
668,959	0,57
669,4	0,57
669,841	0,57
670,282	0,57
670,724	0,57
671,165	0,57
671,606	0,57
672,047	0,57
672,488	0,57
672,929	0,57
673,37	0,57
673,811	0,57
674,252	0,57
674,693	0,57
675,134	0,56
675,575	0,56
676,016	0,56
676,457	0,56
676,898	0,57
677,339	0,57
677,78	0,57
678,22	0,57
678,661	0,57
679,102	0,57
679,542	0,57
679,983	0,57
680,424	0,57
680,864	0,57
681,305	0,57
681,745	0,57
682,186	0,57
682,626	0,57
683,067	0,57
683,507	0,57
683,948	0,57
684,388	0,57
684,828	0,57
685,269	0,57
685,709	0,57
686,149	0,57
686,589	0,56
687,029	0,56
687,47	0,56
687,91	0,56
688,35	0,56
688,79	0,56
689,23	0,56
689,67	0,56
690,11	0,56
690,55	0,56
690,99	0,56
691,43	0,56
691,87	0,56
692,31	0,56
692,749	0,55
693,189	0,55
693,629	0,55
694,069	0,55
694,508	0,55
694,948	0,55
695,388	0,55
695,827	0,55
696,267	0,55
696,706	0,55
697,146	0,55
697,586	0,56
698,025	0,56
698,464	0,56
698,904	0,56
699,343	0,56
699,783	0,56
700,222	0,56
700,661	0,56
701,101	0,56
701,54	0,56
701,979	0,56
702,418	0,56
702,857	0,56
703,297	0,56
703,736	0,56
704,175	0,56
704,614	0,56
705,053	0,56
705,492	0,56
705,931	0,56
706,37	0,56
706,809	0,55
707,248	0,55
707,687	0,55
708,125	0,55
708,564	0,55
709,003	0,55
709,442	0,55
709,88	0,55
710,319	0,55
710,758	0,55
711,196	0,55
711,635	0,55
712,074	0,55
712,512	0,55
712,951	0,55
713,389	0,55
713,828	0,55
714,266	0,55
714,705	0,54
715,143	0,54
715,581	0,55
716,02	0,55
716,458	0,55
716,896	0,55
717,334	0,55
717,773	0,55
718,211	0,55
718,649	0,55
719,087	0,55
719,525	0,55
719,963	0,55
720,401	0,55
720,839	0,55
721,277	0,55
721,715	0,55
722,153	0,55
722,591	0,55
723,029	0,55
723,467	0,54
723,905	0,54
724,342	0,54
724,78	0,54
725,218	0,54
725,656	0,54
726,093	0,54
726,531	0,54
726,969	0,54
727,406	0,54
727,844	0,54
728,281	0,54
728,719	0,54
729,156	0,54
729,594	0,54
730,031	0,54
730,469	0,54
730,906	0,54
731,343	0,54
731,781	0,54
732,218	0,54
732,655	0,54
733,092	0,54
733,53	0,53
733,967	0,53
734,404	0,53
734,841	0,53
735,278	0,53
735,715	0,53
736,152	0,53
736,589	0,53
737,026	0,53
737,463	0,53
737,9	0,53
738,337	0,53
738,774	0,53
739,211	0,53
739,647	0,53
740,084	0,53
740,521	0,53
740,958	0,53
741,394	0,53
741,831	0,53
742,268	0,53
742,704	0,53
743,141	0,53
743,577	0,53
744,014	0,53
744,45	0,53
744,887	0,53
745,323	0,53
745,76	0,53
746,196	0,53
746,632	0,53
747,069	0,53
747,505	0,52
747,941	0,52
748,378	0,52
748,814	0,53
749,25	0,53
749,686	0,53
750,122	0,53
750,558	0,53
750,994	0,53
751,43	0,53
751,866	0,53
752,302	0,53
752,738	0,53
753,174	0,53
753,61	0,52
754,046	0,52
754,482	0,52
754,918	0,52
755,354	0,52
755,789	0,52
756,225	0,52
756,661	0,52
757,096	0,52
757,532	0,51
757,968	0,51
758,403	0,51
758,839	0,51
759,274	0,5
759,71	0,5
760,145	0,49
760,581	0,48
761,016	0,48
761,452	0,47
761,887	0,47
762,322	0,46
762,758	0,46
763,193	0,45
763,628	0,45
764,063	0,44
764,499	0,43
764,934	0,42
765,369	0,42
765,804	0,41
766,239	0,4
766,674	0,39
767,109	0,38
767,544	0,37
767,979	0,36
768,414	0,35
768,849	0,34
769,284	0,33
769,719	0,32
770,154	0,31
770,588	0,3
771,023	0,29
771,458	0,27
771,893	0,26
772,327	0,25
772,762	0,24
773,197	0,23
773,631	0,21
774,066	0,2
774,5	0,19
774,935	0,18
775,369	0,17
775,804	0,15
776,238	0,14
776,673	0,13
777,107	0,12
777,541	0,11
777,976	0,1
778,41	0,09
778,844	0,08
779,279	0,07
779,713	0,06
780,147	0,05
780,581	0,04
781,015	0,04
781,449	0,02
781,883	0,02
782,317	0
782,751	-0,01
783,185	-0,02
783,619	-0,02
784,053	-0,04
784,487	-0,04
784,921	-0,05
785,355	-0,06
785,789	-0,07
786,223	-0,08
786,656	-0,09
787,09	-0,1
787,524	-0,11
787,957	-0,11
788,391	-0,13
788,825	-0,15
789,258	-0,16
789,692	-0,18
790,125	-0,19
790,559	-0,21
790,992	-0,23
791,426	-0,25
791,859	-0,26
792,293	-0,3
792,726	-0,32
793,159	-0,34
793,593	-0,36
794,026	-0,38
794,459	-0,42
794,892	-0,45
795,326	-0,47
795,759	-0,51
796,192	-0,55
796,625	-0,6
797,058	-0,62
797,491	-0,67
797,924	-0,71
798,357	-0,76
798,79	-0,8
799,223	-0,84
799,656	-0,89
800,089	-0,95
800,522	-0,99
800,955	-1,03
801,387	-1,09
801,82	-1,14
802,253	-1,2
802,686	-1,28
803,118	-1,34
803,551	-1,39
803,984	-1,43
804,416	-1,47
804,849	-1,5
805,281	-1,62
805,714	-1,98
806,146	-2,44
806,579	-2,7
807,011	-2,86
807,444	-2,96
807,876	-3,06
808,308	-3,09
808,741	-3,12
809,173	-3,17
809,605	-3,2
810,037	-3,27
810,47	-3,19
810,902	-3
811,334	-2,86
811,766	-2,71
812,198	-2,49
812,63	-2,05
813,062	-1,81
813,494	-1,7
813,926	-1,61
814,358	-1,56
814,79	-1,48
815,222	-1,42
815,654	-1,37
816,086	-1,3
816,518	-1,25
816,949	-1,19
817,381	-1,15
817,813	-1,13
818,245	-1,09
818,676	-1,05
819,108	-1,02
819,54	-1
819,971	-0,98
820,403	-0,93
820,834	-0,91
821,266	-0,87
821,697	-0,85
822,129	-0,83
822,56	-0,81
822,991	-0,78
823,423	-0,76
823,854	-0,75
824,286	-0,72
824,717	-0,71
825,148	-0,7
825,579	-0,69
826,01	-0,67
826,442	-0,66
826,873	-0,64
827,304	-0,61
827,735	-0,6
828,166	-0,61
828,597	-0,6
829,028	-0,59
829,459	-0,6
829,89	-0,6
830,321	-0,56
830,752	-0,57
831,183	-0,56
831,613	-0,55
832,044	-0,54
832,475	-0,53
832,906	-0,54
833,336	-0,53
833,767	-0,53
834,198	-0,52
834,628	-0,5
835,059	-0,53
835,49	-0,53
835,92	-0,51
836,351	-0,51
836,781	-0,51
837,212	-0,53
837,642	-0,54
838,072	-0,53
838,503	-0,54
838,933	-0,51
839,364	-0,52
839,794	-0,5
840,224	-0,5
840,654	-0,55
841,085	-0,55
841,515	-0,53
841,945	-0,53
842,375	-0,48
842,805	-0,47
843,235	-0,46
843,665	-0,48
844,095	-0,46
844,525	-0,48
844,955	-0,48
845,385	-0,45
845,815	-0,45
846,245	-0,46
846,675	-0,47
847,105	-0,49
847,534	-0,49
847,964	-0,48
848,394	-0,46
848,824	-0,49
849,253	-0,48
849,683	-0,48
850,112	-0,5
850,542	-0,52
850,972	-0,53
851,401	-0,51
851,831	-0,48
852,26	-0,49
852,69	-0,53
853,119	-0,52
853,548	-0,53
853,978	-0,54
854,407	-0,51
854,836	-0,51
855,266	-0,51
855,695	-0,52
856,124	-0,53
856,553	-0,55
856,983	-0,56
857,412	-0,55
857,841	-0,56
858,27	-0,57
858,699	-0,57
859,128	-0,61
859,557	-0,61
859,986	-0,62
860,415	-0,61
860,844	-0,58
861,273	-0,59
861,702	-0,6
862,13	-0,59
862,559	-0,6
862,988	-0,57
863,417	-0,56
863,845	-0,55
864,274	-0,56
864,703	-0,55
865,131	-0,56
865,56	-0,57
865,989	-0,59
866,417	-0,56
866,846	-0,56
867,274	-0,55
867,703	-0,59
868,131	-0,6
868,559	-0,6
868,988	-0,63
869,416	-0,61
869,844	-0,63
870,273	-0,66
870,701	-0,64
871,129	-0,67
871,557	-0,69
871,986	-0,69
872,414	-0,69
872,842	-0,66
873,27	-0,64
873,698	-0,61
874,126	-0,65
874,554	-0,62
874,982	-0,62
875,41	-0,64
875,838	-0,59
876,266	-0,56
876,694	-0,57
877,122	-0,55
877,549	-0,6
877,977	-0,57
878,405	-0,6
878,833	-0,57
879,26	-0,55
879,688	-0,55
880,116	-0,54
880,543	-0,52
880,971	-0,51
881,399	-0,54
881,826	-0,55
882,254	-0,52
882,681	-0,56
883,109	-0,52
883,536	-0,54
883,963	-0,56
884,391	-0,55
884,818	-0,54
885,245	-0,57
885,673	-0,59
886,1	-0,56
886,527	-0,56
886,954	-0,53
887,381	-0,54
887,809	-0,56
888,236	-0,56
888,663	-0,57
889,09	-0,61
889,517	-0,62
889,944	-0,63
890,371	-0,62
890,798	-0,62
891,225	-0,63
891,652	-0,65
892,078	-0,63
892,505	-0,66
892,932	-0,61
893,359	-0,62
893,786	-0,61
894,212	-0,57
894,639	-0,58
895,066	-0,6
895,492	-0,54
895,919	-0,54
896,346	-0,54
896,772	-0,54
897,199	-0,51
897,625	-0,55
898,052	-0,52
898,478	-0,5
898,904	-0,53
899,331	-0,53
899,757	-0,55
900,183	-0,58
900,61	-0,56
901,036	-0,56
901,462	-0,55
901,888	-0,53
902,315	-0,51
902,741	-0,57
903,167	-0,55
903,593	-0,58
904,019	-0,56
904,445	-0,53
904,871	-0,55
905,297	-0,58
905,723	-0,58
906,149	-0,57
906,575	-0,59
907,001	-0,59
907,427	-0,56
907,852	-0,55
908,278	-0,56
908,704	-0,54
909,13	-0,54
909,555	-0,53
909,981	-0,52
910,407	-0,52
910,832	-0,52
911,258	-0,52
911,684	-0,52
912,109	-0,52
912,535	-0,53
912,96	-0,49
913,386	-0,54
913,811	-0,53
914,236	-0,55
914,662	-0,53
915,087	-0,56
915,512	-0,57
915,938	-0,59
916,363	-0,58
916,788	-0,6
917,213	-0,58
917,639	-0,62
918,064	-0,59
918,489	-0,59
918,914	-0,59
919,339	-0,6
919,764	-0,57
920,189	-0,56
920,614	-0,58
921,039	-0,58
921,464	-0,54
921,889	-0,57
922,314	-0,58
922,738	-0,61
923,163	-0,62
923,588	-0,63
924,013	-0,63
924,437	-0,63
924,862	-0,64
925,287	-0,59
925,711	-0,6
926,136	-0,62
926,561	-0,6
926,985	-0,59
927,41	-0,57
927,834	-0,54
928,259	-0,51
928,683	-0,49
929,108	-0,47
929,532	-0,48
929,956	-0,48
930,381	-0,47
930,805	-0,47
931,229	-0,46
931,653	-0,45
932,078	-0,44
932,502	-0,45
932,926	-0,45
933,35	-0,44
933,774	-0,43
934,198	-0,41
934,622	-0,4
935,046	-0,4
935,47	-0,41
935,894	-0,41
936,318	-0,4
936,742	-0,4
937,166	-0,41
937,59	-0,41
938,014	-0,43
938,437	-0,44
938,861	-0,47
939,285	-0,48
939,709	-0,47
940,132	-0,47
940,556	-0,48
940,98	-0,48
941,403	-0,47
941,827	-0,47
942,25	-0,48
942,674	-0,45
943,097	-0,45
943,521	-0,45
943,944	-0,46
944,368	-0,45
944,791	-0,44
945,214	-0,46
945,638	-0,46
946,061	-0,49
946,484	-0,5
946,907	-0,5
947,331	-0,51
947,754	-0,56
948,177	-0,53
948,6	-0,53
949,023	-0,53
949,446	-0,53
949,869	-0,5
950,292	-0,5
950,715	-0,47
951,138	-0,46
951,561	-0,43
951,984	-0,44
952,407	-0,42
952,83	-0,39
953,252	-0,35
953,675	-0,35
954,098	-0,36
954,521	-0,35
954,943	-0,35
955,366	-0,35
955,789	-0,33
956,211	-0,35
956,634	-0,35
957,056	-0,32
957,479	-0,34
957,902	-0,36
958,324	-0,36
958,746	-0,34
959,169	-0,36
959,591	-0,37
960,014	-0,38
960,436	-0,38
960,858	-0,37
961,281	-0,37
961,703	-0,38
962,125	-0,37
962,547	-0,35
962,969	-0,36
963,391	-0,37
963,814	-0,37
964,236	-0,35
964,658	-0,32
965,08	-0,33
965,502	-0,31
965,924	-0,29
966,346	-0,29
966,768	-0,29
967,189	-0,31
967,611	-0,3
968,033	-0,29
968,455	-0,27
968,877	-0,28
969,298	-0,3
969,72	-0,31
970,142	-0,3
970,563	-0,31
970,985	-0,29
971,407	-0,28
971,828	-0,26
972,25	-0,26
972,671	-0,24
973,093	-0,24
973,514	-0,23
973,936	-0,2
974,357	-0,18
974,778	-0,19
975,2	-0,18
975,621	-0,18
976,042	-0,16
976,464	-0,15
976,885	-0,14
977,306	-0,14
977,727	-0,12
978,148	-0,11
978,57	-0,11
978,991	-0,09
979,412	-0,08
979,833	-0,06
980,254	-0,06
980,675	-0,06
981,096	-0,04
981,517	-0,03
981,937	-0,02
982,358	-0,01
982,779	0,01
983,2	0,02
983,621	0,02
984,042	0,04
984,462	0,05
984,883	0,07
985,304	0,09
985,724	0,09
986,145	0,11
986,565	0,13
986,986	0,13
987,407	0,15
987,827	0,16
988,248	0,18
988,668	0,19
989,088	0,21
989,509	0,22
989,929	0,24
990,35	0,26
990,77	0,27
991,19	0,28
991,61	0,3
992,031	0,31
992,451	0,32
992,871	0,33
993,291	0,34
993,711	0,34
994,131	0,35
994,551	0,36
994,971	0,37
995,391	0,37
995,811	0,38
996,231	0,39
996,651	0,4
997,071	0,41
997,491	0,41
997,911	0,42
998,331	0,43
998,75	0,44
999,17	0,45
999,59	0,45
1000,009	0,46
1000,429	0,46
1000,849	0,47
1001,268	0,48
1001,688	0,48
1002,107	0,49
1002,527	0,49
1002,946	0,5
1003,366	0,5
1003,785	0,5
1004,205	0,51
1004,624	0,51
1005,044	0,52
1005,463	0,52
1005,882	0,52
1006,301	0,52
1006,721	0,52
1007,14	0,53
1007,559	0,53
1007,978	0,53
1008,397	0,53
1008,816	0,53
1009,235	0,53
1009,655	0,53
1010,074	0,53
1010,492	0,53
1010,911	0,53
1011,33	0,53
1011,749	0,53
1012,168	0,53
1012,587	0,53
1013,006	0,53
1013,425	0,53
1013,843	0,53
1014,262	0,52
1014,681	0,52
1015,099	0,52
1015,518	0,52
1015,937	0,52
1016,355	0,52
1016,774	0,52
1017,192	0,52
1017,611	0,52
1018,029	0,52
1018,448	0,52
1018,866	0,52
1019,285	0,52
1019,703	0,52
1020,121	0,52
1020,54	0,52
1020,958	0,52
1021,376	0,52
1021,794	0,52
1022,213	0,52
1022,631	0,52
1023,049	0,52
1023,467	0,52
1023,885	0,52
1024,303	0,51
1024,721	0,51
1025,139	0,51
1025,557	0,51
1025,975	0,51
1026,393	0,51
1026,811	0,51
1027,229	0,51
1027,647	0,5
1028,065	0,5
1028,482	0,5
1028,9	0,5
1029,318	0,5
1029,735	0,5
1030,153	0,5
1030,571	0,5
1030,988	0,5
1031,406	0,5
1031,823	0,5
1032,241	0,5
1032,659	0,51
1033,076	0,51
1033,493	0,51
1033,911	0,51
1034,328	0,51
1034,746	0,51
1035,163	0,51
1035,58	0,51
1035,997	0,51
1036,415	0,51
1036,832	0,51
1037,249	0,51
1037,666	0,5
1038,083	0,5
1038,501	0,5
1038,918	0,5
1039,335	0,5
1039,752	0,5
1040,169	0,5
1040,586	0,5
1041,003	0,5
1041,419	0,5
1041,836	0,5
1042,253	0,5
1042,67	0,5
1043,087	0,5
1043,504	0,5
1043,92	0,5
1044,337	0,5
1044,754	0,5
1045,17	0,5
1045,587	0,5
1046,004	0,5
1046,42	0,5
1046,837	0,5
1047,253	0,5
1047,67	0,5
1048,086	0,5
1048,503	0,5
1048,919	0,5
1049,335	0,5
1049,752	0,5
1050,168	0,5
1050,584	0,5
1051,001	0,5
1051,417	0,5
1051,833	0,5
1052,249	0,5
1052,665	0,51
1053,081	0,51
1053,497	0,51
1053,914	0,51
1054,33	0,51
1054,746	0,51
1055,162	0,51
1055,578	0,51
1055,993	0,52
1056,409	0,52
1056,825	0,52
1057,241	0,52
1057,657	0,52
1058,073	0,52
1058,488	0,52
1058,904	0,52
1059,32	0,52
1059,736	0,52
1060,151	0,52
1060,567	0,52
1060,982	0,52
1061,398	0,52
1061,813	0,52
1062,229	0,52
1062,644	0,52
1063,06	0,52
1063,475	0,52
1063,891	0,52
1064,306	0,52
1064,721	0,52
1065,137	0,51
1065,552	0,51
1065,967	0,51
1066,382	0,51
1066,798	0,51
1067,213	0,51
1067,628	0,51
1068,043	0,51
1068,458	0,51
1068,873	0,51
1069,288	0,51
1069,703	0,51
1070,118	0,51
1070,533	0,51
1070,948	0,51
1071,363	0,51
1071,778	0,51
1072,193	0,51
1072,607	0,51
1073,022	0,51
1073,437	0,51
1073,852	0,51
1074,266	0,51
1074,681	0,51
1075,096	0,51
1075,51	0,51
1075,925	0,51
1076,339	0,51
1076,754	0,51
1077,168	0,51
1077,583	0,51
1077,997	0,51
1078,412	0,5
1078,826	0,5
1079,24	0,5
1079,655	0,5
1080,069	0,5
1080,483	0,5
1080,897	0,5
1081,312	0,5
1081,726	0,5
1082,14	0,5
1082,554	0,5
1082,968	0,5
1083,382	0,5
1083,796	0,49
1084,21	0,49
1084,624	0,49
1085,038	0,49
1085,452	0,49
1085,866	0,49
1086,28	0,48
1086,694	0,48
1087,108	0,48
1087,521	0,48
1087,935	0,48
1088,349	0,47
1088,763	0,47
1089,176	0,47
1089,59	0,46
1090,004	0,46
1090,417	0,46
1090,831	0,45
1091,244	0,45
1091,658	0,45
1092,071	0,44
1092,485	0,44
1092,898	0,44
1093,312	0,44
1093,725	0,43
1094,138	0,43
1094,552	0,43
1094,965	0,43
1095,378	0,43
1095,791	0,42
1096,205	0,42
1096,618	0,42
1097,031	0,42
1097,444	0,41
1097,857	0,41
1098,27	0,4
1098,683	0,4
1099,096	0,4
1099,509	0,39
1099,922	0,39
1100,335	0,38
1100,748	0,37
1101,161	0,37
1101,574	0,36
1101,986	0,36
1102,399	0,35
1102,812	0,35
1103,225	0,35
1103,637	0,34
1104,05	0,33
1104,463	0,33
1104,875	0,33
1105,288	0,33
1105,7	0,32
1106,113	0,32
1106,525	0,31
1106,938	0,31
1107,35	0,3
1107,763	0,29
1108,175	0,29
1108,588	0,29
1109	0,28
1109,412	0,27
1109,824	0,27
1110,237	0,27
1110,649	0,27
1111,061	0,26
