Data from 18C-808nm-8A-cont_Absorbance__565__01994.txt Node

Date: Mon Jul 17 17:40:08 CEST 2023
User: Laser008
Spectrometer: MAYP115816
Trigger mode: 0
Integration Time (sec): 2,500000E-1
Scans to average: 10
Electric dark correction enabled: true
Nonlinearity correction enabled: true
Boxcar width: 5
XAxis mode: Wavelengths
Number of Pixels in Spectrum: 2068
>>>>>Begin Spectral Data<<<<<
198,914	-0,75
199,384	-0,53
199,855	-0,4
200,325	-0,31
200,796	-0,28
201,266	-0,23
201,737	-0,21
202,207	-0,2
202,677	-0,19
203,147	-0,17
203,618	-0,14
204,088	-0,13
204,558	-0,11
205,028	-0,1
205,498	-0,11
205,968	-0,1
206,439	-0,12
206,909	-0,11
207,379	-0,12
207,849	-0,12
208,319	-0,13
208,789	-0,13
209,258	-0,12
209,728	-0,14
210,198	-0,14
210,668	-0,13
211,138	-0,13
211,608	-0,13
212,077	-0,13
212,547	-0,12
213,017	-0,13
213,486	-0,13
213,956	-0,14
214,426	-0,15
214,895	-0,14
215,365	-0,15
215,834	-0,16
216,304	-0,18
216,773	-0,18
217,243	-0,19
217,712	-0,2
218,181	-0,2
218,651	-0,2
219,12	-0,2
219,589	-0,2
220,058	-0,2
220,528	-0,21
220,997	-0,22
221,466	-0,22
221,935	-0,22
222,404	-0,21
222,873	-0,2
223,342	-0,2
223,812	-0,2
224,281	-0,2
224,749	-0,2
225,218	-0,21
225,687	-0,21
226,156	-0,19
226,625	-0,17
227,094	-0,17
227,563	-0,17
228,031	-0,19
228,5	-0,19
228,969	-0,19
229,438	-0,18
229,906	-0,17
230,375	-0,17
230,844	-0,16
231,312	-0,16
231,781	-0,17
232,249	-0,16
232,718	-0,16
233,186	-0,14
233,655	-0,14
234,123	-0,14
234,591	-0,15
235,06	-0,15
235,528	-0,16
235,996	-0,15
236,465	-0,15
236,933	-0,14
237,401	-0,15
237,869	-0,14
238,337	-0,15
238,805	-0,13
239,274	-0,13
239,742	-0,12
240,21	-0,12
240,678	-0,11
241,146	-0,11
241,614	-0,12
242,081	-0,12
242,549	-0,12
243,017	-0,12
243,485	-0,12
243,953	-0,12
244,421	-0,12
244,888	-0,13
245,356	-0,12
245,824	-0,12
246,291	-0,12
246,759	-0,12
247,227	-0,12
247,694	-0,12
248,162	-0,11
248,629	-0,1
249,097	-0,11
249,564	-0,12
250,032	-0,13
250,499	-0,12
250,967	-0,13
251,434	-0,13
251,901	-0,12
252,369	-0,12
252,836	-0,14
253,303	-0,16
253,77	-0,18
254,237	-0,17
254,705	-0,16
255,172	-0,15
255,639	-0,17
256,106	-0,18
256,573	-0,18
257,04	-0,19
257,507	-0,19
257,974	-0,19
258,441	-0,17
258,908	-0,17
259,375	-0,18
259,841	-0,19
260,308	-0,2
260,775	-0,19
261,242	-0,18
261,709	-0,19
262,175	-0,2
262,642	-0,19
263,109	-0,19
263,575	-0,21
264,042	-0,2
264,508	-0,19
264,975	-0,21
265,441	-0,21
265,908	-0,22
266,374	-0,21
266,841	-0,21
267,307	-0,21
267,773	-0,2
268,24	-0,21
268,706	-0,21
269,172	-0,22
269,639	-0,22
270,105	-0,21
270,571	-0,21
271,037	-0,21
271,503	-0,21
271,969	-0,22
272,435	-0,22
272,902	-0,24
273,368	-0,24
273,834	-0,24
274,3	-0,24
274,765	-0,24
275,231	-0,25
275,697	-0,24
276,163	-0,24
276,629	-0,24
277,095	-0,24
277,56	-0,23
278,026	-0,24
278,492	-0,22
278,958	-0,22
279,423	-0,22
279,889	-0,21
280,354	-0,22
280,82	-0,22
281,286	-0,23
281,751	-0,23
282,217	-0,22
282,682	-0,23
283,147	-0,23
283,613	-0,24
284,078	-0,25
284,544	-0,25
285,009	-0,26
285,474	-0,25
285,939	-0,26
286,405	-0,25
286,87	-0,24
287,335	-0,24
287,8	-0,23
288,265	-0,21
288,73	-0,22
289,195	-0,23
289,66	-0,23
290,125	-0,21
290,59	-0,22
291,055	-0,22
291,52	-0,22
291,985	-0,24
292,45	-0,26
292,915	-0,26
293,38	-0,26
293,844	-0,24
294,309	-0,23
294,774	-0,22
295,239	-0,23
295,703	-0,23
296,168	-0,22
296,632	-0,22
297,097	-0,2
297,562	-0,18
298,026	-0,17
298,491	-0,17
298,955	-0,18
299,419	-0,17
299,884	-0,17
300,348	-0,16
300,813	-0,15
301,277	-0,15
301,741	-0,15
302,205	-0,14
302,67	-0,14
303,134	-0,15
303,598	-0,14
304,062	-0,13
304,526	-0,13
304,99	-0,14
305,454	-0,13
305,919	-0,13
306,383	-0,13
306,847	-0,13
307,31	-0,15
307,774	-0,15
308,238	-0,14
308,702	-0,14
309,166	-0,15
309,63	-0,15
310,094	-0,13
310,557	-0,13
311,021	-0,13
311,485	-0,13
311,948	-0,13
312,412	-0,12
312,876	-0,11
313,339	-0,12
313,803	-0,12
314,266	-0,12
314,73	-0,12
315,193	-0,12
315,657	-0,11
316,12	-0,11
316,584	-0,1
317,047	-0,1
317,51	-0,09
317,973	-0,1
318,437	-0,09
318,9	-0,08
319,363	-0,07
319,826	-0,06
320,29	-0,07
320,753	-0,07
321,216	-0,07
321,679	-0,07
322,142	-0,07
322,605	-0,08
323,068	-0,06
323,531	-0,06
323,994	-0,06
324,457	-0,06
324,92	-0,05
325,382	-0,04
325,845	-0,04
326,308	-0,03
326,771	-0,03
327,233	-0,02
327,696	-0,01
328,159	-0,01
328,622	-0
329,084	-0
329,547	-0
330,009	0
330,472	0,02
330,934	0,02
331,397	0,03
331,859	0,03
332,322	0,03
332,784	0,03
333,246	0,04
333,709	0,05
334,171	0,05
334,633	0,06
335,096	0,06
335,558	0,06
336,02	0,06
336,482	0,07
336,944	0,07
337,406	0,08
337,868	0,09
338,331	0,09
338,793	0,09
339,255	0,1
339,717	0,11
340,178	0,11
340,64	0,12
341,102	0,13
341,564	0,14
342,026	0,15
342,488	0,16
342,949	0,17
343,411	0,21
343,873	0,24
344,335	0,26
344,796	0,31
345,258	0,35
345,719	0,4
346,181	0,45
346,643	0,49
347,104	0,53
347,566	0,56
348,027	0,59
348,488	0,62
348,95	0,64
349,411	0,67
349,873	0,69
350,334	0,72
350,795	0,73
351,256	0,75
351,718	0,75
352,179	0,76
352,64	0,76
353,101	0,77
353,562	0,77
354,023	0,77
354,484	0,78
354,945	0,78
355,406	0,78
355,867	0,78
356,328	0,79
356,789	0,79
357,25	0,79
357,711	0,79
358,172	0,8
358,633	0,8
359,093	0,8
359,554	0,8
360,015	0,8
360,476	0,8
360,936	0,81
361,397	0,81
361,858	0,81
362,318	0,81
362,779	0,81
363,239	0,81
363,7	0,81
364,16	0,81
364,621	0,81
365,081	0,81
365,541	0,81
366,002	0,81
366,462	0,81
366,922	0,81
367,383	0,81
367,843	0,81
368,303	0,81
368,763	0,81
369,223	0,81
369,684	0,81
370,144	0,81
370,604	0,81
371,064	0,81
371,524	0,81
371,984	0,81
372,444	0,81
372,904	0,81
373,363	0,81
373,823	0,81
374,283	0,81
374,743	0,81
375,203	0,81
375,663	0,81
376,122	0,81
376,582	0,81
377,042	0,81
377,501	0,81
377,961	0,81
378,42	0,81
378,88	0,81
379,34	0,81
379,799	0,81
380,259	0,81
380,718	0,81
381,177	0,81
381,637	0,8
382,096	0,8
382,555	0,8
383,015	0,8
383,474	0,8
383,933	0,8
384,393	0,8
384,852	0,8
385,311	0,8
385,77	0,8
386,229	0,8
386,688	0,8
387,147	0,8
387,606	0,8
388,065	0,8
388,524	0,8
388,983	0,8
389,442	0,8
389,901	0,8
390,36	0,8
390,819	0,8
391,277	0,79
391,736	0,79
392,195	0,79
392,654	0,79
393,112	0,79
393,571	0,79
394,03	0,79
394,488	0,79
394,947	0,79
395,405	0,79
395,864	0,79
396,322	0,79
396,781	0,79
397,239	0,79
397,698	0,79
398,156	0,79
398,614	0,79
399,073	0,79
399,531	0,79
399,989	0,79
400,447	0,79
400,905	0,79
401,364	0,79
401,822	0,79
402,28	0,79
402,738	0,79
403,196	0,78
403,654	0,78
404,112	0,78
404,57	0,78
405,028	0,78
405,486	0,78
405,944	0,78
406,402	0,78
406,859	0,78
407,317	0,78
407,775	0,78
408,233	0,78
408,691	0,78
409,148	0,78
409,606	0,78
410,064	0,78
410,521	0,78
410,979	0,78
411,436	0,78
411,894	0,78
412,351	0,78
412,809	0,78
413,266	0,78
413,724	0,78
414,181	0,78
414,638	0,78
415,096	0,78
415,553	0,78
416,01	0,78
416,467	0,78
416,925	0,78
417,382	0,78
417,839	0,78
418,296	0,78
418,753	0,78
419,21	0,78
419,667	0,78
420,124	0,78
420,581	0,77
421,038	0,77
421,495	0,77
421,952	0,77
422,409	0,77
422,866	0,77
423,322	0,77
423,779	0,78
424,236	0,78
424,693	0,78
425,149	0,78
425,606	0,78
426,063	0,78
426,519	0,78
426,976	0,78
427,433	0,78
427,889	0,78
428,346	0,78
428,802	0,78
429,258	0,77
429,715	0,77
430,171	0,77
430,628	0,77
431,084	0,77
431,54	0,77
431,997	0,77
432,453	0,77
432,909	0,77
433,365	0,77
433,821	0,77
434,277	0,77
434,734	0,77
435,19	0,77
435,646	0,77
436,102	0,77
436,558	0,77
437,014	0,77
437,47	0,77
437,925	0,77
438,381	0,77
438,837	0,77
439,293	0,77
439,749	0,77
440,205	0,77
440,66	0,77
441,116	0,77
441,572	0,77
442,027	0,77
442,483	0,77
442,939	0,77
443,394	0,77
443,85	0,77
444,305	0,77
444,761	0,77
445,216	0,77
445,672	0,77
446,127	0,77
446,582	0,77
447,038	0,78
447,493	0,78
447,948	0,78
448,403	0,78
448,859	0,78
449,314	0,78
449,769	0,78
450,224	0,78
450,679	0,78
451,134	0,78
451,589	0,78
452,044	0,78
452,499	0,78
452,954	0,78
453,409	0,78
453,864	0,78
454,319	0,78
454,774	0,78
455,229	0,78
455,684	0,78
456,138	0,78
456,593	0,78
457,048	0,78
457,503	0,78
457,957	0,78
458,412	0,78
458,866	0,78
459,321	0,78
459,776	0,78
460,23	0,79
460,685	0,79
461,139	0,79
461,593	0,79
462,048	0,79
462,502	0,79
462,957	0,79
463,411	0,79
463,865	0,79
464,319	0,79
464,774	0,79
465,228	0,8
465,682	0,8
466,136	0,8
466,59	0,8
467,044	0,8
467,499	0,8
467,953	0,8
468,407	0,8
468,861	0,8
469,315	0,8
469,768	0,8
470,222	0,8
470,676	0,81
471,13	0,81
471,584	0,81
472,038	0,81
472,491	0,81
472,945	0,81
473,399	0,81
473,852	0,81
474,306	0,81
474,76	0,81
475,213	0,82
475,667	0,82
476,12	0,82
476,574	0,82
477,027	0,82
477,481	0,82
477,934	0,83
478,388	0,83
478,841	0,83
479,294	0,83
479,748	0,83
480,201	0,84
480,654	0,84
481,107	0,84
481,561	0,84
482,014	0,84
482,467	0,84
482,92	0,85
483,373	0,85
483,826	0,85
484,279	0,85
484,732	0,86
485,185	0,86
485,638	0,86
486,091	0,86
486,544	0,86
486,997	0,87
487,449	0,87
487,902	0,87
488,355	0,88
488,808	0,88
489,26	0,88
489,713	0,88
490,166	0,89
490,618	0,89
491,071	0,89
491,523	0,9
491,976	0,9
492,429	0,9
492,881	0,91
493,333	0,91
493,786	0,91
494,238	0,92
494,691	0,92
495,143	0,93
495,595	0,93
496,048	0,93
496,5	0,94
496,952	0,94
497,404	0,94
497,856	0,95
498,309	0,95
498,761	0,96
499,213	0,96
499,665	0,97
500,117	0,97
500,569	0,97
501,021	0,98
501,473	0,98
501,925	0,99
502,377	0,99
502,828	1
503,28	1
503,732	1,01
504,184	1,01
504,636	1,01
505,087	1,02
505,539	1,02
505,991	1,03
506,442	1,03
506,894	1,03
507,345	1,04
507,797	1,04
508,249	1,05
508,7	1,05
509,151	1,06
509,603	1,06
510,054	1,07
510,506	1,07
510,957	1,08
511,408	1,08
511,86	1,08
512,311	1,09
512,762	1,09
513,213	1,1
513,665	1,1
514,116	1,1
514,567	1,11
515,018	1,11
515,469	1,11
515,92	1,12
516,371	1,12
516,822	1,12
517,273	1,13
517,724	1,13
518,175	1,13
518,626	1,14
519,076	1,14
519,527	1,14
519,978	1,14
520,429	1,14
520,88	1,15
521,33	1,15
521,781	1,15
522,232	1,15
522,682	1,15
523,133	1,16
523,583	1,16
524,034	1,16
524,484	1,16
524,935	1,16
525,385	1,16
525,836	1,16
526,286	1,16
526,736	1,16
527,187	1,16
527,637	1,16
528,087	1,16
528,538	1,16
528,988	1,16
529,438	1,16
529,888	1,16
530,338	1,16
530,788	1,15
531,238	1,15
531,688	1,15
532,139	1,15
532,589	1,15
533,038	1,14
533,488	1,14
533,938	1,14
534,388	1,14
534,838	1,13
535,288	1,13
535,738	1,13
536,187	1,12
536,637	1,12
537,087	1,12
537,537	1,11
537,986	1,11
538,436	1,1
538,885	1,1
539,335	1,09
539,785	1,09
540,234	1,08
540,684	1,08
541,133	1,07
541,582	1,07
542,032	1,06
542,481	1,06
542,931	1,05
543,38	1,04
543,829	1,04
544,278	1,03
544,728	1,03
545,177	1,02
545,626	1,02
546,075	1,01
546,524	1,01
546,973	1
547,422	1
547,871	0,99
548,32	0,99
548,769	0,98
549,218	0,98
549,667	0,98
550,116	0,97
550,565	0,97
551,014	0,96
551,463	0,96
551,911	0,95
552,36	0,94
552,809	0,94
553,258	0,93
553,706	0,93
554,155	0,92
554,603	0,92
555,052	0,91
555,501	0,91
555,949	0,9
556,398	0,9
556,846	0,89
557,294	0,89
557,743	0,88
558,191	0,87
558,64	0,87
559,088	0,86
559,536	0,86
559,985	0,85
560,433	0,85
560,881	0,84
561,329	0,84
561,777	0,83
562,225	0,83
562,674	0,82
563,122	0,82
563,57	0,81
564,018	0,81
564,466	0,8
564,914	0,8
565,362	0,79
565,809	0,79
566,257	0,78
566,705	0,78
567,153	0,77
567,601	0,77
568,048	0,76
568,496	0,76
568,944	0,75
569,392	0,75
569,839	0,75
570,287	0,74
570,734	0,74
571,182	0,73
571,63	0,73
572,077	0,73
572,525	0,72
572,972	0,72
573,419	0,71
573,867	0,71
574,314	0,71
574,761	0,7
575,209	0,7
575,656	0,69
576,103	0,69
576,551	0,69
576,998	0,68
577,445	0,68
577,892	0,68
578,339	0,67
578,786	0,67
579,233	0,66
579,68	0,66
580,127	0,66
580,574	0,66
581,021	0,65
581,468	0,65
581,915	0,64
582,362	0,64
582,809	0,64
583,255	0,64
583,702	0,63
584,149	0,63
584,596	0,63
585,042	0,62
585,489	0,62
585,936	0,62
586,382	0,62
586,829	0,61
587,275	0,61
587,722	0,61
588,168	0,61
588,615	0,6
589,061	0,6
589,508	0,6
589,954	0,6
590,4	0,59
590,847	0,59
591,293	0,59
591,739	0,59
592,185	0,58
592,632	0,58
593,078	0,58
593,524	0,58
593,97	0,58
594,416	0,58
594,862	0,58
595,308	0,57
595,754	0,57
596,2	0,57
596,646	0,57
597,092	0,56
597,538	0,56
597,984	0,56
598,43	0,56
598,876	0,56
599,321	0,56
599,767	0,55
600,213	0,55
600,659	0,55
601,104	0,55
601,55	0,55
601,995	0,55
602,441	0,54
602,887	0,54
603,332	0,54
603,778	0,54
604,223	0,54
604,668	0,54
605,114	0,54
605,559	0,54
606,005	0,53
606,45	0,53
606,895	0,53
607,341	0,53
607,786	0,53
608,231	0,53
608,676	0,52
609,121	0,52
609,566	0,51
610,012	0,51
610,457	0,5
610,902	0,5
611,347	0,5
611,792	0,49
612,237	0,49
612,682	0,49
613,127	0,49
613,571	0,49
614,016	0,49
614,461	0,49
614,906	0,5
615,351	0,5
615,795	0,5
616,24	0,5
616,685	0,5
617,129	0,5
617,574	0,5
618,019	0,5
618,463	0,5
618,908	0,5
619,352	0,5
619,797	0,5
620,241	0,5
620,686	0,49
621,13	0,49
621,574	0,49
622,019	0,49
622,463	0,49
622,907	0,49
623,352	0,49
623,796	0,49
624,24	0,48
624,684	0,48
625,128	0,48
625,572	0,48
626,016	0,48
626,461	0,48
626,905	0,48
627,349	0,48
627,793	0,48
628,236	0,48
628,68	0,48
629,124	0,48
629,568	0,48
630,012	0,48
630,456	0,48
630,9	0,48
631,343	0,48
631,787	0,48
632,231	0,48
632,674	0,48
633,118	0,48
633,562	0,47
634,005	0,47
634,449	0,47
634,892	0,47
635,336	0,47
635,779	0,47
636,223	0,47
636,666	0,47
637,109	0,47
637,553	0,47
637,996	0,47
638,439	0,47
638,883	0,47
639,326	0,47
639,769	0,47
640,212	0,47
640,655	0,46
641,099	0,46
641,542	0,46
641,985	0,46
642,428	0,46
642,871	0,46
643,314	0,46
643,757	0,46
644,2	0,46
644,643	0,46
645,085	0,46
645,528	0,46
645,971	0,46
646,414	0,46
646,857	0,46
647,299	0,46
647,742	0,45
648,185	0,45
648,627	0,45
649,07	0,45
649,513	0,45
649,955	0,45
650,398	0,45
650,84	0,45
651,283	0,45
651,725	0,45
652,168	0,45
652,61	0,45
653,052	0,45
653,495	0,45
653,937	0,36
654,379	0,31
654,821	0,31
655,264	0,31
655,706	0,31
656,148	0,31
656,59	0,31
657,032	0,31
657,474	0,31
657,916	0,31
658,358	0,3
658,8	0,37
659,242	0,45
659,684	0,45
660,126	0,45
660,568	0,45
661,01	0,45
661,452	0,45
661,894	0,45
662,335	0,45
662,777	0,45
663,219	0,45
663,661	0,44
664,102	0,45
664,544	0,45
664,985	0,44
665,427	0,44
665,869	0,44
666,31	0,44
666,752	0,44
667,193	0,44
667,634	0,44
668,076	0,44
668,517	0,44
668,959	0,44
669,4	0,44
669,841	0,44
670,282	0,44
670,724	0,44
671,165	0,44
671,606	0,44
672,047	0,44
672,488	0,44
672,929	0,44
673,37	0,44
673,811	0,44
674,252	0,44
674,693	0,44
675,134	0,44
675,575	0,44
676,016	0,44
676,457	0,44
676,898	0,44
677,339	0,44
677,78	0,43
678,22	0,44
678,661	0,44
679,102	0,44
679,542	0,44
679,983	0,44
680,424	0,44
680,864	0,44
681,305	0,44
681,745	0,44
682,186	0,44
682,626	0,44
683,067	0,44
683,507	0,44
683,948	0,44
684,388	0,44
684,828	0,44
685,269	0,44
685,709	0,43
686,149	0,43
686,589	0,43
687,029	0,43
687,47	0,43
687,91	0,43
688,35	0,43
688,79	0,43
689,23	0,43
689,67	0,43
690,11	0,43
690,55	0,43
690,99	0,43
691,43	0,42
691,87	0,42
692,31	0,42
692,749	0,42
693,189	0,42
693,629	0,42
694,069	0,42
694,508	0,42
694,948	0,42
695,388	0,42
695,827	0,42
696,267	0,42
696,706	0,42
697,146	0,42
697,586	0,42
698,025	0,42
698,464	0,42
698,904	0,43
699,343	0,43
699,783	0,43
700,222	0,43
700,661	0,43
701,101	0,43
701,54	0,43
701,979	0,43
702,418	0,43
702,857	0,43
703,297	0,43
703,736	0,43
704,175	0,43
704,614	0,43
705,053	0,42
705,492	0,42
705,931	0,42
706,37	0,42
706,809	0,42
707,248	0,42
707,687	0,42
708,125	0,42
708,564	0,42
709,003	0,42
709,442	0,42
709,88	0,42
710,319	0,42
710,758	0,42
711,196	0,42
711,635	0,42
712,074	0,42
712,512	0,42
712,951	0,42
713,389	0,42
713,828	0,41
714,266	0,41
714,705	0,41
715,143	0,41
715,581	0,41
716,02	0,41
716,458	0,41
716,896	0,41
717,334	0,41
717,773	0,41
718,211	0,41
718,649	0,41
719,087	0,41
719,525	0,41
719,963	0,41
720,401	0,41
720,839	0,41
721,277	0,41
721,715	0,41
722,153	0,41
722,591	0,41
723,029	0,41
723,467	0,41
723,905	0,41
724,342	0,41
724,78	0,41
725,218	0,41
725,656	0,41
726,093	0,41
726,531	0,41
726,969	0,41
727,406	0,41
727,844	0,41
728,281	0,41
728,719	0,41
729,156	0,41
729,594	0,41
730,031	0,41
730,469	0,41
730,906	0,41
731,343	0,41
731,781	0,41
732,218	0,41
732,655	0,41
733,092	0,41
733,53	0,4
733,967	0,4
734,404	0,4
734,841	0,4
735,278	0,4
735,715	0,4
736,152	0,4
736,589	0,4
737,026	0,4
737,463	0,4
737,9	0,4
738,337	0,4
738,774	0,4
739,211	0,4
739,647	0,4
740,084	0,4
740,521	0,4
740,958	0,4
741,394	0,41
741,831	0,41
742,268	0,41
742,704	0,41
743,141	0,41
743,577	0,4
744,014	0,4
744,45	0,4
744,887	0,4
745,323	0,4
745,76	0,4
746,196	0,4
746,632	0,4
747,069	0,4
747,505	0,4
747,941	0,4
748,378	0,4
748,814	0,4
749,25	0,4
749,686	0,4
750,122	0,4
750,558	0,4
750,994	0,4
751,43	0,4
751,866	0,4
752,302	0,4
752,738	0,4
753,174	0,4
753,61	0,4
754,046	0,4
754,482	0,4
754,918	0,4
755,354	0,4
755,789	0,4
756,225	0,4
756,661	0,4
757,096	0,4
757,532	0,4
757,968	0,4
758,403	0,39
758,839	0,39
759,274	0,39
759,71	0,38
760,145	0,38
760,581	0,37
761,016	0,37
761,452	0,37
761,887	0,36
762,322	0,36
762,758	0,35
763,193	0,35
763,628	0,34
764,063	0,34
764,499	0,33
764,934	0,33
765,369	0,32
765,804	0,31
766,239	0,31
766,674	0,3
767,109	0,29
767,544	0,29
767,979	0,28
768,414	0,27
768,849	0,26
769,284	0,25
769,719	0,24
770,154	0,23
770,588	0,23
771,023	0,22
771,458	0,2
771,893	0,19
772,327	0,18
772,762	0,17
773,197	0,17
773,631	0,16
774,066	0,15
774,5	0,14
774,935	0,13
775,369	0,11
775,804	0,1
776,238	0,09
776,673	0,08
777,107	0,07
777,541	0,07
777,976	0,06
778,41	0,05
778,844	0,03
779,279	0,03
779,713	0,02
780,147	0,01
780,581	0,01
781,015	0
781,449	-0,01
781,883	-0,03
782,317	-0,04
782,751	-0,05
783,185	-0,06
783,619	-0,07
784,053	-0,08
784,487	-0,08
784,921	-0,09
785,355	-0,09
785,789	-0,11
786,223	-0,11
786,656	-0,12
787,09	-0,13
787,524	-0,13
787,957	-0,15
788,391	-0,16
788,825	-0,18
789,258	-0,19
789,692	-0,21
790,125	-0,22
790,559	-0,24
790,992	-0,26
791,426	-0,28
791,859	-0,29
792,293	-0,32
792,726	-0,33
793,159	-0,35
793,593	-0,37
794,026	-0,39
794,459	-0,42
794,892	-0,45
795,326	-0,46
795,759	-0,5
796,192	-0,54
796,625	-0,58
797,058	-0,61
797,491	-0,65
797,924	-0,69
798,357	-0,74
798,79	-0,77
799,223	-0,82
799,656	-0,87
800,089	-0,92
800,522	-0,96
800,955	-1
801,387	-1,06
801,82	-1,11
802,253	-1,17
802,686	-1,25
803,118	-1,31
803,551	-1,36
803,984	-1,4
804,416	-1,43
804,849	-1,46
805,281	-1,57
805,714	-1,93
806,146	-2,4
806,579	-2,68
807,011	-2,85
807,444	-2,95
807,876	-3,03
808,308	-3,07
808,741	-3,1
809,173	-3,15
809,605	-3,17
810,037	-3,25
810,47	-3,17
810,902	-2,98
811,334	-2,83
811,766	-2,66
812,198	-2,41
812,63	-1,97
813,062	-1,76
813,494	-1,66
813,926	-1,57
814,358	-1,52
814,79	-1,44
815,222	-1,38
815,654	-1,33
816,086	-1,27
816,518	-1,21
816,949	-1,16
817,381	-1,12
817,813	-1,1
818,245	-1,06
818,676	-1,02
819,108	-0,99
819,54	-0,97
819,971	-0,95
820,403	-0,9
820,834	-0,89
821,266	-0,85
821,697	-0,83
822,129	-0,81
822,56	-0,79
822,991	-0,77
823,423	-0,75
823,854	-0,74
824,286	-0,72
824,717	-0,71
825,148	-0,69
825,579	-0,68
826,01	-0,68
826,442	-0,67
826,873	-0,65
827,304	-0,62
827,735	-0,61
828,166	-0,62
828,597	-0,62
829,028	-0,61
829,459	-0,62
829,89	-0,62
830,321	-0,58
830,752	-0,59
831,183	-0,58
831,613	-0,57
832,044	-0,57
832,475	-0,56
832,906	-0,58
833,336	-0,58
833,767	-0,58
834,198	-0,57
834,628	-0,55
835,059	-0,57
835,49	-0,59
835,92	-0,56
836,351	-0,56
836,781	-0,56
837,212	-0,58
837,642	-0,58
838,072	-0,56
838,503	-0,57
838,933	-0,55
839,364	-0,56
839,794	-0,54
840,224	-0,53
840,654	-0,57
841,085	-0,58
841,515	-0,55
841,945	-0,55
842,375	-0,5
842,805	-0,48
843,235	-0,47
843,665	-0,48
844,095	-0,47
844,525	-0,49
844,955	-0,49
845,385	-0,47
845,815	-0,47
846,245	-0,49
846,675	-0,49
847,105	-0,51
847,534	-0,51
847,964	-0,5
848,394	-0,49
848,824	-0,53
849,253	-0,52
849,683	-0,51
850,112	-0,52
850,542	-0,54
850,972	-0,55
851,401	-0,53
851,831	-0,51
852,26	-0,53
852,69	-0,56
853,119	-0,55
853,548	-0,54
853,978	-0,54
854,407	-0,53
854,836	-0,53
855,266	-0,53
855,695	-0,54
856,124	-0,55
856,553	-0,57
856,983	-0,58
857,412	-0,58
857,841	-0,61
858,27	-0,61
858,699	-0,62
859,128	-0,65
859,557	-0,66
859,986	-0,67
860,415	-0,65
860,844	-0,64
861,273	-0,63
861,702	-0,64
862,13	-0,62
862,559	-0,62
862,988	-0,59
863,417	-0,59
863,845	-0,58
864,274	-0,58
864,703	-0,58
865,131	-0,58
865,56	-0,58
865,989	-0,6
866,417	-0,57
866,846	-0,58
867,274	-0,57
867,703	-0,59
868,131	-0,6
868,559	-0,6
868,988	-0,62
869,416	-0,6
869,844	-0,62
870,273	-0,64
870,701	-0,64
871,129	-0,66
871,557	-0,68
871,986	-0,69
872,414	-0,7
872,842	-0,66
873,27	-0,65
873,698	-0,61
874,126	-0,65
874,554	-0,63
874,982	-0,64
875,41	-0,66
875,838	-0,62
876,266	-0,6
876,694	-0,6
877,122	-0,59
877,549	-0,64
877,977	-0,61
878,405	-0,64
878,833	-0,6
879,26	-0,59
879,688	-0,58
880,116	-0,57
880,543	-0,55
880,971	-0,54
881,399	-0,57
881,826	-0,58
882,254	-0,56
882,681	-0,6
883,109	-0,57
883,536	-0,58
883,963	-0,6
884,391	-0,59
884,818	-0,56
885,245	-0,6
885,673	-0,62
886,1	-0,59
886,527	-0,58
886,954	-0,55
887,381	-0,57
887,809	-0,57
888,236	-0,58
888,663	-0,6
889,09	-0,63
889,517	-0,66
889,944	-0,65
890,371	-0,64
890,798	-0,65
891,225	-0,65
891,652	-0,68
892,078	-0,65
892,505	-0,68
892,932	-0,64
893,359	-0,64
893,786	-0,64
894,212	-0,61
894,639	-0,62
895,066	-0,65
895,492	-0,59
895,919	-0,59
896,346	-0,59
896,772	-0,6
897,199	-0,56
897,625	-0,6
898,052	-0,56
898,478	-0,54
898,904	-0,55
899,331	-0,55
899,757	-0,57
900,183	-0,58
900,61	-0,56
901,036	-0,57
901,462	-0,56
901,888	-0,56
902,315	-0,54
902,741	-0,59
903,167	-0,59
903,593	-0,61
904,019	-0,59
904,445	-0,56
904,871	-0,59
905,297	-0,61
905,723	-0,6
906,149	-0,6
906,575	-0,61
907,001	-0,61
907,427	-0,58
907,852	-0,57
908,278	-0,58
908,704	-0,57
909,13	-0,56
909,555	-0,55
909,981	-0,54
910,407	-0,54
910,832	-0,54
911,258	-0,54
911,684	-0,54
912,109	-0,54
912,535	-0,56
912,96	-0,51
913,386	-0,55
913,811	-0,55
914,236	-0,56
914,662	-0,54
915,087	-0,58
915,512	-0,57
915,938	-0,59
916,363	-0,58
916,788	-0,6
917,213	-0,58
917,639	-0,64
918,064	-0,61
918,489	-0,62
918,914	-0,62
919,339	-0,64
919,764	-0,61
920,189	-0,6
920,614	-0,63
921,039	-0,63
921,464	-0,59
921,889	-0,61
922,314	-0,62
922,738	-0,65
923,163	-0,66
923,588	-0,66
924,013	-0,66
924,437	-0,67
924,862	-0,68
925,287	-0,64
925,711	-0,65
926,136	-0,67
926,561	-0,65
926,985	-0,64
927,41	-0,61
927,834	-0,59
928,259	-0,56
928,683	-0,54
929,108	-0,51
929,532	-0,52
929,956	-0,5
930,381	-0,49
930,805	-0,48
931,229	-0,48
931,653	-0,46
932,078	-0,46
932,502	-0,47
932,926	-0,48
933,35	-0,48
933,774	-0,48
934,198	-0,46
934,622	-0,45
935,046	-0,46
935,47	-0,46
935,894	-0,46
936,318	-0,45
936,742	-0,46
937,166	-0,46
937,59	-0,45
938,014	-0,48
938,437	-0,48
938,861	-0,51
939,285	-0,52
939,709	-0,51
940,132	-0,52
940,556	-0,52
940,98	-0,52
941,403	-0,51
941,827	-0,51
942,25	-0,53
942,674	-0,52
943,097	-0,51
943,521	-0,52
943,944	-0,53
944,368	-0,52
944,791	-0,5
945,214	-0,52
945,638	-0,52
946,061	-0,55
946,484	-0,55
946,907	-0,53
947,331	-0,54
947,754	-0,58
948,177	-0,54
948,6	-0,54
949,023	-0,53
949,446	-0,53
949,869	-0,51
950,292	-0,52
950,715	-0,49
951,138	-0,48
951,561	-0,45
951,984	-0,45
952,407	-0,43
952,83	-0,42
953,252	-0,39
953,675	-0,39
954,098	-0,39
954,521	-0,38
954,943	-0,38
955,366	-0,39
955,789	-0,36
956,211	-0,37
956,634	-0,38
957,056	-0,35
957,479	-0,36
957,902	-0,38
958,324	-0,38
958,746	-0,37
959,169	-0,37
959,591	-0,38
960,014	-0,38
960,436	-0,38
960,858	-0,38
961,281	-0,39
961,703	-0,4
962,125	-0,4
962,547	-0,38
962,969	-0,38
963,391	-0,39
963,814	-0,4
964,236	-0,39
964,658	-0,36
965,08	-0,36
965,502	-0,36
965,924	-0,33
966,346	-0,33
966,768	-0,32
967,189	-0,34
967,611	-0,34
968,033	-0,34
968,455	-0,32
968,877	-0,33
969,298	-0,35
969,72	-0,36
970,142	-0,35
970,563	-0,36
970,985	-0,35
971,407	-0,34
971,828	-0,31
972,25	-0,3
972,671	-0,29
973,093	-0,29
973,514	-0,28
973,936	-0,26
974,357	-0,24
974,778	-0,25
975,2	-0,25
975,621	-0,24
976,042	-0,22
976,464	-0,21
976,885	-0,2
977,306	-0,19
977,727	-0,19
978,148	-0,18
978,57	-0,16
978,991	-0,14
979,412	-0,13
979,833	-0,12
980,254	-0,11
980,675	-0,12
981,096	-0,12
981,517	-0,1
981,937	-0,09
982,358	-0,08
982,779	-0,06
983,2	-0,06
983,621	-0,06
984,042	-0,04
984,462	-0,02
984,883	-0
985,304	0,02
985,724	0,03
986,145	0,04
986,565	0,05
986,986	0,06
987,407	0,08
987,827	0,09
988,248	0,11
988,668	0,12
989,088	0,12
989,509	0,14
989,929	0,15
990,35	0,15
990,77	0,17
991,19	0,18
991,61	0,19
992,031	0,21
992,451	0,22
992,871	0,22
993,291	0,24
993,711	0,25
994,131	0,25
994,551	0,26
994,971	0,27
995,391	0,27
995,811	0,28
996,231	0,29
996,651	0,29
997,071	0,3
997,491	0,31
997,911	0,31
998,331	0,32
998,75	0,32
999,17	0,33
999,59	0,34
1000,009	0,34
1000,429	0,35
1000,849	0,36
1001,268	0,36
1001,688	0,37
1002,107	0,37
1002,527	0,37
1002,946	0,38
1003,366	0,38
1003,785	0,38
1004,205	0,39
1004,624	0,39
1005,044	0,39
1005,463	0,39
1005,882	0,4
1006,301	0,4
1006,721	0,4
1007,14	0,4
1007,559	0,4
1007,978	0,4
1008,397	0,4
1008,816	0,4
1009,235	0,4
1009,655	0,4
1010,074	0,4
1010,492	0,4
1010,911	0,4
1011,33	0,4
1011,749	0,4
1012,168	0,4
1012,587	0,39
1013,006	0,39
1013,425	0,39
1013,843	0,39
1014,262	0,39
1014,681	0,39
1015,099	0,39
1015,518	0,39
1015,937	0,39
1016,355	0,39
1016,774	0,39
1017,192	0,39
1017,611	0,39
1018,029	0,39
1018,448	0,39
1018,866	0,39
1019,285	0,39
1019,703	0,39
1020,121	0,39
1020,54	0,39
1020,958	0,39
1021,376	0,39
1021,794	0,39
1022,213	0,39
1022,631	0,39
1023,049	0,39
1023,467	0,39
1023,885	0,39
1024,303	0,39
1024,721	0,39
1025,139	0,39
1025,557	0,38
1025,975	0,38
1026,393	0,38
1026,811	0,38
1027,229	0,38
1027,647	0,38
1028,065	0,38
1028,482	0,38
1028,9	0,38
1029,318	0,38
1029,735	0,38
1030,153	0,38
1030,571	0,38
1030,988	0,38
1031,406	0,38
1031,823	0,38
1032,241	0,38
1032,659	0,38
1033,076	0,38
1033,493	0,38
1033,911	0,38
1034,328	0,38
1034,746	0,38
1035,163	0,38
1035,58	0,38
1035,997	0,38
1036,415	0,38
1036,832	0,38
1037,249	0,38
1037,666	0,38
1038,083	0,38
1038,501	0,38
1038,918	0,38
1039,335	0,38
1039,752	0,38
1040,169	0,38
1040,586	0,38
1041,003	0,38
1041,419	0,38
1041,836	0,38
1042,253	0,38
1042,67	0,38
1043,087	0,38
1043,504	0,38
1043,92	0,38
1044,337	0,38
1044,754	0,38
1045,17	0,38
1045,587	0,37
1046,004	0,37
1046,42	0,37
1046,837	0,37
1047,253	0,37
1047,67	0,37
1048,086	0,37
1048,503	0,37
1048,919	0,37
1049,335	0,37
1049,752	0,37
1050,168	0,37
1050,584	0,37
1051,001	0,37
1051,417	0,37
1051,833	0,37
1052,249	0,38
1052,665	0,38
1053,081	0,38
1053,497	0,38
1053,914	0,38
1054,33	0,38
1054,746	0,38
1055,162	0,38
1055,578	0,38
1055,993	0,39
1056,409	0,39
1056,825	0,39
1057,241	0,39
1057,657	0,39
1058,073	0,39
1058,488	0,39
1058,904	0,39
1059,32	0,39
1059,736	0,39
1060,151	0,39
1060,567	0,39
1060,982	0,39
1061,398	0,39
1061,813	0,39
1062,229	0,39
1062,644	0,39
1063,06	0,39
1063,475	0,38
1063,891	0,38
1064,306	0,38
1064,721	0,38
1065,137	0,38
1065,552	0,38
1065,967	0,38
1066,382	0,38
1066,798	0,38
1067,213	0,38
1067,628	0,38
1068,043	0,38
1068,458	0,38
1068,873	0,38
1069,288	0,38
1069,703	0,38
1070,118	0,38
1070,533	0,38
1070,948	0,38
1071,363	0,38
1071,778	0,38
1072,193	0,38
1072,607	0,39
1073,022	0,39
1073,437	0,39
1073,852	0,39
1074,266	0,39
1074,681	0,39
1075,096	0,39
1075,51	0,39
1075,925	0,39
1076,339	0,39
1076,754	0,39
1077,168	0,39
1077,583	0,38
1077,997	0,38
1078,412	0,38
1078,826	0,38
1079,24	0,38
1079,655	0,38
1080,069	0,38
1080,483	0,38
1080,897	0,38
1081,312	0,38
1081,726	0,37
1082,14	0,37
1082,554	0,37
1082,968	0,37
1083,382	0,37
1083,796	0,37
1084,21	0,37
1084,624	0,37
1085,038	0,37
1085,452	0,37
1085,866	0,37
1086,28	0,36
1086,694	0,36
1087,108	0,36
1087,521	0,36
1087,935	0,36
1088,349	0,36
1088,763	0,35
1089,176	0,35
1089,59	0,35
1090,004	0,35
1090,417	0,34
1090,831	0,34
1091,244	0,34
1091,658	0,33
1092,071	0,33
1092,485	0,33
1092,898	0,32
1093,312	0,32
1093,725	0,32
1094,138	0,32
1094,552	0,32
1094,965	0,31
1095,378	0,31
1095,791	0,31
1096,205	0,31
1096,618	0,31
1097,031	0,3
1097,444	0,3
1097,857	0,3
1098,27	0,3
1098,683	0,29
1099,096	0,29
1099,509	0,29
1099,922	0,28
1100,335	0,28
1100,748	0,27
1101,161	0,27
1101,574	0,27
1101,986	0,26
1102,399	0,26
1102,812	0,25
1103,225	0,25
1103,637	0,25
1104,05	0,24
1104,463	0,24
1104,875	0,24
1105,288	0,24
1105,7	0,23
1106,113	0,23
1106,525	0,22
1106,938	0,22
1107,35	0,21
1107,763	0,21
1108,175	0,21
1108,588	0,2
1109	0,2
1109,412	0,19
1109,824	0,19
1110,237	0,19
1110,649	0,19
1111,061	0,19
