Data from 18C-808nm-8A-cont_Absorbance__79__01508.txt Node

Date: Mon Jul 17 17:19:53 CEST 2023
User: Laser008
Spectrometer: MAYP115816
Trigger mode: 0
Integration Time (sec): 2,500000E-1
Scans to average: 10
Electric dark correction enabled: true
Nonlinearity correction enabled: true
Boxcar width: 5
XAxis mode: Wavelengths
Number of Pixels in Spectrum: 2068
>>>>>Begin Spectral Data<<<<<
198,914	-0,6
199,384	-0,4
199,855	-0,28
200,325	-0,21
200,796	-0,18
201,266	-0,14
201,737	-0,13
202,207	-0,13
202,677	-0,12
203,147	-0,12
203,618	-0,09
204,088	-0,08
204,558	-0,06
205,028	-0,06
205,498	-0,07
205,968	-0,07
206,439	-0,08
206,909	-0,06
207,379	-0,07
207,849	-0,07
208,319	-0,08
208,789	-0,09
209,258	-0,08
209,728	-0,11
210,198	-0,11
210,668	-0,1
211,138	-0,09
211,608	-0,09
212,077	-0,09
212,547	-0,09
213,017	-0,1
213,486	-0,1
213,956	-0,1
214,426	-0,11
214,895	-0,1
215,365	-0,11
215,834	-0,11
216,304	-0,13
216,773	-0,13
217,243	-0,14
217,712	-0,16
218,181	-0,15
218,651	-0,15
219,12	-0,15
219,589	-0,15
220,058	-0,14
220,528	-0,15
220,997	-0,16
221,466	-0,17
221,935	-0,18
222,404	-0,19
222,873	-0,16
223,342	-0,16
223,812	-0,17
224,281	-0,17
224,749	-0,17
225,218	-0,19
225,687	-0,18
226,156	-0,17
226,625	-0,15
227,094	-0,15
227,563	-0,15
228,031	-0,17
228,5	-0,18
228,969	-0,18
229,438	-0,16
229,906	-0,15
230,375	-0,14
230,844	-0,15
231,312	-0,15
231,781	-0,16
232,249	-0,15
232,718	-0,15
233,186	-0,14
233,655	-0,14
234,123	-0,13
234,591	-0,14
235,06	-0,14
235,528	-0,14
235,996	-0,13
236,465	-0,13
236,933	-0,12
237,401	-0,12
237,869	-0,11
238,337	-0,11
238,805	-0,1
239,274	-0,1
239,742	-0,09
240,21	-0,08
240,678	-0,08
241,146	-0,07
241,614	-0,07
242,081	-0,07
242,549	-0,07
243,017	-0,08
243,485	-0,08
243,953	-0,08
244,421	-0,08
244,888	-0,09
245,356	-0,09
245,824	-0,09
246,291	-0,1
246,759	-0,11
247,227	-0,11
247,694	-0,1
248,162	-0,1
248,629	-0,09
249,097	-0,1
249,564	-0,11
250,032	-0,12
250,499	-0,11
250,967	-0,11
251,434	-0,12
251,901	-0,1
252,369	-0,11
252,836	-0,12
253,303	-0,13
253,77	-0,14
254,237	-0,13
254,705	-0,13
255,172	-0,12
255,639	-0,13
256,106	-0,14
256,573	-0,14
257,04	-0,15
257,507	-0,15
257,974	-0,16
258,441	-0,13
258,908	-0,14
259,375	-0,15
259,841	-0,15
260,308	-0,16
260,775	-0,16
261,242	-0,15
261,709	-0,15
262,175	-0,16
262,642	-0,15
263,109	-0,15
263,575	-0,17
264,042	-0,15
264,508	-0,15
264,975	-0,16
265,441	-0,17
265,908	-0,17
266,374	-0,16
266,841	-0,18
267,307	-0,18
267,773	-0,17
268,24	-0,17
268,706	-0,18
269,172	-0,18
269,639	-0,19
270,105	-0,18
270,571	-0,18
271,037	-0,18
271,503	-0,19
271,969	-0,19
272,435	-0,19
272,902	-0,21
273,368	-0,21
273,834	-0,21
274,3	-0,22
274,765	-0,22
275,231	-0,23
275,697	-0,22
276,163	-0,21
276,629	-0,22
277,095	-0,22
277,56	-0,21
278,026	-0,22
278,492	-0,21
278,958	-0,22
279,423	-0,22
279,889	-0,21
280,354	-0,21
280,82	-0,21
281,286	-0,23
281,751	-0,22
282,217	-0,21
282,682	-0,2
283,147	-0,2
283,613	-0,2
284,078	-0,2
284,544	-0,21
285,009	-0,22
285,474	-0,21
285,939	-0,22
286,405	-0,21
286,87	-0,21
287,335	-0,22
287,8	-0,22
288,265	-0,2
288,73	-0,21
289,195	-0,22
289,66	-0,21
290,125	-0,2
290,59	-0,2
291,055	-0,19
291,52	-0,19
291,985	-0,19
292,45	-0,2
292,915	-0,2
293,38	-0,21
293,844	-0,19
294,309	-0,18
294,774	-0,17
295,239	-0,18
295,703	-0,19
296,168	-0,18
296,632	-0,18
297,097	-0,16
297,562	-0,15
298,026	-0,15
298,491	-0,15
298,955	-0,15
299,419	-0,14
299,884	-0,14
300,348	-0,13
300,813	-0,12
301,277	-0,12
301,741	-0,12
302,205	-0,12
302,67	-0,12
303,134	-0,12
303,598	-0,12
304,062	-0,12
304,526	-0,12
304,99	-0,13
305,454	-0,13
305,919	-0,13
306,383	-0,13
306,847	-0,13
307,31	-0,15
307,774	-0,15
308,238	-0,14
308,702	-0,13
309,166	-0,14
309,63	-0,14
310,094	-0,11
310,557	-0,12
311,021	-0,11
311,485	-0,12
311,948	-0,11
312,412	-0,1
312,876	-0,09
313,339	-0,1
313,803	-0,1
314,266	-0,1
314,73	-0,1
315,193	-0,1
315,657	-0,09
316,12	-0,08
316,584	-0,06
317,047	-0,06
317,51	-0,05
317,973	-0,06
318,437	-0,05
318,9	-0,04
319,363	-0,03
319,826	-0,03
320,29	-0,04
320,753	-0,04
321,216	-0,04
321,679	-0,04
322,142	-0,04
322,605	-0,05
323,068	-0,05
323,531	-0,05
323,994	-0,05
324,457	-0,05
324,92	-0,04
325,382	-0,03
325,845	-0,03
326,308	-0,03
326,771	-0,02
327,233	-0,01
327,696	-0
328,159	0,01
328,622	0,01
329,084	0,01
329,547	0,02
330,009	0,01
330,472	0,03
330,934	0,04
331,397	0,04
331,859	0,04
332,322	0,05
332,784	0,06
333,246	0,06
333,709	0,05
334,171	0,06
334,633	0,06
335,096	0,06
335,558	0,06
336,02	0,07
336,482	0,06
336,944	0,07
337,406	0,08
337,868	0,07
338,331	0,07
338,793	0,08
339,255	0,09
339,717	0,1
340,178	0,1
340,64	0,1
341,102	0,1
341,564	0,11
342,026	0,13
342,488	0,13
342,949	0,15
343,411	0,17
343,873	0,2
344,335	0,22
344,796	0,25
345,258	0,29
345,719	0,33
346,181	0,37
346,643	0,41
347,104	0,43
347,566	0,45
348,027	0,48
348,488	0,49
348,95	0,51
349,411	0,52
349,873	0,54
350,334	0,55
350,795	0,56
351,256	0,57
351,718	0,58
352,179	0,58
352,64	0,58
353,101	0,59
353,562	0,59
354,023	0,59
354,484	0,59
354,945	0,59
355,406	0,59
355,867	0,59
356,328	0,6
356,789	0,6
357,25	0,6
357,711	0,6
358,172	0,6
358,633	0,6
359,093	0,6
359,554	0,6
360,015	0,6
360,476	0,61
360,936	0,61
361,397	0,61
361,858	0,61
362,318	0,61
362,779	0,61
363,239	0,61
363,7	0,61
364,16	0,61
364,621	0,61
365,081	0,61
365,541	0,61
366,002	0,61
366,462	0,61
366,922	0,61
367,383	0,61
367,843	0,61
368,303	0,61
368,763	0,61
369,223	0,61
369,684	0,61
370,144	0,61
370,604	0,61
371,064	0,61
371,524	0,61
371,984	0,61
372,444	0,61
372,904	0,61
373,363	0,61
373,823	0,61
374,283	0,61
374,743	0,61
375,203	0,61
375,663	0,61
376,122	0,61
376,582	0,61
377,042	0,61
377,501	0,61
377,961	0,61
378,42	0,61
378,88	0,6
379,34	0,6
379,799	0,6
380,259	0,6
380,718	0,6
381,177	0,6
381,637	0,6
382,096	0,6
382,555	0,6
383,015	0,6
383,474	0,6
383,933	0,6
384,393	0,6
384,852	0,6
385,311	0,6
385,77	0,6
386,229	0,6
386,688	0,6
387,147	0,6
387,606	0,6
388,065	0,6
388,524	0,6
388,983	0,6
389,442	0,6
389,901	0,6
390,36	0,6
390,819	0,59
391,277	0,59
391,736	0,59
392,195	0,59
392,654	0,59
393,112	0,59
393,571	0,59
394,03	0,59
394,488	0,59
394,947	0,59
395,405	0,59
395,864	0,59
396,322	0,59
396,781	0,59
397,239	0,59
397,698	0,59
398,156	0,59
398,614	0,59
399,073	0,59
399,531	0,59
399,989	0,59
400,447	0,59
400,905	0,59
401,364	0,59
401,822	0,59
402,28	0,59
402,738	0,59
403,196	0,59
403,654	0,59
404,112	0,59
404,57	0,59
405,028	0,59
405,486	0,59
405,944	0,59
406,402	0,59
406,859	0,59
407,317	0,59
407,775	0,59
408,233	0,59
408,691	0,59
409,148	0,59
409,606	0,58
410,064	0,58
410,521	0,58
410,979	0,58
411,436	0,58
411,894	0,58
412,351	0,58
412,809	0,58
413,266	0,58
413,724	0,58
414,181	0,58
414,638	0,58
415,096	0,58
415,553	0,58
416,01	0,58
416,467	0,58
416,925	0,58
417,382	0,58
417,839	0,58
418,296	0,58
418,753	0,58
419,21	0,58
419,667	0,58
420,124	0,58
420,581	0,58
421,038	0,58
421,495	0,58
421,952	0,58
422,409	0,58
422,866	0,58
423,322	0,58
423,779	0,58
424,236	0,58
424,693	0,58
425,149	0,58
425,606	0,58
426,063	0,58
426,519	0,58
426,976	0,58
427,433	0,58
427,889	0,58
428,346	0,58
428,802	0,58
429,258	0,58
429,715	0,58
430,171	0,58
430,628	0,58
431,084	0,58
431,54	0,58
431,997	0,58
432,453	0,58
432,909	0,58
433,365	0,58
433,821	0,57
434,277	0,57
434,734	0,57
435,19	0,57
435,646	0,57
436,102	0,57
436,558	0,57
437,014	0,57
437,47	0,57
437,925	0,57
438,381	0,57
438,837	0,58
439,293	0,58
439,749	0,58
440,205	0,58
440,66	0,58
441,116	0,58
441,572	0,58
442,027	0,58
442,483	0,58
442,939	0,58
443,394	0,58
443,85	0,58
444,305	0,58
444,761	0,58
445,216	0,58
445,672	0,58
446,127	0,58
446,582	0,58
447,038	0,58
447,493	0,58
447,948	0,58
448,403	0,58
448,859	0,58
449,314	0,58
449,769	0,58
450,224	0,58
450,679	0,58
451,134	0,58
451,589	0,58
452,044	0,58
452,499	0,58
452,954	0,58
453,409	0,58
453,864	0,58
454,319	0,58
454,774	0,58
455,229	0,58
455,684	0,58
456,138	0,58
456,593	0,58
457,048	0,58
457,503	0,58
457,957	0,58
458,412	0,58
458,866	0,58
459,321	0,58
459,776	0,58
460,23	0,58
460,685	0,58
461,139	0,58
461,593	0,58
462,048	0,59
462,502	0,59
462,957	0,59
463,411	0,59
463,865	0,59
464,319	0,59
464,774	0,59
465,228	0,59
465,682	0,59
466,136	0,59
466,59	0,59
467,044	0,59
467,499	0,59
467,953	0,59
468,407	0,59
468,861	0,59
469,315	0,59
469,768	0,6
470,222	0,6
470,676	0,6
471,13	0,6
471,584	0,6
472,038	0,6
472,491	0,6
472,945	0,6
473,399	0,6
473,852	0,6
474,306	0,6
474,76	0,6
475,213	0,6
475,667	0,6
476,12	0,61
476,574	0,61
477,027	0,61
477,481	0,61
477,934	0,61
478,388	0,61
478,841	0,61
479,294	0,61
479,748	0,62
480,201	0,62
480,654	0,62
481,107	0,62
481,561	0,62
482,014	0,62
482,467	0,62
482,92	0,62
483,373	0,63
483,826	0,63
484,279	0,63
484,732	0,63
485,185	0,63
485,638	0,63
486,091	0,63
486,544	0,64
486,997	0,64
487,449	0,64
487,902	0,64
488,355	0,64
488,808	0,65
489,26	0,65
489,713	0,65
490,166	0,65
490,618	0,65
491,071	0,66
491,523	0,66
491,976	0,66
492,429	0,66
492,881	0,66
493,333	0,67
493,786	0,67
494,238	0,67
494,691	0,67
495,143	0,68
495,595	0,68
496,048	0,68
496,5	0,69
496,952	0,69
497,404	0,69
497,856	0,69
498,309	0,7
498,761	0,7
499,213	0,7
499,665	0,7
500,117	0,71
500,569	0,71
501,021	0,71
501,473	0,72
501,925	0,72
502,377	0,72
502,828	0,73
503,28	0,73
503,732	0,73
504,184	0,74
504,636	0,74
505,087	0,74
505,539	0,75
505,991	0,75
506,442	0,75
506,894	0,76
507,345	0,76
507,797	0,76
508,249	0,76
508,7	0,77
509,151	0,77
509,603	0,77
510,054	0,78
510,506	0,78
510,957	0,78
511,408	0,79
511,86	0,79
512,311	0,79
512,762	0,8
513,213	0,8
513,665	0,8
514,116	0,8
514,567	0,81
515,018	0,81
515,469	0,81
515,92	0,82
516,371	0,82
516,822	0,82
517,273	0,82
517,724	0,83
518,175	0,83
518,626	0,83
519,076	0,83
519,527	0,83
519,978	0,83
520,429	0,84
520,88	0,84
521,33	0,84
521,781	0,84
522,232	0,84
522,682	0,84
523,133	0,85
523,583	0,85
524,034	0,85
524,484	0,85
524,935	0,85
525,385	0,85
525,836	0,85
526,286	0,85
526,736	0,85
527,187	0,85
527,637	0,85
528,087	0,85
528,538	0,85
528,988	0,85
529,438	0,85
529,888	0,85
530,338	0,85
530,788	0,85
531,238	0,85
531,688	0,85
532,139	0,84
532,589	0,84
533,038	0,84
533,488	0,84
533,938	0,84
534,388	0,84
534,838	0,83
535,288	0,83
535,738	0,83
536,187	0,83
536,637	0,83
537,087	0,82
537,537	0,82
537,986	0,82
538,436	0,81
538,885	0,81
539,335	0,81
539,785	0,8
540,234	0,8
540,684	0,8
541,133	0,79
541,582	0,79
542,032	0,79
542,481	0,78
542,931	0,78
543,38	0,77
543,829	0,77
544,278	0,77
544,728	0,76
545,177	0,76
545,626	0,76
546,075	0,75
546,524	0,75
546,973	0,75
547,422	0,74
547,871	0,74
548,32	0,74
548,769	0,74
549,218	0,74
549,667	0,73
550,116	0,73
550,565	0,73
551,014	0,72
551,463	0,72
551,911	0,72
552,36	0,71
552,809	0,71
553,258	0,71
553,706	0,7
554,155	0,7
554,603	0,7
555,052	0,7
555,501	0,69
555,949	0,69
556,398	0,69
556,846	0,68
557,294	0,68
557,743	0,68
558,191	0,67
558,64	0,67
559,088	0,66
559,536	0,66
559,985	0,66
560,433	0,65
560,881	0,65
561,329	0,65
561,777	0,64
562,225	0,64
562,674	0,64
563,122	0,63
563,57	0,63
564,018	0,63
564,466	0,63
564,914	0,62
565,362	0,62
565,809	0,62
566,257	0,61
566,705	0,61
567,153	0,61
567,601	0,6
568,048	0,6
568,496	0,6
568,944	0,6
569,392	0,59
569,839	0,59
570,287	0,59
570,734	0,59
571,182	0,58
571,63	0,58
572,077	0,58
572,525	0,57
572,972	0,57
573,419	0,57
573,867	0,57
574,314	0,56
574,761	0,56
575,209	0,56
575,656	0,56
576,103	0,55
576,551	0,55
576,998	0,55
577,445	0,55
577,892	0,55
578,339	0,54
578,786	0,54
579,233	0,54
579,68	0,54
580,127	0,53
580,574	0,53
581,021	0,53
581,468	0,53
581,915	0,53
582,362	0,52
582,809	0,52
583,255	0,52
583,702	0,52
584,149	0,52
584,596	0,52
585,042	0,51
585,489	0,51
585,936	0,51
586,382	0,51
586,829	0,51
587,275	0,51
587,722	0,5
588,168	0,5
588,615	0,5
589,061	0,5
589,508	0,5
589,954	0,5
590,4	0,5
590,847	0,49
591,293	0,49
591,739	0,49
592,185	0,49
592,632	0,49
593,078	0,49
593,524	0,49
593,97	0,49
594,416	0,49
594,862	0,48
595,308	0,48
595,754	0,48
596,2	0,48
596,646	0,48
597,092	0,48
597,538	0,48
597,984	0,48
598,43	0,48
598,876	0,47
599,321	0,47
599,767	0,47
600,213	0,47
600,659	0,47
601,104	0,47
601,55	0,47
601,995	0,47
602,441	0,47
602,887	0,46
603,332	0,46
603,778	0,46
604,223	0,46
604,668	0,46
605,114	0,46
605,559	0,46
606,005	0,46
606,45	0,46
606,895	0,46
607,341	0,46
607,786	0,46
608,231	0,45
608,676	0,45
609,121	0,45
609,566	0,44
610,012	0,44
610,457	0,44
610,902	0,43
611,347	0,43
611,792	0,43
612,237	0,43
612,682	0,43
613,127	0,43
613,571	0,43
614,016	0,43
614,461	0,43
614,906	0,43
615,351	0,43
615,795	0,43
616,24	0,43
616,685	0,43
617,129	0,43
617,574	0,44
618,019	0,44
618,463	0,44
618,908	0,44
619,352	0,43
619,797	0,43
620,241	0,43
620,686	0,43
621,13	0,43
621,574	0,43
622,019	0,43
622,463	0,43
622,907	0,43
623,352	0,43
623,796	0,43
624,24	0,43
624,684	0,43
625,128	0,43
625,572	0,43
626,016	0,43
626,461	0,43
626,905	0,43
627,349	0,43
627,793	0,43
628,236	0,43
628,68	0,42
629,124	0,42
629,568	0,42
630,012	0,42
630,456	0,42
630,9	0,42
631,343	0,42
631,787	0,42
632,231	0,42
632,674	0,42
633,118	0,42
633,562	0,42
634,005	0,42
634,449	0,42
634,892	0,42
635,336	0,42
635,779	0,42
636,223	0,42
636,666	0,42
637,109	0,42
637,553	0,42
637,996	0,42
638,439	0,42
638,883	0,42
639,326	0,42
639,769	0,42
640,212	0,42
640,655	0,41
641,099	0,41
641,542	0,41
641,985	0,41
642,428	0,41
642,871	0,41
643,314	0,41
643,757	0,41
644,2	0,41
644,643	0,41
645,085	0,41
645,528	0,41
645,971	0,41
646,414	0,41
646,857	0,41
647,299	0,41
647,742	0,41
648,185	0,41
648,627	0,41
649,07	0,41
649,513	0,41
649,955	0,41
650,398	0,41
650,84	0,41
651,283	0,41
651,725	0,41
652,168	0,41
652,61	0,41
653,052	0,41
653,495	0,41
653,937	0,32
654,379	0,27
654,821	0,27
655,264	0,27
655,706	0,27
656,148	0,27
656,59	0,27
657,032	0,27
657,474	0,27
657,916	0,27
658,358	0,27
658,8	0,32
659,242	0,4
659,684	0,41
660,126	0,4
660,568	0,4
661,01	0,4
661,452	0,4
661,894	0,4
662,335	0,4
662,777	0,4
663,219	0,4
663,661	0,4
664,102	0,4
664,544	0,4
664,985	0,4
665,427	0,4
665,869	0,4
666,31	0,4
666,752	0,4
667,193	0,4
667,634	0,4
668,076	0,4
668,517	0,4
668,959	0,4
669,4	0,4
669,841	0,4
670,282	0,4
670,724	0,4
671,165	0,4
671,606	0,4
672,047	0,4
672,488	0,4
672,929	0,4
673,37	0,4
673,811	0,4
674,252	0,4
674,693	0,4
675,134	0,39
675,575	0,39
676,016	0,39
676,457	0,39
676,898	0,39
677,339	0,39
677,78	0,39
678,22	0,39
678,661	0,39
679,102	0,39
679,542	0,39
679,983	0,39
680,424	0,39
680,864	0,39
681,305	0,39
681,745	0,39
682,186	0,39
682,626	0,39
683,067	0,39
683,507	0,39
683,948	0,39
684,388	0,39
684,828	0,39
685,269	0,39
685,709	0,39
686,149	0,39
686,589	0,39
687,029	0,39
687,47	0,39
687,91	0,39
688,35	0,38
688,79	0,38
689,23	0,38
689,67	0,38
690,11	0,38
690,55	0,38
690,99	0,38
691,43	0,38
691,87	0,38
692,31	0,38
692,749	0,38
693,189	0,38
693,629	0,38
694,069	0,38
694,508	0,38
694,948	0,38
695,388	0,38
695,827	0,38
696,267	0,38
696,706	0,38
697,146	0,38
697,586	0,38
698,025	0,38
698,464	0,38
698,904	0,39
699,343	0,39
699,783	0,39
700,222	0,39
700,661	0,39
701,101	0,39
701,54	0,39
701,979	0,39
702,418	0,39
702,857	0,39
703,297	0,39
703,736	0,39
704,175	0,39
704,614	0,39
705,053	0,39
705,492	0,38
705,931	0,38
706,37	0,38
706,809	0,38
707,248	0,38
707,687	0,38
708,125	0,38
708,564	0,38
709,003	0,38
709,442	0,38
709,88	0,38
710,319	0,38
710,758	0,38
711,196	0,38
711,635	0,38
712,074	0,37
712,512	0,37
712,951	0,37
713,389	0,37
713,828	0,37
714,266	0,37
714,705	0,37
715,143	0,37
715,581	0,37
716,02	0,37
716,458	0,37
716,896	0,37
717,334	0,37
717,773	0,37
718,211	0,37
718,649	0,37
719,087	0,37
719,525	0,37
719,963	0,37
720,401	0,37
720,839	0,37
721,277	0,37
721,715	0,37
722,153	0,37
722,591	0,37
723,029	0,37
723,467	0,37
723,905	0,37
724,342	0,37
724,78	0,37
725,218	0,37
725,656	0,37
726,093	0,37
726,531	0,37
726,969	0,37
727,406	0,37
727,844	0,37
728,281	0,37
728,719	0,37
729,156	0,37
729,594	0,37
730,031	0,37
730,469	0,37
730,906	0,37
731,343	0,37
731,781	0,37
732,218	0,37
732,655	0,37
733,092	0,37
733,53	0,36
733,967	0,36
734,404	0,36
734,841	0,36
735,278	0,36
735,715	0,36
736,152	0,36
736,589	0,36
737,026	0,36
737,463	0,36
737,9	0,36
738,337	0,36
738,774	0,36
739,211	0,36
739,647	0,36
740,084	0,36
740,521	0,36
740,958	0,36
741,394	0,36
741,831	0,36
742,268	0,36
742,704	0,35
743,141	0,35
743,577	0,35
744,014	0,35
744,45	0,35
744,887	0,35
745,323	0,35
745,76	0,35
746,196	0,35
746,632	0,35
747,069	0,34
747,505	0,34
747,941	0,34
748,378	0,35
748,814	0,35
749,25	0,35
749,686	0,35
750,122	0,35
750,558	0,35
750,994	0,35
751,43	0,36
751,866	0,36
752,302	0,36
752,738	0,36
753,174	0,36
753,61	0,36
754,046	0,36
754,482	0,36
754,918	0,36
755,354	0,36
755,789	0,36
756,225	0,36
756,661	0,36
757,096	0,36
757,532	0,35
757,968	0,35
758,403	0,35
758,839	0,35
759,274	0,35
759,71	0,34
760,145	0,34
760,581	0,33
761,016	0,33
761,452	0,33
761,887	0,32
762,322	0,32
762,758	0,31
763,193	0,31
763,628	0,3
764,063	0,3
764,499	0,29
764,934	0,29
765,369	0,28
765,804	0,27
766,239	0,27
766,674	0,26
767,109	0,25
767,544	0,25
767,979	0,24
768,414	0,23
768,849	0,22
769,284	0,22
769,719	0,21
770,154	0,2
770,588	0,2
771,023	0,19
771,458	0,18
771,893	0,17
772,327	0,16
772,762	0,15
773,197	0,14
773,631	0,14
774,066	0,13
774,5	0,12
774,935	0,11
775,369	0,1
775,804	0,09
776,238	0,09
776,673	0,08
777,107	0,07
777,541	0,06
777,976	0,05
778,41	0,04
778,844	0,03
779,279	0,03
779,713	0,02
780,147	0,01
780,581	-0
781,015	-0,01
781,449	-0,02
781,883	-0,02
782,317	-0,04
782,751	-0,04
783,185	-0,06
783,619	-0,06
784,053	-0,07
784,487	-0,07
784,921	-0,08
785,355	-0,09
785,789	-0,09
786,223	-0,1
786,656	-0,11
787,09	-0,12
787,524	-0,13
787,957	-0,14
788,391	-0,16
788,825	-0,18
789,258	-0,19
789,692	-0,21
790,125	-0,22
790,559	-0,24
790,992	-0,26
791,426	-0,28
791,859	-0,29
792,293	-0,32
792,726	-0,34
793,159	-0,36
793,593	-0,38
794,026	-0,4
794,459	-0,43
794,892	-0,46
795,326	-0,48
795,759	-0,52
796,192	-0,56
796,625	-0,61
797,058	-0,64
797,491	-0,68
797,924	-0,72
798,357	-0,77
798,79	-0,81
799,223	-0,85
799,656	-0,91
800,089	-0,96
800,522	-1
800,955	-1,04
801,387	-1,1
801,82	-1,15
802,253	-1,22
802,686	-1,29
803,118	-1,35
803,551	-1,4
803,984	-1,45
804,416	-1,48
804,849	-1,53
805,281	-1,64
805,714	-1,96
806,146	-2,42
806,579	-2,69
807,011	-2,86
807,444	-2,95
807,876	-3,05
808,308	-3,08
808,741	-3,11
809,173	-3,16
809,605	-3,18
810,037	-3,26
810,47	-3,18
810,902	-2,99
811,334	-2,85
811,766	-2,69
812,198	-2,46
812,63	-2,03
813,062	-1,81
813,494	-1,71
813,926	-1,62
814,358	-1,57
814,79	-1,48
815,222	-1,43
815,654	-1,38
816,086	-1,31
816,518	-1,25
816,949	-1,2
817,381	-1,16
817,813	-1,14
818,245	-1,1
818,676	-1,06
819,108	-1,02
819,54	-1,01
819,971	-0,98
820,403	-0,93
820,834	-0,92
821,266	-0,87
821,697	-0,85
822,129	-0,84
822,56	-0,81
822,991	-0,79
823,423	-0,76
823,854	-0,75
824,286	-0,72
824,717	-0,71
825,148	-0,69
825,579	-0,68
826,01	-0,66
826,442	-0,65
826,873	-0,63
827,304	-0,59
827,735	-0,58
828,166	-0,58
828,597	-0,58
829,028	-0,57
829,459	-0,58
829,89	-0,59
830,321	-0,54
830,752	-0,55
831,183	-0,55
831,613	-0,54
832,044	-0,54
832,475	-0,53
832,906	-0,54
833,336	-0,55
833,767	-0,55
834,198	-0,54
834,628	-0,52
835,059	-0,55
835,49	-0,56
835,92	-0,53
836,351	-0,53
836,781	-0,54
837,212	-0,55
837,642	-0,55
838,072	-0,53
838,503	-0,53
838,933	-0,51
839,364	-0,52
839,794	-0,5
840,224	-0,5
840,654	-0,54
841,085	-0,55
841,515	-0,52
841,945	-0,53
842,375	-0,48
842,805	-0,47
843,235	-0,45
843,665	-0,47
844,095	-0,45
844,525	-0,47
844,955	-0,47
845,385	-0,45
845,815	-0,43
846,245	-0,45
846,675	-0,46
847,105	-0,48
847,534	-0,48
847,964	-0,46
848,394	-0,45
848,824	-0,48
849,253	-0,47
849,683	-0,48
850,112	-0,49
850,542	-0,52
850,972	-0,51
851,401	-0,5
851,831	-0,48
852,26	-0,49
852,69	-0,53
853,119	-0,52
853,548	-0,53
853,978	-0,54
854,407	-0,52
854,836	-0,51
855,266	-0,5
855,695	-0,52
856,124	-0,53
856,553	-0,54
856,983	-0,55
857,412	-0,55
857,841	-0,56
858,27	-0,56
858,699	-0,56
859,128	-0,59
859,557	-0,6
859,986	-0,62
860,415	-0,59
860,844	-0,56
861,273	-0,56
861,702	-0,57
862,13	-0,54
862,559	-0,56
862,988	-0,54
863,417	-0,53
863,845	-0,52
864,274	-0,52
864,703	-0,52
865,131	-0,52
865,56	-0,53
865,989	-0,55
866,417	-0,53
866,846	-0,53
867,274	-0,54
867,703	-0,55
868,131	-0,57
868,559	-0,57
868,988	-0,59
869,416	-0,58
869,844	-0,58
870,273	-0,61
870,701	-0,59
871,129	-0,63
871,557	-0,65
871,986	-0,65
872,414	-0,66
872,842	-0,63
873,27	-0,61
873,698	-0,57
874,126	-0,62
874,554	-0,6
874,982	-0,6
875,41	-0,64
875,838	-0,59
876,266	-0,57
876,694	-0,57
877,122	-0,57
877,549	-0,63
877,977	-0,59
878,405	-0,62
878,833	-0,59
879,26	-0,57
879,688	-0,56
880,116	-0,54
880,543	-0,52
880,971	-0,52
881,399	-0,54
881,826	-0,54
882,254	-0,51
882,681	-0,56
883,109	-0,52
883,536	-0,53
883,963	-0,54
884,391	-0,53
884,818	-0,51
885,245	-0,54
885,673	-0,55
886,1	-0,52
886,527	-0,52
886,954	-0,48
887,381	-0,5
887,809	-0,52
888,236	-0,53
888,663	-0,54
889,09	-0,59
889,517	-0,61
889,944	-0,61
890,371	-0,6
890,798	-0,61
891,225	-0,62
891,652	-0,65
892,078	-0,62
892,505	-0,65
892,932	-0,61
893,359	-0,62
893,786	-0,6
894,212	-0,57
894,639	-0,59
895,066	-0,61
895,492	-0,56
895,919	-0,56
896,346	-0,56
896,772	-0,56
897,199	-0,53
897,625	-0,55
898,052	-0,52
898,478	-0,51
898,904	-0,53
899,331	-0,52
899,757	-0,54
900,183	-0,56
900,61	-0,53
901,036	-0,54
901,462	-0,53
901,888	-0,53
902,315	-0,51
902,741	-0,56
903,167	-0,55
903,593	-0,57
904,019	-0,56
904,445	-0,53
904,871	-0,56
905,297	-0,58
905,723	-0,58
906,149	-0,58
906,575	-0,58
907,001	-0,58
907,427	-0,55
907,852	-0,54
908,278	-0,54
908,704	-0,52
909,13	-0,52
909,555	-0,5
909,981	-0,5
910,407	-0,51
910,832	-0,51
911,258	-0,52
911,684	-0,52
912,109	-0,52
912,535	-0,53
912,96	-0,49
913,386	-0,54
913,811	-0,53
914,236	-0,55
914,662	-0,53
915,087	-0,56
915,512	-0,55
915,938	-0,56
916,363	-0,56
916,788	-0,58
917,213	-0,56
917,639	-0,61
918,064	-0,57
918,489	-0,58
918,914	-0,58
919,339	-0,59
919,764	-0,57
920,189	-0,57
920,614	-0,6
921,039	-0,6
921,464	-0,55
921,889	-0,58
922,314	-0,59
922,738	-0,62
923,163	-0,63
923,588	-0,62
924,013	-0,62
924,437	-0,6
924,862	-0,61
925,287	-0,56
925,711	-0,57
926,136	-0,59
926,561	-0,58
926,985	-0,57
927,41	-0,54
927,834	-0,51
928,259	-0,48
928,683	-0,46
929,108	-0,45
929,532	-0,46
929,956	-0,46
930,381	-0,45
930,805	-0,45
931,229	-0,45
931,653	-0,42
932,078	-0,42
932,502	-0,44
932,926	-0,45
933,35	-0,45
933,774	-0,43
934,198	-0,4
934,622	-0,39
935,046	-0,39
935,47	-0,4
935,894	-0,41
936,318	-0,41
936,742	-0,41
937,166	-0,42
937,59	-0,42
938,014	-0,45
938,437	-0,46
938,861	-0,49
939,285	-0,5
939,709	-0,5
940,132	-0,48
940,556	-0,49
940,98	-0,48
941,403	-0,47
941,827	-0,47
942,25	-0,49
942,674	-0,47
943,097	-0,47
943,521	-0,47
943,944	-0,47
944,368	-0,46
944,791	-0,46
945,214	-0,48
945,638	-0,48
946,061	-0,51
946,484	-0,52
946,907	-0,5
947,331	-0,51
947,754	-0,54
948,177	-0,51
948,6	-0,51
949,023	-0,51
949,446	-0,51
949,869	-0,48
950,292	-0,48
950,715	-0,45
951,138	-0,43
951,561	-0,41
951,984	-0,41
952,407	-0,39
952,83	-0,38
953,252	-0,34
953,675	-0,33
954,098	-0,34
954,521	-0,33
954,943	-0,33
955,366	-0,34
955,789	-0,32
956,211	-0,34
956,634	-0,35
957,056	-0,33
957,479	-0,34
957,902	-0,36
958,324	-0,36
958,746	-0,34
959,169	-0,35
959,591	-0,36
960,014	-0,36
960,436	-0,36
960,858	-0,36
961,281	-0,35
961,703	-0,36
962,125	-0,36
962,547	-0,35
962,969	-0,36
963,391	-0,37
963,814	-0,39
964,236	-0,37
964,658	-0,35
965,08	-0,36
965,502	-0,35
965,924	-0,33
966,346	-0,34
966,768	-0,33
967,189	-0,35
967,611	-0,33
968,033	-0,32
968,455	-0,3
968,877	-0,31
969,298	-0,32
969,72	-0,32
970,142	-0,31
970,563	-0,31
970,985	-0,3
971,407	-0,29
971,828	-0,27
972,25	-0,27
972,671	-0,26
973,093	-0,26
973,514	-0,24
973,936	-0,23
974,357	-0,22
974,778	-0,22
975,2	-0,22
975,621	-0,21
976,042	-0,19
976,464	-0,19
976,885	-0,17
977,306	-0,17
977,727	-0,17
978,148	-0,16
978,57	-0,15
978,991	-0,13
979,412	-0,11
979,833	-0,1
980,254	-0,1
980,675	-0,11
981,096	-0,1
981,517	-0,08
981,937	-0,08
982,358	-0,06
982,779	-0,04
983,2	-0,04
983,621	-0,04
984,042	-0,02
984,462	-0,01
984,883	0
985,304	0,02
985,724	0,03
986,145	0,04
986,565	0,06
986,986	0,07
987,407	0,08
987,827	0,09
988,248	0,11
988,668	0,12
989,088	0,13
989,509	0,14
989,929	0,14
990,35	0,15
990,77	0,16
991,19	0,16
991,61	0,17
992,031	0,18
992,451	0,19
992,871	0,19
993,291	0,2
993,711	0,2
994,131	0,21
994,551	0,22
994,971	0,22
995,391	0,23
995,811	0,24
996,231	0,24
996,651	0,24
997,071	0,25
997,491	0,26
997,911	0,26
998,331	0,27
998,75	0,28
999,17	0,28
999,59	0,28
1000,009	0,29
1000,429	0,29
1000,849	0,3
1001,268	0,3
1001,688	0,3
1002,107	0,31
1002,527	0,31
1002,946	0,31
1003,366	0,31
1003,785	0,32
1004,205	0,32
1004,624	0,32
1005,044	0,32
1005,463	0,33
1005,882	0,33
1006,301	0,33
1006,721	0,33
1007,14	0,33
1007,559	0,33
1007,978	0,33
1008,397	0,33
1008,816	0,33
1009,235	0,33
1009,655	0,33
1010,074	0,33
1010,492	0,33
1010,911	0,33
1011,33	0,33
1011,749	0,33
1012,168	0,33
1012,587	0,33
1013,006	0,32
1013,425	0,32
1013,843	0,32
1014,262	0,32
1014,681	0,32
1015,099	0,32
1015,518	0,32
1015,937	0,32
1016,355	0,32
1016,774	0,32
1017,192	0,32
1017,611	0,32
1018,029	0,32
1018,448	0,32
1018,866	0,32
1019,285	0,32
1019,703	0,32
1020,121	0,32
1020,54	0,32
1020,958	0,32
1021,376	0,32
1021,794	0,32
1022,213	0,32
1022,631	0,32
1023,049	0,32
1023,467	0,32
1023,885	0,32
1024,303	0,32
1024,721	0,32
1025,139	0,32
1025,557	0,32
1025,975	0,32
1026,393	0,32
1026,811	0,31
1027,229	0,31
1027,647	0,31
1028,065	0,31
1028,482	0,31
1028,9	0,31
1029,318	0,31
1029,735	0,31
1030,153	0,31
1030,571	0,31
1030,988	0,31
1031,406	0,31
1031,823	0,31
1032,241	0,31
1032,659	0,31
1033,076	0,31
1033,493	0,31
1033,911	0,31
1034,328	0,31
1034,746	0,31
1035,163	0,31
1035,58	0,31
1035,997	0,31
1036,415	0,31
1036,832	0,31
1037,249	0,31
1037,666	0,31
1038,083	0,31
1038,501	0,31
1038,918	0,31
1039,335	0,31
1039,752	0,31
1040,169	0,31
1040,586	0,31
1041,003	0,31
1041,419	0,31
1041,836	0,31
1042,253	0,31
1042,67	0,31
1043,087	0,31
1043,504	0,31
1043,92	0,31
1044,337	0,31
1044,754	0,31
1045,17	0,31
1045,587	0,31
1046,004	0,31
1046,42	0,31
1046,837	0,31
1047,253	0,3
1047,67	0,31
1048,086	0,31
1048,503	0,31
1048,919	0,31
1049,335	0,31
1049,752	0,31
1050,168	0,31
1050,584	0,31
1051,001	0,31
1051,417	0,31
1051,833	0,31
1052,249	0,31
1052,665	0,31
1053,081	0,31
1053,497	0,31
1053,914	0,31
1054,33	0,31
1054,746	0,31
1055,162	0,31
1055,578	0,31
1055,993	0,32
1056,409	0,32
1056,825	0,32
1057,241	0,32
1057,657	0,32
1058,073	0,32
1058,488	0,32
1058,904	0,32
1059,32	0,32
1059,736	0,31
1060,151	0,31
1060,567	0,31
1060,982	0,32
1061,398	0,31
1061,813	0,31
1062,229	0,31
1062,644	0,31
1063,06	0,31
1063,475	0,31
1063,891	0,31
1064,306	0,31
1064,721	0,31
1065,137	0,31
1065,552	0,31
1065,967	0,31
1066,382	0,31
1066,798	0,31
1067,213	0,31
1067,628	0,31
1068,043	0,31
1068,458	0,31
1068,873	0,31
1069,288	0,31
1069,703	0,31
1070,118	0,31
1070,533	0,32
1070,948	0,32
1071,363	0,32
1071,778	0,32
1072,193	0,32
1072,607	0,32
1073,022	0,32
1073,437	0,32
1073,852	0,32
1074,266	0,32
1074,681	0,32
1075,096	0,32
1075,51	0,32
1075,925	0,32
1076,339	0,32
1076,754	0,32
1077,168	0,31
1077,583	0,31
1077,997	0,31
1078,412	0,31
1078,826	0,31
1079,24	0,31
1079,655	0,31
1080,069	0,31
1080,483	0,31
1080,897	0,31
1081,312	0,31
1081,726	0,31
1082,14	0,31
1082,554	0,31
1082,968	0,3
1083,382	0,3
1083,796	0,3
1084,21	0,3
1084,624	0,3
1085,038	0,3
1085,452	0,3
1085,866	0,3
1086,28	0,3
1086,694	0,3
1087,108	0,3
1087,521	0,29
1087,935	0,29
1088,349	0,29
1088,763	0,29
1089,176	0,29
1089,59	0,28
1090,004	0,28
1090,417	0,28
1090,831	0,28
1091,244	0,27
1091,658	0,27
1092,071	0,27
1092,485	0,27
1092,898	0,27
1093,312	0,27
1093,725	0,26
1094,138	0,26
1094,552	0,26
1094,965	0,26
1095,378	0,26
1095,791	0,25
1096,205	0,25
1096,618	0,25
1097,031	0,25
1097,444	0,25
1097,857	0,24
1098,27	0,24
1098,683	0,24
1099,096	0,24
1099,509	0,24
1099,922	0,23
1100,335	0,23
1100,748	0,23
1101,161	0,22
1101,574	0,22
1101,986	0,22
1102,399	0,21
1102,812	0,21
1103,225	0,21
1103,637	0,2
1104,05	0,2
1104,463	0,2
1104,875	0,2
1105,288	0,19
1105,7	0,19
1106,113	0,19
1106,525	0,19
1106,938	0,19
1107,35	0,18
1107,763	0,18
1108,175	0,17
1108,588	0,17
1109	0,17
1109,412	0,16
1109,824	0,16
1110,237	0,16
1110,649	0,15
1111,061	0,14
