Data from 18C-808nm-8A-cont_Absorbance__719__02148.txt Node

Date: Mon Jul 17 17:46:33 CEST 2023
User: Laser008
Spectrometer: MAYP115816
Trigger mode: 0
Integration Time (sec): 2,500000E-1
Scans to average: 10
Electric dark correction enabled: true
Nonlinearity correction enabled: true
Boxcar width: 5
XAxis mode: Wavelengths
Number of Pixels in Spectrum: 2068
>>>>>Begin Spectral Data<<<<<
198,914	-0,66
199,384	-0,43
199,855	-0,31
200,325	-0,23
200,796	-0,19
201,266	-0,15
201,737	-0,13
202,207	-0,13
202,677	-0,12
203,147	-0,1
203,618	-0,07
204,088	-0,05
204,558	-0,04
205,028	-0,03
205,498	-0,03
205,968	-0,03
206,439	-0,04
206,909	-0,03
207,379	-0,03
207,849	-0,04
208,319	-0,04
208,789	-0,05
209,258	-0,05
209,728	-0,06
210,198	-0,07
210,668	-0,07
211,138	-0,07
211,608	-0,07
212,077	-0,07
212,547	-0,06
213,017	-0,06
213,486	-0,07
213,956	-0,07
214,426	-0,09
214,895	-0,09
215,365	-0,09
215,834	-0,11
216,304	-0,12
216,773	-0,11
217,243	-0,13
217,712	-0,15
218,181	-0,14
218,651	-0,14
219,12	-0,14
219,589	-0,13
220,058	-0,12
220,528	-0,14
220,997	-0,13
221,466	-0,14
221,935	-0,15
222,404	-0,15
222,873	-0,13
223,342	-0,13
223,812	-0,13
224,281	-0,13
224,749	-0,13
225,218	-0,15
225,687	-0,15
226,156	-0,14
226,625	-0,12
227,094	-0,12
227,563	-0,12
228,031	-0,15
228,5	-0,15
228,969	-0,15
229,438	-0,15
229,906	-0,14
230,375	-0,12
230,844	-0,12
231,312	-0,12
231,781	-0,13
232,249	-0,12
232,718	-0,12
233,186	-0,09
233,655	-0,09
234,123	-0,09
234,591	-0,09
235,06	-0,1
235,528	-0,1
235,996	-0,09
236,465	-0,09
236,933	-0,08
237,401	-0,08
237,869	-0,08
238,337	-0,09
238,805	-0,08
239,274	-0,07
239,742	-0,07
240,21	-0,07
240,678	-0,06
241,146	-0,06
241,614	-0,06
242,081	-0,07
242,549	-0,06
243,017	-0,06
243,485	-0,07
243,953	-0,07
244,421	-0,06
244,888	-0,06
245,356	-0,06
245,824	-0,06
246,291	-0,07
246,759	-0,06
247,227	-0,07
247,694	-0,06
248,162	-0,06
248,629	-0,04
249,097	-0,05
249,564	-0,06
250,032	-0,07
250,499	-0,06
250,967	-0,06
251,434	-0,07
251,901	-0,07
252,369	-0,07
252,836	-0,08
253,303	-0,09
253,77	-0,12
254,237	-0,12
254,705	-0,11
255,172	-0,1
255,639	-0,11
256,106	-0,12
256,573	-0,11
257,04	-0,11
257,507	-0,11
257,974	-0,12
258,441	-0,1
258,908	-0,1
259,375	-0,11
259,841	-0,11
260,308	-0,13
260,775	-0,13
261,242	-0,13
261,709	-0,14
262,175	-0,15
262,642	-0,14
263,109	-0,14
263,575	-0,15
264,042	-0,14
264,508	-0,13
264,975	-0,16
265,441	-0,16
265,908	-0,16
266,374	-0,14
266,841	-0,15
267,307	-0,15
267,773	-0,15
268,24	-0,15
268,706	-0,15
269,172	-0,15
269,639	-0,17
270,105	-0,15
270,571	-0,15
271,037	-0,14
271,503	-0,16
271,969	-0,15
272,435	-0,15
272,902	-0,17
273,368	-0,18
273,834	-0,18
274,3	-0,19
274,765	-0,18
275,231	-0,19
275,697	-0,17
276,163	-0,18
276,629	-0,17
277,095	-0,17
277,56	-0,17
278,026	-0,17
278,492	-0,16
278,958	-0,16
279,423	-0,16
279,889	-0,15
280,354	-0,15
280,82	-0,16
281,286	-0,18
281,751	-0,18
282,217	-0,17
282,682	-0,17
283,147	-0,17
283,613	-0,18
284,078	-0,18
284,544	-0,19
285,009	-0,19
285,474	-0,19
285,939	-0,21
286,405	-0,2
286,87	-0,19
287,335	-0,19
287,8	-0,18
288,265	-0,17
288,73	-0,18
289,195	-0,19
289,66	-0,19
290,125	-0,18
290,59	-0,18
291,055	-0,16
291,52	-0,16
291,985	-0,16
292,45	-0,18
292,915	-0,18
293,38	-0,19
293,844	-0,18
294,309	-0,17
294,774	-0,16
295,239	-0,17
295,703	-0,18
296,168	-0,17
296,632	-0,17
297,097	-0,16
297,562	-0,15
298,026	-0,15
298,491	-0,15
298,955	-0,15
299,419	-0,14
299,884	-0,13
300,348	-0,11
300,813	-0,11
301,277	-0,12
301,741	-0,11
302,205	-0,11
302,67	-0,1
303,134	-0,09
303,598	-0,09
304,062	-0,08
304,526	-0,07
304,99	-0,08
305,454	-0,08
305,919	-0,07
306,383	-0,07
306,847	-0,06
307,31	-0,07
307,774	-0,08
308,238	-0,08
308,702	-0,07
309,166	-0,1
309,63	-0,1
310,094	-0,08
310,557	-0,08
311,021	-0,08
311,485	-0,08
311,948	-0,08
312,412	-0,08
312,876	-0,07
313,339	-0,07
313,803	-0,08
314,266	-0,07
314,73	-0,07
315,193	-0,08
315,657	-0,06
316,12	-0,06
316,584	-0,05
317,047	-0,05
317,51	-0,04
317,973	-0,05
318,437	-0,04
318,9	-0,02
319,363	-0,02
319,826	-0,01
320,29	-0,01
320,753	-0,02
321,216	-0,02
321,679	-0,02
322,142	-0,01
322,605	-0,03
323,068	-0,02
323,531	-0,02
323,994	-0,02
324,457	-0,02
324,92	-0,01
325,382	0
325,845	0,01
326,308	0,02
326,771	0,02
327,233	0,03
327,696	0,04
328,159	0,04
328,622	0,05
329,084	0,05
329,547	0,05
330,009	0,06
330,472	0,07
330,934	0,07
331,397	0,07
331,859	0,08
332,322	0,07
332,784	0,09
333,246	0,1
333,709	0,1
334,171	0,11
334,633	0,12
335,096	0,11
335,558	0,11
336,02	0,11
336,482	0,11
336,944	0,12
337,406	0,13
337,868	0,13
338,331	0,13
338,793	0,14
339,255	0,14
339,717	0,14
340,178	0,16
340,64	0,16
341,102	0,17
341,564	0,18
342,026	0,19
342,488	0,2
342,949	0,22
343,411	0,25
343,873	0,28
344,335	0,32
344,796	0,35
345,258	0,41
345,719	0,46
346,181	0,51
346,643	0,56
347,104	0,61
347,566	0,65
348,027	0,68
348,488	0,71
348,95	0,74
349,411	0,77
349,873	0,8
350,334	0,82
350,795	0,84
351,256	0,86
351,718	0,87
352,179	0,88
352,64	0,88
353,101	0,89
353,562	0,89
354,023	0,89
354,484	0,89
354,945	0,9
355,406	0,9
355,867	0,91
356,328	0,91
356,789	0,92
357,25	0,92
357,711	0,93
358,172	0,93
358,633	0,93
359,093	0,93
359,554	0,94
360,015	0,94
360,476	0,94
360,936	0,94
361,397	0,94
361,858	0,94
362,318	0,94
362,779	0,94
363,239	0,94
363,7	0,94
364,16	0,94
364,621	0,94
365,081	0,94
365,541	0,94
366,002	0,94
366,462	0,94
366,922	0,94
367,383	0,94
367,843	0,94
368,303	0,94
368,763	0,94
369,223	0,94
369,684	0,94
370,144	0,94
370,604	0,94
371,064	0,94
371,524	0,94
371,984	0,94
372,444	0,94
372,904	0,94
373,363	0,94
373,823	0,94
374,283	0,94
374,743	0,94
375,203	0,94
375,663	0,94
376,122	0,94
376,582	0,94
377,042	0,94
377,501	0,94
377,961	0,94
378,42	0,94
378,88	0,94
379,34	0,94
379,799	0,94
380,259	0,94
380,718	0,94
381,177	0,94
381,637	0,94
382,096	0,93
382,555	0,93
383,015	0,93
383,474	0,93
383,933	0,93
384,393	0,93
384,852	0,93
385,311	0,93
385,77	0,93
386,229	0,93
386,688	0,93
387,147	0,93
387,606	0,93
388,065	0,93
388,524	0,93
388,983	0,93
389,442	0,93
389,901	0,93
390,36	0,93
390,819	0,93
391,277	0,93
391,736	0,93
392,195	0,93
392,654	0,93
393,112	0,93
393,571	0,93
394,03	0,93
394,488	0,93
394,947	0,93
395,405	0,93
395,864	0,93
396,322	0,93
396,781	0,93
397,239	0,93
397,698	0,93
398,156	0,93
398,614	0,93
399,073	0,93
399,531	0,93
399,989	0,92
400,447	0,92
400,905	0,92
401,364	0,92
401,822	0,92
402,28	0,92
402,738	0,92
403,196	0,92
403,654	0,92
404,112	0,92
404,57	0,92
405,028	0,92
405,486	0,92
405,944	0,92
406,402	0,92
406,859	0,92
407,317	0,92
407,775	0,92
408,233	0,92
408,691	0,92
409,148	0,92
409,606	0,92
410,064	0,92
410,521	0,92
410,979	0,92
411,436	0,92
411,894	0,92
412,351	0,92
412,809	0,92
413,266	0,92
413,724	0,92
414,181	0,92
414,638	0,92
415,096	0,92
415,553	0,92
416,01	0,92
416,467	0,91
416,925	0,91
417,382	0,91
417,839	0,91
418,296	0,91
418,753	0,91
419,21	0,91
419,667	0,91
420,124	0,91
420,581	0,91
421,038	0,91
421,495	0,91
421,952	0,91
422,409	0,91
422,866	0,91
423,322	0,91
423,779	0,91
424,236	0,91
424,693	0,91
425,149	0,91
425,606	0,92
426,063	0,91
426,519	0,91
426,976	0,91
427,433	0,91
427,889	0,91
428,346	0,91
428,802	0,91
429,258	0,91
429,715	0,91
430,171	0,91
430,628	0,91
431,084	0,91
431,54	0,91
431,997	0,91
432,453	0,91
432,909	0,91
433,365	0,91
433,821	0,91
434,277	0,91
434,734	0,91
435,19	0,91
435,646	0,91
436,102	0,91
436,558	0,91
437,014	0,91
437,47	0,91
437,925	0,91
438,381	0,91
438,837	0,91
439,293	0,91
439,749	0,91
440,205	0,91
440,66	0,91
441,116	0,91
441,572	0,91
442,027	0,91
442,483	0,91
442,939	0,91
443,394	0,91
443,85	0,91
444,305	0,91
444,761	0,91
445,216	0,91
445,672	0,92
446,127	0,92
446,582	0,92
447,038	0,92
447,493	0,92
447,948	0,92
448,403	0,92
448,859	0,92
449,314	0,92
449,769	0,92
450,224	0,92
450,679	0,92
451,134	0,92
451,589	0,92
452,044	0,92
452,499	0,92
452,954	0,92
453,409	0,92
453,864	0,92
454,319	0,92
454,774	0,92
455,229	0,92
455,684	0,92
456,138	0,92
456,593	0,92
457,048	0,92
457,503	0,92
457,957	0,92
458,412	0,92
458,866	0,92
459,321	0,92
459,776	0,93
460,23	0,93
460,685	0,93
461,139	0,93
461,593	0,93
462,048	0,93
462,502	0,93
462,957	0,93
463,411	0,94
463,865	0,94
464,319	0,94
464,774	0,94
465,228	0,94
465,682	0,94
466,136	0,94
466,59	0,94
467,044	0,94
467,499	0,94
467,953	0,94
468,407	0,94
468,861	0,95
469,315	0,95
469,768	0,95
470,222	0,95
470,676	0,95
471,13	0,95
471,584	0,95
472,038	0,95
472,491	0,95
472,945	0,95
473,399	0,96
473,852	0,96
474,306	0,96
474,76	0,96
475,213	0,96
475,667	0,96
476,12	0,96
476,574	0,96
477,027	0,97
477,481	0,97
477,934	0,97
478,388	0,97
478,841	0,97
479,294	0,98
479,748	0,98
480,201	0,98
480,654	0,98
481,107	0,99
481,561	0,99
482,014	0,99
482,467	0,99
482,92	0,99
483,373	0,99
483,826	1
484,279	1
484,732	1
485,185	1
485,638	1
486,091	1,01
486,544	1,01
486,997	1,01
487,449	1,02
487,902	1,02
488,355	1,02
488,808	1,02
489,26	1,03
489,713	1,03
490,166	1,03
490,618	1,04
491,071	1,04
491,523	1,04
491,976	1,04
492,429	1,05
492,881	1,05
493,333	1,06
493,786	1,06
494,238	1,06
494,691	1,07
495,143	1,07
495,595	1,07
496,048	1,08
496,5	1,08
496,952	1,09
497,404	1,09
497,856	1,09
498,309	1,1
498,761	1,1
499,213	1,11
499,665	1,11
500,117	1,12
500,569	1,12
501,021	1,13
501,473	1,13
501,925	1,13
502,377	1,14
502,828	1,14
503,28	1,15
503,732	1,15
504,184	1,16
504,636	1,16
505,087	1,17
505,539	1,17
505,991	1,17
506,442	1,18
506,894	1,18
507,345	1,19
507,797	1,19
508,249	1,2
508,7	1,2
509,151	1,21
509,603	1,21
510,054	1,21
510,506	1,22
510,957	1,22
511,408	1,23
511,86	1,23
512,311	1,23
512,762	1,24
513,213	1,24
513,665	1,24
514,116	1,25
514,567	1,25
515,018	1,26
515,469	1,26
515,92	1,26
516,371	1,27
516,822	1,27
517,273	1,27
517,724	1,28
518,175	1,28
518,626	1,28
519,076	1,28
519,527	1,29
519,978	1,29
520,429	1,29
520,88	1,29
521,33	1,29
521,781	1,3
522,232	1,3
522,682	1,3
523,133	1,3
523,583	1,3
524,034	1,31
524,484	1,31
524,935	1,31
525,385	1,31
525,836	1,31
526,286	1,31
526,736	1,31
527,187	1,31
527,637	1,31
528,087	1,31
528,538	1,31
528,988	1,31
529,438	1,3
529,888	1,3
530,338	1,3
530,788	1,3
531,238	1,3
531,688	1,3
532,139	1,29
532,589	1,29
533,038	1,29
533,488	1,29
533,938	1,29
534,388	1,29
534,838	1,28
535,288	1,28
535,738	1,27
536,187	1,27
536,637	1,27
537,087	1,26
537,537	1,26
537,986	1,25
538,436	1,25
538,885	1,24
539,335	1,23
539,785	1,23
540,234	1,22
540,684	1,22
541,133	1,21
541,582	1,21
542,032	1,2
542,481	1,2
542,931	1,19
543,38	1,18
543,829	1,17
544,278	1,17
544,728	1,16
545,177	1,16
545,626	1,15
546,075	1,14
546,524	1,14
546,973	1,13
547,422	1,13
547,871	1,13
548,32	1,12
548,769	1,12
549,218	1,12
549,667	1,12
550,116	1,11
550,565	1,11
551,014	1,11
551,463	1,1
551,911	1,1
552,36	1,09
552,809	1,08
553,258	1,08
553,706	1,07
554,155	1,07
554,603	1,07
555,052	1,06
555,501	1,05
555,949	1,05
556,398	1,04
556,846	1,04
557,294	1,03
557,743	1,03
558,191	1,02
558,64	1,01
559,088	1,01
559,536	1
559,985	1
560,433	0,99
560,881	0,99
561,329	0,98
561,777	0,98
562,225	0,97
562,674	0,97
563,122	0,96
563,57	0,96
564,018	0,95
564,466	0,95
564,914	0,94
565,362	0,94
565,809	0,93
566,257	0,93
566,705	0,92
567,153	0,92
567,601	0,91
568,048	0,91
568,496	0,9
568,944	0,9
569,392	0,9
569,839	0,89
570,287	0,89
570,734	0,88
571,182	0,88
571,63	0,88
572,077	0,87
572,525	0,87
572,972	0,86
573,419	0,86
573,867	0,85
574,314	0,85
574,761	0,84
575,209	0,84
575,656	0,84
576,103	0,83
576,551	0,83
576,998	0,83
577,445	0,82
577,892	0,82
578,339	0,82
578,786	0,81
579,233	0,81
579,68	0,8
580,127	0,8
580,574	0,8
581,021	0,79
581,468	0,79
581,915	0,79
582,362	0,78
582,809	0,78
583,255	0,78
583,702	0,78
584,149	0,77
584,596	0,77
585,042	0,76
585,489	0,76
585,936	0,76
586,382	0,75
586,829	0,75
587,275	0,75
587,722	0,75
588,168	0,75
588,615	0,74
589,061	0,74
589,508	0,74
589,954	0,74
590,4	0,73
590,847	0,73
591,293	0,73
591,739	0,73
592,185	0,73
592,632	0,72
593,078	0,72
593,524	0,72
593,97	0,72
594,416	0,72
594,862	0,72
595,308	0,72
595,754	0,71
596,2	0,71
596,646	0,71
597,092	0,71
597,538	0,7
597,984	0,7
598,43	0,7
598,876	0,7
599,321	0,7
599,767	0,7
600,213	0,69
600,659	0,69
601,104	0,69
601,55	0,69
601,995	0,69
602,441	0,69
602,887	0,68
603,332	0,68
603,778	0,68
604,223	0,68
604,668	0,68
605,114	0,68
605,559	0,68
606,005	0,68
606,45	0,68
606,895	0,68
607,341	0,67
607,786	0,67
608,231	0,67
608,676	0,66
609,121	0,65
609,566	0,64
610,012	0,64
610,457	0,63
610,902	0,63
611,347	0,62
611,792	0,62
612,237	0,62
612,682	0,62
613,127	0,62
613,571	0,62
614,016	0,62
614,461	0,63
614,906	0,63
615,351	0,63
615,795	0,63
616,24	0,64
616,685	0,64
617,129	0,64
617,574	0,64
618,019	0,64
618,463	0,64
618,908	0,64
619,352	0,64
619,797	0,64
620,241	0,63
620,686	0,63
621,13	0,63
621,574	0,63
622,019	0,63
622,463	0,63
622,907	0,63
623,352	0,63
623,796	0,63
624,24	0,62
624,684	0,62
625,128	0,62
625,572	0,62
626,016	0,62
626,461	0,62
626,905	0,62
627,349	0,62
627,793	0,62
628,236	0,62
628,68	0,62
629,124	0,62
629,568	0,62
630,012	0,62
630,456	0,62
630,9	0,61
631,343	0,61
631,787	0,61
632,231	0,61
632,674	0,61
633,118	0,61
633,562	0,61
634,005	0,62
634,449	0,62
634,892	0,62
635,336	0,61
635,779	0,61
636,223	0,61
636,666	0,61
637,109	0,61
637,553	0,61
637,996	0,61
638,439	0,61
638,883	0,61
639,326	0,61
639,769	0,61
640,212	0,61
640,655	0,61
641,099	0,61
641,542	0,61
641,985	0,61
642,428	0,61
642,871	0,61
643,314	0,61
643,757	0,61
644,2	0,61
644,643	0,6
645,085	0,6
645,528	0,6
645,971	0,6
646,414	0,6
646,857	0,6
647,299	0,6
647,742	0,6
648,185	0,6
648,627	0,6
649,07	0,59
649,513	0,59
649,955	0,59
650,398	0,59
650,84	0,59
651,283	0,59
651,725	0,59
652,168	0,59
652,61	0,59
653,052	0,59
653,495	0,59
653,937	0,5
654,379	0,44
654,821	0,45
655,264	0,45
655,706	0,45
656,148	0,45
656,59	0,45
657,032	0,45
657,474	0,45
657,916	0,45
658,358	0,45
658,8	0,51
659,242	0,59
659,684	0,59
660,126	0,59
660,568	0,59
661,01	0,59
661,452	0,59
661,894	0,59
662,335	0,59
662,777	0,59
663,219	0,59
663,661	0,59
664,102	0,59
664,544	0,59
664,985	0,59
665,427	0,59
665,869	0,59
666,31	0,59
666,752	0,59
667,193	0,59
667,634	0,59
668,076	0,59
668,517	0,59
668,959	0,59
669,4	0,59
669,841	0,59
670,282	0,59
670,724	0,59
671,165	0,59
671,606	0,58
672,047	0,58
672,488	0,58
672,929	0,58
673,37	0,58
673,811	0,58
674,252	0,58
674,693	0,58
675,134	0,58
675,575	0,58
676,016	0,58
676,457	0,58
676,898	0,58
677,339	0,58
677,78	0,58
678,22	0,58
678,661	0,58
679,102	0,58
679,542	0,58
679,983	0,58
680,424	0,58
680,864	0,58
681,305	0,58
681,745	0,58
682,186	0,58
682,626	0,58
683,067	0,58
683,507	0,58
683,948	0,58
684,388	0,58
684,828	0,58
685,269	0,58
685,709	0,58
686,149	0,58
686,589	0,58
687,029	0,58
687,47	0,58
687,91	0,57
688,35	0,57
688,79	0,57
689,23	0,57
689,67	0,57
690,11	0,57
690,55	0,57
690,99	0,57
691,43	0,57
691,87	0,57
692,31	0,57
692,749	0,57
693,189	0,57
693,629	0,57
694,069	0,57
694,508	0,57
694,948	0,56
695,388	0,56
695,827	0,57
696,267	0,57
696,706	0,57
697,146	0,57
697,586	0,57
698,025	0,57
698,464	0,57
698,904	0,57
699,343	0,57
699,783	0,57
700,222	0,58
700,661	0,58
701,101	0,58
701,54	0,58
701,979	0,57
702,418	0,57
702,857	0,57
703,297	0,57
703,736	0,57
704,175	0,57
704,614	0,57
705,053	0,57
705,492	0,57
705,931	0,57
706,37	0,57
706,809	0,57
707,248	0,57
707,687	0,57
708,125	0,56
708,564	0,56
709,003	0,56
709,442	0,56
709,88	0,56
710,319	0,56
710,758	0,56
711,196	0,56
711,635	0,56
712,074	0,56
712,512	0,56
712,951	0,56
713,389	0,56
713,828	0,56
714,266	0,56
714,705	0,56
715,143	0,56
715,581	0,56
716,02	0,56
716,458	0,56
716,896	0,56
717,334	0,56
717,773	0,56
718,211	0,56
718,649	0,56
719,087	0,56
719,525	0,56
719,963	0,56
720,401	0,56
720,839	0,56
721,277	0,56
721,715	0,56
722,153	0,56
722,591	0,56
723,029	0,56
723,467	0,56
723,905	0,56
724,342	0,56
724,78	0,56
725,218	0,56
725,656	0,56
726,093	0,56
726,531	0,56
726,969	0,55
727,406	0,55
727,844	0,55
728,281	0,55
728,719	0,55
729,156	0,55
729,594	0,55
730,031	0,55
730,469	0,55
730,906	0,55
731,343	0,55
731,781	0,55
732,218	0,55
732,655	0,55
733,092	0,55
733,53	0,55
733,967	0,55
734,404	0,55
734,841	0,55
735,278	0,55
735,715	0,55
736,152	0,55
736,589	0,55
737,026	0,55
737,463	0,55
737,9	0,55
738,337	0,55
738,774	0,55
739,211	0,55
739,647	0,55
740,084	0,55
740,521	0,55
740,958	0,55
741,394	0,55
741,831	0,55
742,268	0,55
742,704	0,55
743,141	0,55
743,577	0,55
744,014	0,55
744,45	0,55
744,887	0,54
745,323	0,54
745,76	0,54
746,196	0,54
746,632	0,54
747,069	0,54
747,505	0,54
747,941	0,54
748,378	0,54
748,814	0,54
749,25	0,54
749,686	0,54
750,122	0,54
750,558	0,54
750,994	0,54
751,43	0,54
751,866	0,54
752,302	0,54
752,738	0,54
753,174	0,54
753,61	0,54
754,046	0,54
754,482	0,53
754,918	0,53
755,354	0,53
755,789	0,53
756,225	0,53
756,661	0,53
757,096	0,53
757,532	0,53
757,968	0,52
758,403	0,52
758,839	0,52
759,274	0,51
759,71	0,51
760,145	0,5
760,581	0,5
761,016	0,49
761,452	0,49
761,887	0,48
762,322	0,48
762,758	0,47
763,193	0,47
763,628	0,46
764,063	0,45
764,499	0,44
764,934	0,44
765,369	0,43
765,804	0,42
766,239	0,41
766,674	0,4
767,109	0,4
767,544	0,38
767,979	0,37
768,414	0,36
768,849	0,35
769,284	0,34
769,719	0,33
770,154	0,32
770,588	0,31
771,023	0,3
771,458	0,29
771,893	0,28
772,327	0,26
772,762	0,25
773,197	0,24
773,631	0,23
774,066	0,21
774,5	0,2
774,935	0,19
775,369	0,18
775,804	0,16
776,238	0,16
776,673	0,15
777,107	0,14
777,541	0,13
777,976	0,12
778,41	0,1
778,844	0,09
779,279	0,09
779,713	0,08
780,147	0,07
780,581	0,06
781,015	0,05
781,449	0,04
781,883	0,03
782,317	0,01
782,751	-0
783,185	-0,01
783,619	-0,01
784,053	-0,02
784,487	-0,03
784,921	-0,03
785,355	-0,04
785,789	-0,05
786,223	-0,06
786,656	-0,07
787,09	-0,08
787,524	-0,09
787,957	-0,1
788,391	-0,13
788,825	-0,15
789,258	-0,16
789,692	-0,17
790,125	-0,18
790,559	-0,2
790,992	-0,22
791,426	-0,25
791,859	-0,26
792,293	-0,3
792,726	-0,31
793,159	-0,33
793,593	-0,35
794,026	-0,37
794,459	-0,4
794,892	-0,44
795,326	-0,46
795,759	-0,5
796,192	-0,55
796,625	-0,59
797,058	-0,62
797,491	-0,66
797,924	-0,7
798,357	-0,75
798,79	-0,8
799,223	-0,84
799,656	-0,89
800,089	-0,94
800,522	-0,98
800,955	-1,03
801,387	-1,08
801,82	-1,14
802,253	-1,2
802,686	-1,28
803,118	-1,34
803,551	-1,39
803,984	-1,43
804,416	-1,47
804,849	-1,5
805,281	-1,59
805,714	-1,93
806,146	-2,41
806,579	-2,68
807,011	-2,85
807,444	-2,95
807,876	-3,05
808,308	-3,09
808,741	-3,12
809,173	-3,17
809,605	-3,2
810,037	-3,27
810,47	-3,2
810,902	-3,01
811,334	-2,87
811,766	-2,73
812,198	-2,52
812,63	-2,09
813,062	-1,83
813,494	-1,71
813,926	-1,62
814,358	-1,57
814,79	-1,49
815,222	-1,43
815,654	-1,38
816,086	-1,31
816,518	-1,26
816,949	-1,2
817,381	-1,16
817,813	-1,14
818,245	-1,1
818,676	-1,06
819,108	-1,02
819,54	-1,01
819,971	-0,98
820,403	-0,93
820,834	-0,91
821,266	-0,87
821,697	-0,85
822,129	-0,83
822,56	-0,81
822,991	-0,78
823,423	-0,75
823,854	-0,74
824,286	-0,71
824,717	-0,7
825,148	-0,68
825,579	-0,67
826,01	-0,66
826,442	-0,65
826,873	-0,63
827,304	-0,6
827,735	-0,59
828,166	-0,6
828,597	-0,6
829,028	-0,59
829,459	-0,6
829,89	-0,6
830,321	-0,56
830,752	-0,57
831,183	-0,56
831,613	-0,55
832,044	-0,55
832,475	-0,53
832,906	-0,55
833,336	-0,55
833,767	-0,55
834,198	-0,53
834,628	-0,52
835,059	-0,55
835,49	-0,56
835,92	-0,53
836,351	-0,53
836,781	-0,53
837,212	-0,55
837,642	-0,55
838,072	-0,53
838,503	-0,53
838,933	-0,51
839,364	-0,52
839,794	-0,5
840,224	-0,49
840,654	-0,53
841,085	-0,53
841,515	-0,51
841,945	-0,51
842,375	-0,47
842,805	-0,45
843,235	-0,44
843,665	-0,45
844,095	-0,43
844,525	-0,45
844,955	-0,45
845,385	-0,44
845,815	-0,42
846,245	-0,44
846,675	-0,45
847,105	-0,47
847,534	-0,48
847,964	-0,47
848,394	-0,45
848,824	-0,48
849,253	-0,47
849,683	-0,47
850,112	-0,47
850,542	-0,5
850,972	-0,51
851,401	-0,48
851,831	-0,46
852,26	-0,47
852,69	-0,5
853,119	-0,5
853,548	-0,5
853,978	-0,51
854,407	-0,5
854,836	-0,5
855,266	-0,5
855,695	-0,51
856,124	-0,52
856,553	-0,53
856,983	-0,56
857,412	-0,54
857,841	-0,56
858,27	-0,56
858,699	-0,56
859,128	-0,6
859,557	-0,61
859,986	-0,61
860,415	-0,59
860,844	-0,56
861,273	-0,57
861,702	-0,57
862,13	-0,55
862,559	-0,57
862,988	-0,55
863,417	-0,54
863,845	-0,52
864,274	-0,53
864,703	-0,52
865,131	-0,53
865,56	-0,54
865,989	-0,56
866,417	-0,54
866,846	-0,54
867,274	-0,53
867,703	-0,55
868,131	-0,57
868,559	-0,57
868,988	-0,58
869,416	-0,57
869,844	-0,59
870,273	-0,62
870,701	-0,59
871,129	-0,61
871,557	-0,64
871,986	-0,63
872,414	-0,65
872,842	-0,62
873,27	-0,61
873,698	-0,57
874,126	-0,61
874,554	-0,59
874,982	-0,59
875,41	-0,62
875,838	-0,57
876,266	-0,55
876,694	-0,56
877,122	-0,54
877,549	-0,6
877,977	-0,57
878,405	-0,6
878,833	-0,56
879,26	-0,56
879,688	-0,56
880,116	-0,54
880,543	-0,53
880,971	-0,52
881,399	-0,54
881,826	-0,55
882,254	-0,53
882,681	-0,57
883,109	-0,53
883,536	-0,54
883,963	-0,55
884,391	-0,53
884,818	-0,52
885,245	-0,56
885,673	-0,57
886,1	-0,55
886,527	-0,55
886,954	-0,52
887,381	-0,53
887,809	-0,55
888,236	-0,56
888,663	-0,57
889,09	-0,61
889,517	-0,64
889,944	-0,63
890,371	-0,62
890,798	-0,62
891,225	-0,62
891,652	-0,64
892,078	-0,61
892,505	-0,64
892,932	-0,59
893,359	-0,6
893,786	-0,6
894,212	-0,57
894,639	-0,59
895,066	-0,6
895,492	-0,55
895,919	-0,55
896,346	-0,56
896,772	-0,56
897,199	-0,54
897,625	-0,57
898,052	-0,53
898,478	-0,51
898,904	-0,51
899,331	-0,51
899,757	-0,52
900,183	-0,54
900,61	-0,52
901,036	-0,51
901,462	-0,51
901,888	-0,51
902,315	-0,49
902,741	-0,54
903,167	-0,53
903,593	-0,56
904,019	-0,55
904,445	-0,53
904,871	-0,55
905,297	-0,57
905,723	-0,57
906,149	-0,55
906,575	-0,56
907,001	-0,56
907,427	-0,53
907,852	-0,52
908,278	-0,53
908,704	-0,51
909,13	-0,5
909,555	-0,51
909,981	-0,5
910,407	-0,5
910,832	-0,5
911,258	-0,51
911,684	-0,51
912,109	-0,51
912,535	-0,54
912,96	-0,5
913,386	-0,53
913,811	-0,53
914,236	-0,53
914,662	-0,51
915,087	-0,55
915,512	-0,55
915,938	-0,56
916,363	-0,56
916,788	-0,57
917,213	-0,55
917,639	-0,59
918,064	-0,57
918,489	-0,58
918,914	-0,59
919,339	-0,61
919,764	-0,58
920,189	-0,58
920,614	-0,6
921,039	-0,6
921,464	-0,56
921,889	-0,58
922,314	-0,59
922,738	-0,61
923,163	-0,62
923,588	-0,61
924,013	-0,61
924,437	-0,61
924,862	-0,62
925,287	-0,57
925,711	-0,59
926,136	-0,61
926,561	-0,59
926,985	-0,58
927,41	-0,56
927,834	-0,54
928,259	-0,5
928,683	-0,48
929,108	-0,46
929,532	-0,47
929,956	-0,47
930,381	-0,46
930,805	-0,45
931,229	-0,45
931,653	-0,43
932,078	-0,43
932,502	-0,44
932,926	-0,45
933,35	-0,44
933,774	-0,43
934,198	-0,41
934,622	-0,4
935,046	-0,41
935,47	-0,41
935,894	-0,4
936,318	-0,41
936,742	-0,41
937,166	-0,41
937,59	-0,41
938,014	-0,42
938,437	-0,43
938,861	-0,46
939,285	-0,47
939,709	-0,46
940,132	-0,47
940,556	-0,48
940,98	-0,47
941,403	-0,45
941,827	-0,45
942,25	-0,46
942,674	-0,46
943,097	-0,45
943,521	-0,44
943,944	-0,45
944,368	-0,43
944,791	-0,41
945,214	-0,43
945,638	-0,44
946,061	-0,48
946,484	-0,49
946,907	-0,47
947,331	-0,47
947,754	-0,51
948,177	-0,49
948,6	-0,48
949,023	-0,49
949,446	-0,49
949,869	-0,48
950,292	-0,48
950,715	-0,44
951,138	-0,42
951,561	-0,4
951,984	-0,4
952,407	-0,39
952,83	-0,38
953,252	-0,34
953,675	-0,34
954,098	-0,34
954,521	-0,32
954,943	-0,31
955,366	-0,32
955,789	-0,3
956,211	-0,33
956,634	-0,34
957,056	-0,31
957,479	-0,32
957,902	-0,34
958,324	-0,35
958,746	-0,34
959,169	-0,35
959,591	-0,35
960,014	-0,36
960,436	-0,35
960,858	-0,35
961,281	-0,34
961,703	-0,36
962,125	-0,36
962,547	-0,35
962,969	-0,35
963,391	-0,35
963,814	-0,36
964,236	-0,35
964,658	-0,33
965,08	-0,34
965,502	-0,33
965,924	-0,3
966,346	-0,3
966,768	-0,29
967,189	-0,3
967,611	-0,3
968,033	-0,3
968,455	-0,28
968,877	-0,29
969,298	-0,3
969,72	-0,31
970,142	-0,29
970,563	-0,3
970,985	-0,28
971,407	-0,27
971,828	-0,24
972,25	-0,23
972,671	-0,22
973,093	-0,22
973,514	-0,2
973,936	-0,18
974,357	-0,17
974,778	-0,16
975,2	-0,16
975,621	-0,15
976,042	-0,14
976,464	-0,14
976,885	-0,12
977,306	-0,11
977,727	-0,1
978,148	-0,08
978,57	-0,07
978,991	-0,05
979,412	-0,04
979,833	-0,03
980,254	-0,01
980,675	-0,01
981,096	0
981,517	0,02
981,937	0,02
982,358	0,03
982,779	0,04
983,2	0,04
983,621	0,04
984,042	0,06
984,462	0,06
984,883	0,07
985,304	0,08
985,724	0,1
986,145	0,11
986,565	0,13
986,986	0,15
987,407	0,16
987,827	0,17
988,248	0,19
988,668	0,2
989,088	0,22
989,509	0,24
989,929	0,25
990,35	0,26
990,77	0,27
991,19	0,28
991,61	0,29
992,031	0,31
992,451	0,32
992,871	0,33
993,291	0,34
993,711	0,35
994,131	0,36
994,551	0,37
994,971	0,38
995,391	0,39
995,811	0,4
996,231	0,4
996,651	0,41
997,071	0,42
997,491	0,43
997,911	0,44
998,331	0,45
998,75	0,46
999,17	0,46
999,59	0,47
1000,009	0,47
1000,429	0,48
1000,849	0,49
1001,268	0,5
1001,688	0,5
1002,107	0,5
1002,527	0,51
1002,946	0,51
1003,366	0,51
1003,785	0,52
1004,205	0,52
1004,624	0,53
1005,044	0,53
1005,463	0,53
1005,882	0,54
1006,301	0,54
1006,721	0,54
1007,14	0,54
1007,559	0,54
1007,978	0,55
1008,397	0,55
1008,816	0,55
1009,235	0,55
1009,655	0,55
1010,074	0,55
1010,492	0,55
1010,911	0,55
1011,33	0,54
1011,749	0,54
1012,168	0,54
1012,587	0,54
1013,006	0,54
1013,425	0,54
1013,843	0,54
1014,262	0,54
1014,681	0,54
1015,099	0,54
1015,518	0,54
1015,937	0,54
1016,355	0,54
1016,774	0,54
1017,192	0,54
1017,611	0,54
1018,029	0,54
1018,448	0,54
1018,866	0,54
1019,285	0,54
1019,703	0,54
1020,121	0,54
1020,54	0,54
1020,958	0,54
1021,376	0,54
1021,794	0,53
1022,213	0,53
1022,631	0,53
1023,049	0,53
1023,467	0,53
1023,885	0,53
1024,303	0,53
1024,721	0,53
1025,139	0,53
1025,557	0,52
1025,975	0,52
1026,393	0,52
1026,811	0,52
1027,229	0,52
1027,647	0,52
1028,065	0,52
1028,482	0,52
1028,9	0,52
1029,318	0,52
1029,735	0,52
1030,153	0,52
1030,571	0,52
1030,988	0,52
1031,406	0,52
1031,823	0,52
1032,241	0,52
1032,659	0,52
1033,076	0,52
1033,493	0,52
1033,911	0,52
1034,328	0,52
1034,746	0,52
1035,163	0,52
1035,58	0,52
1035,997	0,52
1036,415	0,52
1036,832	0,52
1037,249	0,52
1037,666	0,52
1038,083	0,51
1038,501	0,51
1038,918	0,51
1039,335	0,51
1039,752	0,51
1040,169	0,51
1040,586	0,51
1041,003	0,51
1041,419	0,51
1041,836	0,52
1042,253	0,52
1042,67	0,52
1043,087	0,52
1043,504	0,52
1043,92	0,52
1044,337	0,52
1044,754	0,52
1045,17	0,52
1045,587	0,51
1046,004	0,51
1046,42	0,51
1046,837	0,51
1047,253	0,51
1047,67	0,51
1048,086	0,51
1048,503	0,51
1048,919	0,51
1049,335	0,51
1049,752	0,51
1050,168	0,51
1050,584	0,52
1051,001	0,52
1051,417	0,52
1051,833	0,52
1052,249	0,52
1052,665	0,52
1053,081	0,52
1053,497	0,52
1053,914	0,52
1054,33	0,53
1054,746	0,53
1055,162	0,53
1055,578	0,53
1055,993	0,53
1056,409	0,53
1056,825	0,53
1057,241	0,53
1057,657	0,53
1058,073	0,53
1058,488	0,53
1058,904	0,53
1059,32	0,53
1059,736	0,53
1060,151	0,53
1060,567	0,53
1060,982	0,53
1061,398	0,53
1061,813	0,53
1062,229	0,53
1062,644	0,53
1063,06	0,53
1063,475	0,53
1063,891	0,53
1064,306	0,53
1064,721	0,53
1065,137	0,53
1065,552	0,53
1065,967	0,53
1066,382	0,53
1066,798	0,53
1067,213	0,53
1067,628	0,53
1068,043	0,53
1068,458	0,53
1068,873	0,52
1069,288	0,52
1069,703	0,52
1070,118	0,53
1070,533	0,53
1070,948	0,53
1071,363	0,53
1071,778	0,53
1072,193	0,53
1072,607	0,53
1073,022	0,53
1073,437	0,53
1073,852	0,53
1074,266	0,53
1074,681	0,53
1075,096	0,53
1075,51	0,53
1075,925	0,53
1076,339	0,53
1076,754	0,52
1077,168	0,52
1077,583	0,52
1077,997	0,52
1078,412	0,52
1078,826	0,52
1079,24	0,52
1079,655	0,52
1080,069	0,52
1080,483	0,51
1080,897	0,51
1081,312	0,51
1081,726	0,51
1082,14	0,51
1082,554	0,51
1082,968	0,51
1083,382	0,5
1083,796	0,5
1084,21	0,51
1084,624	0,5
1085,038	0,5
1085,452	0,5
1085,866	0,5
1086,28	0,5
1086,694	0,5
1087,108	0,5
1087,521	0,49
1087,935	0,49
1088,349	0,49
1088,763	0,49
1089,176	0,48
1089,59	0,48
1090,004	0,48
1090,417	0,47
1090,831	0,47
1091,244	0,47
1091,658	0,46
1092,071	0,46
1092,485	0,46
1092,898	0,45
1093,312	0,45
1093,725	0,45
1094,138	0,45
1094,552	0,45
1094,965	0,44
1095,378	0,44
1095,791	0,44
1096,205	0,44
1096,618	0,43
1097,031	0,43
1097,444	0,42
1097,857	0,42
1098,27	0,41
1098,683	0,41
1099,096	0,41
1099,509	0,41
1099,922	0,4
1100,335	0,39
1100,748	0,38
1101,161	0,38
1101,574	0,38
1101,986	0,37
1102,399	0,37
1102,812	0,36
1103,225	0,35
1103,637	0,35
1104,05	0,35
1104,463	0,35
1104,875	0,35
1105,288	0,34
1105,7	0,33
1106,113	0,33
1106,525	0,33
1106,938	0,33
1107,35	0,32
1107,763	0,32
1108,175	0,31
1108,588	0,31
1109	0,3
1109,412	0,29
1109,824	0,29
1110,237	0,28
1110,649	0,27
1111,061	0,26
