Data from 18C-808nm-8A-cont_Absorbance__323__01752.txt Node

Date: Mon Jul 17 17:30:03 CEST 2023
User: Laser008
Spectrometer: MAYP115816
Trigger mode: 0
Integration Time (sec): 2,500000E-1
Scans to average: 10
Electric dark correction enabled: true
Nonlinearity correction enabled: true
Boxcar width: 5
XAxis mode: Wavelengths
Number of Pixels in Spectrum: 2068
>>>>>Begin Spectral Data<<<<<
198,914	-0,74
199,384	-0,5
199,855	-0,36
200,325	-0,28
200,796	-0,24
201,266	-0,2
201,737	-0,18
202,207	-0,16
202,677	-0,15
203,147	-0,13
203,618	-0,1
204,088	-0,08
204,558	-0,06
205,028	-0,06
205,498	-0,06
205,968	-0,06
206,439	-0,07
206,909	-0,07
207,379	-0,07
207,849	-0,08
208,319	-0,09
208,789	-0,1
209,258	-0,09
209,728	-0,11
210,198	-0,11
210,668	-0,11
211,138	-0,11
211,608	-0,12
212,077	-0,11
212,547	-0,11
213,017	-0,11
213,486	-0,11
213,956	-0,11
214,426	-0,12
214,895	-0,12
215,365	-0,12
215,834	-0,13
216,304	-0,14
216,773	-0,13
217,243	-0,15
217,712	-0,16
218,181	-0,16
218,651	-0,17
219,12	-0,17
219,589	-0,17
220,058	-0,17
220,528	-0,18
220,997	-0,17
221,466	-0,18
221,935	-0,19
222,404	-0,19
222,873	-0,17
223,342	-0,17
223,812	-0,16
224,281	-0,16
224,749	-0,16
225,218	-0,17
225,687	-0,16
226,156	-0,15
226,625	-0,14
227,094	-0,13
227,563	-0,14
228,031	-0,16
228,5	-0,16
228,969	-0,17
229,438	-0,16
229,906	-0,15
230,375	-0,13
230,844	-0,14
231,312	-0,15
231,781	-0,16
232,249	-0,15
232,718	-0,15
233,186	-0,13
233,655	-0,14
234,123	-0,13
234,591	-0,14
235,06	-0,14
235,528	-0,15
235,996	-0,14
236,465	-0,14
236,933	-0,14
237,401	-0,13
237,869	-0,13
238,337	-0,13
238,805	-0,12
239,274	-0,11
239,742	-0,11
240,21	-0,1
240,678	-0,09
241,146	-0,08
241,614	-0,08
242,081	-0,08
242,549	-0,08
243,017	-0,08
243,485	-0,08
243,953	-0,09
244,421	-0,08
244,888	-0,09
245,356	-0,09
245,824	-0,09
246,291	-0,1
246,759	-0,1
247,227	-0,11
247,694	-0,09
248,162	-0,09
248,629	-0,08
249,097	-0,09
249,564	-0,1
250,032	-0,1
250,499	-0,1
250,967	-0,1
251,434	-0,11
251,901	-0,11
252,369	-0,11
252,836	-0,12
253,303	-0,14
253,77	-0,15
254,237	-0,14
254,705	-0,14
255,172	-0,14
255,639	-0,14
256,106	-0,16
256,573	-0,16
257,04	-0,17
257,507	-0,17
257,974	-0,18
258,441	-0,15
258,908	-0,16
259,375	-0,17
259,841	-0,17
260,308	-0,17
260,775	-0,17
261,242	-0,16
261,709	-0,16
262,175	-0,17
262,642	-0,16
263,109	-0,16
263,575	-0,18
264,042	-0,17
264,508	-0,17
264,975	-0,18
265,441	-0,19
265,908	-0,19
266,374	-0,19
266,841	-0,19
267,307	-0,2
267,773	-0,19
268,24	-0,19
268,706	-0,2
269,172	-0,21
269,639	-0,21
270,105	-0,2
270,571	-0,2
271,037	-0,19
271,503	-0,2
271,969	-0,19
272,435	-0,2
272,902	-0,21
273,368	-0,22
273,834	-0,21
274,3	-0,22
274,765	-0,22
275,231	-0,23
275,697	-0,22
276,163	-0,22
276,629	-0,22
277,095	-0,22
277,56	-0,21
278,026	-0,22
278,492	-0,2
278,958	-0,2
279,423	-0,2
279,889	-0,19
280,354	-0,19
280,82	-0,19
281,286	-0,21
281,751	-0,21
282,217	-0,2
282,682	-0,2
283,147	-0,2
283,613	-0,2
284,078	-0,2
284,544	-0,21
285,009	-0,22
285,474	-0,21
285,939	-0,23
286,405	-0,22
286,87	-0,22
287,335	-0,22
287,8	-0,21
288,265	-0,19
288,73	-0,21
289,195	-0,23
289,66	-0,22
290,125	-0,2
290,59	-0,2
291,055	-0,18
291,52	-0,18
291,985	-0,18
292,45	-0,19
292,915	-0,19
293,38	-0,19
293,844	-0,18
294,309	-0,17
294,774	-0,16
295,239	-0,17
295,703	-0,18
296,168	-0,17
296,632	-0,16
297,097	-0,15
297,562	-0,14
298,026	-0,15
298,491	-0,15
298,955	-0,15
299,419	-0,14
299,884	-0,15
300,348	-0,14
300,813	-0,13
301,277	-0,15
301,741	-0,15
302,205	-0,15
302,67	-0,14
303,134	-0,14
303,598	-0,14
304,062	-0,13
304,526	-0,13
304,99	-0,14
305,454	-0,14
305,919	-0,13
306,383	-0,12
306,847	-0,11
307,31	-0,12
307,774	-0,13
308,238	-0,12
308,702	-0,12
309,166	-0,14
309,63	-0,13
310,094	-0,11
310,557	-0,1
311,021	-0,11
311,485	-0,11
311,948	-0,12
312,412	-0,11
312,876	-0,11
313,339	-0,12
313,803	-0,12
314,266	-0,11
314,73	-0,12
315,193	-0,12
315,657	-0,11
316,12	-0,11
316,584	-0,1
317,047	-0,09
317,51	-0,09
317,973	-0,08
318,437	-0,07
318,9	-0,05
319,363	-0,05
319,826	-0,04
320,29	-0,05
320,753	-0,05
321,216	-0,05
321,679	-0,05
322,142	-0,05
322,605	-0,06
323,068	-0,06
323,531	-0,06
323,994	-0,05
324,457	-0,05
324,92	-0,04
325,382	-0,03
325,845	-0,02
326,308	-0,01
326,771	-0
327,233	0,01
327,696	0,03
328,159	0,04
328,622	0,05
329,084	0,04
329,547	0,04
330,009	0,04
330,472	0,05
330,934	0,05
331,397	0,05
331,859	0,06
332,322	0,06
332,784	0,06
333,246	0,06
333,709	0,06
334,171	0,07
334,633	0,07
335,096	0,07
335,558	0,07
336,02	0,07
336,482	0,07
336,944	0,09
337,406	0,09
337,868	0,09
338,331	0,09
338,793	0,11
339,255	0,12
339,717	0,12
340,178	0,13
340,64	0,13
341,102	0,14
341,564	0,15
342,026	0,16
342,488	0,16
342,949	0,18
343,411	0,21
343,873	0,23
344,335	0,26
344,796	0,3
345,258	0,35
345,719	0,39
346,181	0,45
346,643	0,49
347,104	0,52
347,566	0,55
348,027	0,58
348,488	0,6
348,95	0,62
349,411	0,64
349,873	0,67
350,334	0,69
350,795	0,7
351,256	0,71
351,718	0,72
352,179	0,73
352,64	0,73
353,101	0,74
353,562	0,74
354,023	0,74
354,484	0,74
354,945	0,75
355,406	0,75
355,867	0,75
356,328	0,75
356,789	0,75
357,25	0,76
357,711	0,76
358,172	0,76
358,633	0,76
359,093	0,76
359,554	0,76
360,015	0,77
360,476	0,77
360,936	0,77
361,397	0,77
361,858	0,77
362,318	0,77
362,779	0,77
363,239	0,77
363,7	0,78
364,16	0,78
364,621	0,78
365,081	0,78
365,541	0,78
366,002	0,78
366,462	0,77
366,922	0,77
367,383	0,77
367,843	0,77
368,303	0,77
368,763	0,77
369,223	0,77
369,684	0,77
370,144	0,77
370,604	0,77
371,064	0,77
371,524	0,77
371,984	0,77
372,444	0,77
372,904	0,77
373,363	0,77
373,823	0,77
374,283	0,77
374,743	0,77
375,203	0,77
375,663	0,77
376,122	0,77
376,582	0,77
377,042	0,77
377,501	0,77
377,961	0,77
378,42	0,77
378,88	0,77
379,34	0,77
379,799	0,77
380,259	0,77
380,718	0,77
381,177	0,77
381,637	0,77
382,096	0,77
382,555	0,77
383,015	0,77
383,474	0,77
383,933	0,76
384,393	0,76
384,852	0,76
385,311	0,76
385,77	0,76
386,229	0,76
386,688	0,76
387,147	0,76
387,606	0,76
388,065	0,76
388,524	0,76
388,983	0,76
389,442	0,76
389,901	0,76
390,36	0,76
390,819	0,76
391,277	0,76
391,736	0,76
392,195	0,76
392,654	0,76
393,112	0,76
393,571	0,76
394,03	0,76
394,488	0,76
394,947	0,76
395,405	0,76
395,864	0,76
396,322	0,76
396,781	0,76
397,239	0,76
397,698	0,76
398,156	0,76
398,614	0,76
399,073	0,76
399,531	0,75
399,989	0,75
400,447	0,75
400,905	0,75
401,364	0,75
401,822	0,75
402,28	0,75
402,738	0,75
403,196	0,75
403,654	0,75
404,112	0,75
404,57	0,75
405,028	0,75
405,486	0,75
405,944	0,75
406,402	0,75
406,859	0,75
407,317	0,75
407,775	0,75
408,233	0,75
408,691	0,75
409,148	0,75
409,606	0,75
410,064	0,75
410,521	0,75
410,979	0,75
411,436	0,75
411,894	0,75
412,351	0,75
412,809	0,75
413,266	0,75
413,724	0,75
414,181	0,75
414,638	0,75
415,096	0,75
415,553	0,74
416,01	0,74
416,467	0,74
416,925	0,74
417,382	0,74
417,839	0,74
418,296	0,74
418,753	0,74
419,21	0,74
419,667	0,74
420,124	0,74
420,581	0,74
421,038	0,74
421,495	0,74
421,952	0,74
422,409	0,74
422,866	0,74
423,322	0,74
423,779	0,74
424,236	0,74
424,693	0,74
425,149	0,74
425,606	0,74
426,063	0,74
426,519	0,74
426,976	0,74
427,433	0,74
427,889	0,74
428,346	0,74
428,802	0,74
429,258	0,74
429,715	0,74
430,171	0,74
430,628	0,74
431,084	0,74
431,54	0,74
431,997	0,74
432,453	0,74
432,909	0,74
433,365	0,74
433,821	0,74
434,277	0,74
434,734	0,74
435,19	0,74
435,646	0,74
436,102	0,74
436,558	0,74
437,014	0,74
437,47	0,74
437,925	0,74
438,381	0,74
438,837	0,74
439,293	0,74
439,749	0,74
440,205	0,74
440,66	0,74
441,116	0,74
441,572	0,74
442,027	0,74
442,483	0,74
442,939	0,74
443,394	0,74
443,85	0,74
444,305	0,74
444,761	0,74
445,216	0,74
445,672	0,74
446,127	0,74
446,582	0,74
447,038	0,74
447,493	0,74
447,948	0,74
448,403	0,74
448,859	0,74
449,314	0,74
449,769	0,74
450,224	0,74
450,679	0,74
451,134	0,75
451,589	0,75
452,044	0,75
452,499	0,75
452,954	0,75
453,409	0,75
453,864	0,75
454,319	0,75
454,774	0,75
455,229	0,75
455,684	0,75
456,138	0,75
456,593	0,75
457,048	0,75
457,503	0,75
457,957	0,75
458,412	0,75
458,866	0,75
459,321	0,75
459,776	0,75
460,23	0,75
460,685	0,75
461,139	0,75
461,593	0,75
462,048	0,75
462,502	0,76
462,957	0,76
463,411	0,76
463,865	0,76
464,319	0,76
464,774	0,76
465,228	0,76
465,682	0,76
466,136	0,76
466,59	0,76
467,044	0,76
467,499	0,76
467,953	0,77
468,407	0,77
468,861	0,77
469,315	0,77
469,768	0,77
470,222	0,77
470,676	0,77
471,13	0,77
471,584	0,77
472,038	0,77
472,491	0,77
472,945	0,77
473,399	0,78
473,852	0,78
474,306	0,78
474,76	0,78
475,213	0,78
475,667	0,78
476,12	0,78
476,574	0,78
477,027	0,79
477,481	0,79
477,934	0,79
478,388	0,79
478,841	0,79
479,294	0,79
479,748	0,8
480,201	0,8
480,654	0,8
481,107	0,8
481,561	0,8
482,014	0,8
482,467	0,81
482,92	0,81
483,373	0,81
483,826	0,81
484,279	0,81
484,732	0,81
485,185	0,82
485,638	0,82
486,091	0,82
486,544	0,82
486,997	0,82
487,449	0,83
487,902	0,83
488,355	0,83
488,808	0,83
489,26	0,84
489,713	0,84
490,166	0,84
490,618	0,84
491,071	0,85
491,523	0,85
491,976	0,85
492,429	0,86
492,881	0,86
493,333	0,86
493,786	0,86
494,238	0,87
494,691	0,87
495,143	0,88
495,595	0,88
496,048	0,88
496,5	0,89
496,952	0,89
497,404	0,89
497,856	0,9
498,309	0,9
498,761	0,9
499,213	0,91
499,665	0,91
500,117	0,91
500,569	0,92
501,021	0,92
501,473	0,93
501,925	0,93
502,377	0,93
502,828	0,94
503,28	0,94
503,732	0,95
504,184	0,95
504,636	0,95
505,087	0,96
505,539	0,96
505,991	0,96
506,442	0,97
506,894	0,97
507,345	0,98
507,797	0,98
508,249	0,98
508,7	0,99
509,151	0,99
509,603	1
510,054	1
510,506	1
510,957	1,01
511,408	1,01
511,86	1,02
512,311	1,02
512,762	1,02
513,213	1,02
513,665	1,03
514,116	1,03
514,567	1,03
515,018	1,04
515,469	1,04
515,92	1,04
516,371	1,05
516,822	1,05
517,273	1,05
517,724	1,06
518,175	1,06
518,626	1,06
519,076	1,06
519,527	1,07
519,978	1,07
520,429	1,07
520,88	1,07
521,33	1,08
521,781	1,08
522,232	1,08
522,682	1,08
523,133	1,08
523,583	1,08
524,034	1,08
524,484	1,08
524,935	1,09
525,385	1,09
525,836	1,09
526,286	1,09
526,736	1,09
527,187	1,09
527,637	1,09
528,087	1,08
528,538	1,08
528,988	1,08
529,438	1,08
529,888	1,08
530,338	1,08
530,788	1,08
531,238	1,08
531,688	1,08
532,139	1,08
532,589	1,07
533,038	1,07
533,488	1,07
533,938	1,07
534,388	1,07
534,838	1,06
535,288	1,06
535,738	1,06
536,187	1,05
536,637	1,05
537,087	1,05
537,537	1,04
537,986	1,04
538,436	1,04
538,885	1,03
539,335	1,03
539,785	1,02
540,234	1,02
540,684	1,01
541,133	1,01
541,582	1
542,032	1
542,481	0,99
542,931	0,99
543,38	0,98
543,829	0,98
544,278	0,97
544,728	0,97
545,177	0,97
545,626	0,96
546,075	0,96
546,524	0,95
546,973	0,95
547,422	0,95
547,871	0,94
548,32	0,94
548,769	0,94
549,218	0,93
549,667	0,93
550,116	0,93
550,565	0,92
551,014	0,92
551,463	0,91
551,911	0,91
552,36	0,9
552,809	0,9
553,258	0,89
553,706	0,89
554,155	0,89
554,603	0,88
555,052	0,88
555,501	0,87
555,949	0,87
556,398	0,86
556,846	0,86
557,294	0,86
557,743	0,85
558,191	0,85
558,64	0,84
559,088	0,83
559,536	0,83
559,985	0,82
560,433	0,82
560,881	0,82
561,329	0,81
561,777	0,81
562,225	0,8
562,674	0,8
563,122	0,8
563,57	0,79
564,018	0,79
564,466	0,78
564,914	0,78
565,362	0,77
565,809	0,77
566,257	0,77
566,705	0,76
567,153	0,76
567,601	0,75
568,048	0,75
568,496	0,75
568,944	0,74
569,392	0,74
569,839	0,74
570,287	0,73
570,734	0,73
571,182	0,73
571,63	0,72
572,077	0,72
572,525	0,71
572,972	0,71
573,419	0,71
573,867	0,7
574,314	0,7
574,761	0,7
575,209	0,69
575,656	0,69
576,103	0,69
576,551	0,68
576,998	0,68
577,445	0,68
577,892	0,68
578,339	0,67
578,786	0,67
579,233	0,67
579,68	0,66
580,127	0,66
580,574	0,66
581,021	0,65
581,468	0,65
581,915	0,65
582,362	0,65
582,809	0,64
583,255	0,64
583,702	0,64
584,149	0,64
584,596	0,64
585,042	0,63
585,489	0,63
585,936	0,63
586,382	0,63
586,829	0,62
587,275	0,62
587,722	0,62
588,168	0,62
588,615	0,62
589,061	0,61
589,508	0,61
589,954	0,61
590,4	0,61
590,847	0,61
591,293	0,6
591,739	0,6
592,185	0,6
592,632	0,6
593,078	0,6
593,524	0,6
593,97	0,59
594,416	0,59
594,862	0,59
595,308	0,59
595,754	0,59
596,2	0,59
596,646	0,58
597,092	0,58
597,538	0,58
597,984	0,58
598,43	0,58
598,876	0,58
599,321	0,58
599,767	0,58
600,213	0,57
600,659	0,57
601,104	0,57
601,55	0,57
601,995	0,57
602,441	0,57
602,887	0,57
603,332	0,56
603,778	0,56
604,223	0,56
604,668	0,56
605,114	0,56
605,559	0,56
606,005	0,56
606,45	0,56
606,895	0,56
607,341	0,55
607,786	0,55
608,231	0,55
608,676	0,55
609,121	0,54
609,566	0,53
610,012	0,53
610,457	0,53
610,902	0,52
611,347	0,52
611,792	0,52
612,237	0,52
612,682	0,52
613,127	0,52
613,571	0,52
614,016	0,52
614,461	0,52
614,906	0,52
615,351	0,53
615,795	0,53
616,24	0,53
616,685	0,53
617,129	0,53
617,574	0,53
618,019	0,53
618,463	0,53
618,908	0,53
619,352	0,53
619,797	0,52
620,241	0,52
620,686	0,52
621,13	0,52
621,574	0,52
622,019	0,52
622,463	0,52
622,907	0,52
623,352	0,52
623,796	0,52
624,24	0,51
624,684	0,51
625,128	0,51
625,572	0,51
626,016	0,51
626,461	0,51
626,905	0,51
627,349	0,51
627,793	0,51
628,236	0,51
628,68	0,51
629,124	0,51
629,568	0,51
630,012	0,51
630,456	0,51
630,9	0,51
631,343	0,51
631,787	0,51
632,231	0,51
632,674	0,51
633,118	0,51
633,562	0,51
634,005	0,51
634,449	0,51
634,892	0,51
635,336	0,51
635,779	0,51
636,223	0,51
636,666	0,51
637,109	0,51
637,553	0,51
637,996	0,51
638,439	0,5
638,883	0,5
639,326	0,5
639,769	0,5
640,212	0,5
640,655	0,5
641,099	0,5
641,542	0,5
641,985	0,5
642,428	0,5
642,871	0,5
643,314	0,5
643,757	0,49
644,2	0,49
644,643	0,49
645,085	0,49
645,528	0,49
645,971	0,49
646,414	0,49
646,857	0,49
647,299	0,49
647,742	0,49
648,185	0,49
648,627	0,49
649,07	0,49
649,513	0,49
649,955	0,49
650,398	0,49
650,84	0,49
651,283	0,49
651,725	0,49
652,168	0,49
652,61	0,49
653,052	0,49
653,495	0,49
653,937	0,41
654,379	0,35
654,821	0,35
655,264	0,36
655,706	0,35
656,148	0,35
656,59	0,36
657,032	0,36
657,474	0,36
657,916	0,35
658,358	0,35
658,8	0,41
659,242	0,49
659,684	0,49
660,126	0,49
660,568	0,49
661,01	0,49
661,452	0,49
661,894	0,49
662,335	0,48
662,777	0,48
663,219	0,48
663,661	0,48
664,102	0,48
664,544	0,48
664,985	0,48
665,427	0,48
665,869	0,48
666,31	0,48
666,752	0,48
667,193	0,48
667,634	0,48
668,076	0,48
668,517	0,48
668,959	0,48
669,4	0,48
669,841	0,48
670,282	0,48
670,724	0,48
671,165	0,48
671,606	0,48
672,047	0,48
672,488	0,48
672,929	0,48
673,37	0,48
673,811	0,48
674,252	0,48
674,693	0,48
675,134	0,47
675,575	0,47
676,016	0,47
676,457	0,47
676,898	0,47
677,339	0,47
677,78	0,47
678,22	0,47
678,661	0,47
679,102	0,47
679,542	0,47
679,983	0,47
680,424	0,47
680,864	0,47
681,305	0,47
681,745	0,47
682,186	0,47
682,626	0,47
683,067	0,47
683,507	0,47
683,948	0,47
684,388	0,47
684,828	0,47
685,269	0,47
685,709	0,47
686,149	0,47
686,589	0,47
687,029	0,47
687,47	0,47
687,91	0,47
688,35	0,47
688,79	0,47
689,23	0,47
689,67	0,47
690,11	0,47
690,55	0,47
690,99	0,46
691,43	0,46
691,87	0,46
692,31	0,46
692,749	0,46
693,189	0,46
693,629	0,46
694,069	0,46
694,508	0,46
694,948	0,45
695,388	0,45
695,827	0,46
696,267	0,46
696,706	0,46
697,146	0,46
697,586	0,46
698,025	0,46
698,464	0,46
698,904	0,46
699,343	0,46
699,783	0,46
700,222	0,46
700,661	0,46
701,101	0,46
701,54	0,46
701,979	0,46
702,418	0,46
702,857	0,46
703,297	0,46
703,736	0,46
704,175	0,46
704,614	0,46
705,053	0,46
705,492	0,46
705,931	0,46
706,37	0,46
706,809	0,46
707,248	0,46
707,687	0,46
708,125	0,46
708,564	0,46
709,003	0,46
709,442	0,46
709,88	0,46
710,319	0,46
710,758	0,45
711,196	0,45
711,635	0,45
712,074	0,45
712,512	0,45
712,951	0,45
713,389	0,45
713,828	0,45
714,266	0,45
714,705	0,45
715,143	0,45
715,581	0,45
716,02	0,45
716,458	0,45
716,896	0,45
717,334	0,45
717,773	0,45
718,211	0,45
718,649	0,45
719,087	0,45
719,525	0,45
719,963	0,45
720,401	0,45
720,839	0,45
721,277	0,45
721,715	0,45
722,153	0,45
722,591	0,45
723,029	0,45
723,467	0,45
723,905	0,45
724,342	0,45
724,78	0,45
725,218	0,45
725,656	0,45
726,093	0,45
726,531	0,45
726,969	0,45
727,406	0,45
727,844	0,45
728,281	0,45
728,719	0,45
729,156	0,45
729,594	0,45
730,031	0,45
730,469	0,45
730,906	0,45
731,343	0,45
731,781	0,44
732,218	0,44
732,655	0,44
733,092	0,44
733,53	0,44
733,967	0,44
734,404	0,44
734,841	0,44
735,278	0,44
735,715	0,44
736,152	0,43
736,589	0,43
737,026	0,43
737,463	0,43
737,9	0,43
738,337	0,43
738,774	0,43
739,211	0,43
739,647	0,43
740,084	0,43
740,521	0,43
740,958	0,43
741,394	0,43
741,831	0,43
742,268	0,43
742,704	0,43
743,141	0,43
743,577	0,43
744,014	0,43
744,45	0,43
744,887	0,43
745,323	0,43
745,76	0,43
746,196	0,43
746,632	0,43
747,069	0,43
747,505	0,42
747,941	0,42
748,378	0,42
748,814	0,42
749,25	0,42
749,686	0,43
750,122	0,43
750,558	0,43
750,994	0,43
751,43	0,43
751,866	0,43
752,302	0,43
752,738	0,44
753,174	0,44
753,61	0,44
754,046	0,44
754,482	0,44
754,918	0,44
755,354	0,44
755,789	0,44
756,225	0,43
756,661	0,43
757,096	0,43
757,532	0,43
757,968	0,43
758,403	0,42
758,839	0,42
759,274	0,42
759,71	0,42
760,145	0,41
760,581	0,4
761,016	0,4
761,452	0,39
761,887	0,39
762,322	0,38
762,758	0,38
763,193	0,38
763,628	0,37
764,063	0,36
764,499	0,35
764,934	0,35
765,369	0,34
765,804	0,34
766,239	0,33
766,674	0,32
767,109	0,32
767,544	0,31
767,979	0,3
768,414	0,29
768,849	0,28
769,284	0,28
769,719	0,26
770,154	0,26
770,588	0,25
771,023	0,23
771,458	0,22
771,893	0,21
772,327	0,2
772,762	0,19
773,197	0,18
773,631	0,17
774,066	0,16
774,5	0,15
774,935	0,14
775,369	0,13
775,804	0,12
776,238	0,11
776,673	0,1
777,107	0,08
777,541	0,08
777,976	0,06
778,41	0,05
778,844	0,04
779,279	0,03
779,713	0,02
780,147	0,02
780,581	0,02
781,015	0,01
781,449	0
781,883	-0
782,317	-0,02
782,751	-0,03
783,185	-0,03
783,619	-0,04
784,053	-0,05
784,487	-0,06
784,921	-0,06
785,355	-0,07
785,789	-0,08
786,223	-0,09
786,656	-0,1
787,09	-0,11
787,524	-0,12
787,957	-0,13
788,391	-0,15
788,825	-0,16
789,258	-0,17
789,692	-0,19
790,125	-0,21
790,559	-0,23
790,992	-0,25
791,426	-0,27
791,859	-0,29
792,293	-0,32
792,726	-0,33
793,159	-0,36
793,593	-0,38
794,026	-0,4
794,459	-0,43
794,892	-0,45
795,326	-0,48
795,759	-0,52
796,192	-0,56
796,625	-0,6
797,058	-0,63
797,491	-0,68
797,924	-0,71
798,357	-0,77
798,79	-0,81
799,223	-0,85
799,656	-0,9
800,089	-0,95
800,522	-1
800,955	-1,04
801,387	-1,1
801,82	-1,15
802,253	-1,21
802,686	-1,29
803,118	-1,35
803,551	-1,4
803,984	-1,44
804,416	-1,48
804,849	-1,52
805,281	-1,67
805,714	-2,06
806,146	-2,48
806,579	-2,73
807,011	-2,89
807,444	-2,98
807,876	-3,06
808,308	-3,09
808,741	-3,12
809,173	-3,17
809,605	-3,19
810,037	-3,26
810,47	-3,17
810,902	-2,97
811,334	-2,82
811,766	-2,66
812,198	-2,4
812,63	-1,98
813,062	-1,77
813,494	-1,68
813,926	-1,59
814,358	-1,54
814,79	-1,46
815,222	-1,4
815,654	-1,35
816,086	-1,29
816,518	-1,23
816,949	-1,18
817,381	-1,14
817,813	-1,12
818,245	-1,08
818,676	-1,04
819,108	-1,01
819,54	-0,99
819,971	-0,97
820,403	-0,92
820,834	-0,91
821,266	-0,87
821,697	-0,85
822,129	-0,83
822,56	-0,8
822,991	-0,78
823,423	-0,75
823,854	-0,74
824,286	-0,71
824,717	-0,69
825,148	-0,68
825,579	-0,66
826,01	-0,65
826,442	-0,65
826,873	-0,63
827,304	-0,6
827,735	-0,6
828,166	-0,61
828,597	-0,6
829,028	-0,6
829,459	-0,6
829,89	-0,6
830,321	-0,56
830,752	-0,57
831,183	-0,55
831,613	-0,55
832,044	-0,54
832,475	-0,53
832,906	-0,54
833,336	-0,55
833,767	-0,55
834,198	-0,55
834,628	-0,53
835,059	-0,56
835,49	-0,57
835,92	-0,54
836,351	-0,54
836,781	-0,55
837,212	-0,56
837,642	-0,56
838,072	-0,53
838,503	-0,54
838,933	-0,52
839,364	-0,53
839,794	-0,51
840,224	-0,51
840,654	-0,56
841,085	-0,56
841,515	-0,54
841,945	-0,54
842,375	-0,5
842,805	-0,49
843,235	-0,48
843,665	-0,49
844,095	-0,47
844,525	-0,48
844,955	-0,48
845,385	-0,45
845,815	-0,44
846,245	-0,46
846,675	-0,46
847,105	-0,48
847,534	-0,49
847,964	-0,47
848,394	-0,46
848,824	-0,49
849,253	-0,48
849,683	-0,48
850,112	-0,49
850,542	-0,53
850,972	-0,53
851,401	-0,51
851,831	-0,5
852,26	-0,5
852,69	-0,54
853,119	-0,54
853,548	-0,54
853,978	-0,55
854,407	-0,53
854,836	-0,53
855,266	-0,52
855,695	-0,53
856,124	-0,54
856,553	-0,55
856,983	-0,57
857,412	-0,56
857,841	-0,57
858,27	-0,58
858,699	-0,58
859,128	-0,62
859,557	-0,62
859,986	-0,63
860,415	-0,61
860,844	-0,58
861,273	-0,58
861,702	-0,59
862,13	-0,58
862,559	-0,6
862,988	-0,56
863,417	-0,56
863,845	-0,54
864,274	-0,55
864,703	-0,55
865,131	-0,55
865,56	-0,57
865,989	-0,59
866,417	-0,54
866,846	-0,54
867,274	-0,54
867,703	-0,56
868,131	-0,57
868,559	-0,58
868,988	-0,61
869,416	-0,6
869,844	-0,62
870,273	-0,64
870,701	-0,63
871,129	-0,67
871,557	-0,69
871,986	-0,69
872,414	-0,71
872,842	-0,69
873,27	-0,67
873,698	-0,64
874,126	-0,67
874,554	-0,65
874,982	-0,65
875,41	-0,68
875,838	-0,62
876,266	-0,59
876,694	-0,59
877,122	-0,58
877,549	-0,63
877,977	-0,59
878,405	-0,62
878,833	-0,59
879,26	-0,57
879,688	-0,57
880,116	-0,56
880,543	-0,55
880,971	-0,54
881,399	-0,58
881,826	-0,58
882,254	-0,56
882,681	-0,6
883,109	-0,56
883,536	-0,56
883,963	-0,58
884,391	-0,56
884,818	-0,54
885,245	-0,57
885,673	-0,58
886,1	-0,55
886,527	-0,55
886,954	-0,51
887,381	-0,53
887,809	-0,54
888,236	-0,56
888,663	-0,57
889,09	-0,61
889,517	-0,63
889,944	-0,62
890,371	-0,62
890,798	-0,61
891,225	-0,62
891,652	-0,65
892,078	-0,62
892,505	-0,65
892,932	-0,6
893,359	-0,61
893,786	-0,61
894,212	-0,58
894,639	-0,6
895,066	-0,62
895,492	-0,55
895,919	-0,55
896,346	-0,55
896,772	-0,56
897,199	-0,53
897,625	-0,56
898,052	-0,53
898,478	-0,51
898,904	-0,53
899,331	-0,52
899,757	-0,54
900,183	-0,56
900,61	-0,54
901,036	-0,55
901,462	-0,54
901,888	-0,54
902,315	-0,53
902,741	-0,58
903,167	-0,57
903,593	-0,6
904,019	-0,58
904,445	-0,56
904,871	-0,59
905,297	-0,61
905,723	-0,6
906,149	-0,59
906,575	-0,6
907,001	-0,59
907,427	-0,55
907,852	-0,54
908,278	-0,55
908,704	-0,53
909,13	-0,52
909,555	-0,51
909,981	-0,52
910,407	-0,52
910,832	-0,51
911,258	-0,51
911,684	-0,51
912,109	-0,52
912,535	-0,54
912,96	-0,5
913,386	-0,55
913,811	-0,55
914,236	-0,56
914,662	-0,53
915,087	-0,57
915,512	-0,57
915,938	-0,59
916,363	-0,58
916,788	-0,59
917,213	-0,58
917,639	-0,62
918,064	-0,59
918,489	-0,59
918,914	-0,6
919,339	-0,62
919,764	-0,59
920,189	-0,6
920,614	-0,62
921,039	-0,62
921,464	-0,58
921,889	-0,6
922,314	-0,61
922,738	-0,64
923,163	-0,64
923,588	-0,64
924,013	-0,63
924,437	-0,62
924,862	-0,63
925,287	-0,59
925,711	-0,6
926,136	-0,61
926,561	-0,59
926,985	-0,58
927,41	-0,56
927,834	-0,54
928,259	-0,51
928,683	-0,49
929,108	-0,46
929,532	-0,48
929,956	-0,47
930,381	-0,46
930,805	-0,46
931,229	-0,46
931,653	-0,45
932,078	-0,45
932,502	-0,47
932,926	-0,48
933,35	-0,48
933,774	-0,47
934,198	-0,45
934,622	-0,44
935,046	-0,45
935,47	-0,45
935,894	-0,44
936,318	-0,44
936,742	-0,42
937,166	-0,42
937,59	-0,42
938,014	-0,45
938,437	-0,46
938,861	-0,48
939,285	-0,49
939,709	-0,48
940,132	-0,49
940,556	-0,49
940,98	-0,49
941,403	-0,48
941,827	-0,48
942,25	-0,49
942,674	-0,47
943,097	-0,46
943,521	-0,45
943,944	-0,46
944,368	-0,46
944,791	-0,44
945,214	-0,46
945,638	-0,48
946,061	-0,51
946,484	-0,52
946,907	-0,5
947,331	-0,51
947,754	-0,55
948,177	-0,52
948,6	-0,52
949,023	-0,52
949,446	-0,52
949,869	-0,5
950,292	-0,49
950,715	-0,45
951,138	-0,44
951,561	-0,43
951,984	-0,42
952,407	-0,41
952,83	-0,39
953,252	-0,35
953,675	-0,35
954,098	-0,37
954,521	-0,36
954,943	-0,35
955,366	-0,36
955,789	-0,34
956,211	-0,36
956,634	-0,37
957,056	-0,33
957,479	-0,34
957,902	-0,36
958,324	-0,36
958,746	-0,34
959,169	-0,34
959,591	-0,34
960,014	-0,35
960,436	-0,35
960,858	-0,35
961,281	-0,35
961,703	-0,37
962,125	-0,37
962,547	-0,36
962,969	-0,37
963,391	-0,37
963,814	-0,39
964,236	-0,39
964,658	-0,36
965,08	-0,37
965,502	-0,35
965,924	-0,33
966,346	-0,32
966,768	-0,32
967,189	-0,34
967,611	-0,32
968,033	-0,32
968,455	-0,29
968,877	-0,3
969,298	-0,31
969,72	-0,31
970,142	-0,31
970,563	-0,32
970,985	-0,31
971,407	-0,3
971,828	-0,27
972,25	-0,27
972,671	-0,26
973,093	-0,26
973,514	-0,25
973,936	-0,23
974,357	-0,22
974,778	-0,22
975,2	-0,21
975,621	-0,2
976,042	-0,18
976,464	-0,18
976,885	-0,18
977,306	-0,17
977,727	-0,17
978,148	-0,16
978,57	-0,14
978,991	-0,12
979,412	-0,11
979,833	-0,1
980,254	-0,1
980,675	-0,1
981,096	-0,08
981,517	-0,06
981,937	-0,05
982,358	-0,04
982,779	-0,02
983,2	-0,02
983,621	-0,02
984,042	-0,01
984,462	0,01
984,883	0,02
985,304	0,04
985,724	0,05
986,145	0,06
986,565	0,08
986,986	0,09
987,407	0,1
987,827	0,11
988,248	0,13
988,668	0,13
989,088	0,15
989,509	0,16
989,929	0,17
990,35	0,18
990,77	0,19
991,19	0,2
991,61	0,22
992,031	0,22
992,451	0,24
992,871	0,24
993,291	0,26
993,711	0,26
994,131	0,27
994,551	0,28
994,971	0,29
995,391	0,29
995,811	0,3
996,231	0,3
996,651	0,31
997,071	0,32
997,491	0,33
997,911	0,33
998,331	0,34
998,75	0,35
999,17	0,36
999,59	0,36
1000,009	0,37
1000,429	0,37
1000,849	0,38
1001,268	0,39
1001,688	0,39
1002,107	0,39
1002,527	0,4
1002,946	0,4
1003,366	0,4
1003,785	0,41
1004,205	0,41
1004,624	0,41
1005,044	0,41
1005,463	0,42
1005,882	0,42
1006,301	0,42
1006,721	0,42
1007,14	0,42
1007,559	0,42
1007,978	0,43
1008,397	0,43
1008,816	0,43
1009,235	0,43
1009,655	0,43
1010,074	0,43
1010,492	0,43
1010,911	0,42
1011,33	0,42
1011,749	0,42
1012,168	0,42
1012,587	0,42
1013,006	0,42
1013,425	0,42
1013,843	0,42
1014,262	0,42
1014,681	0,42
1015,099	0,42
1015,518	0,42
1015,937	0,41
1016,355	0,41
1016,774	0,41
1017,192	0,41
1017,611	0,41
1018,029	0,41
1018,448	0,41
1018,866	0,41
1019,285	0,41
1019,703	0,41
1020,121	0,41
1020,54	0,41
1020,958	0,41
1021,376	0,41
1021,794	0,41
1022,213	0,41
1022,631	0,41
1023,049	0,41
1023,467	0,41
1023,885	0,41
1024,303	0,41
1024,721	0,4
1025,139	0,4
1025,557	0,4
1025,975	0,4
1026,393	0,4
1026,811	0,4
1027,229	0,4
1027,647	0,4
1028,065	0,4
1028,482	0,4
1028,9	0,4
1029,318	0,4
1029,735	0,4
1030,153	0,4
1030,571	0,4
1030,988	0,4
1031,406	0,4
1031,823	0,4
1032,241	0,4
1032,659	0,4
1033,076	0,4
1033,493	0,4
1033,911	0,4
1034,328	0,4
1034,746	0,4
1035,163	0,4
1035,58	0,4
1035,997	0,4
1036,415	0,4
1036,832	0,4
1037,249	0,4
1037,666	0,4
1038,083	0,4
1038,501	0,4
1038,918	0,4
1039,335	0,4
1039,752	0,4
1040,169	0,4
1040,586	0,4
1041,003	0,4
1041,419	0,4
1041,836	0,4
1042,253	0,4
1042,67	0,4
1043,087	0,4
1043,504	0,4
1043,92	0,4
1044,337	0,4
1044,754	0,4
1045,17	0,4
1045,587	0,4
1046,004	0,4
1046,42	0,4
1046,837	0,4
1047,253	0,4
1047,67	0,4
1048,086	0,4
1048,503	0,4
1048,919	0,4
1049,335	0,4
1049,752	0,4
1050,168	0,4
1050,584	0,4
1051,001	0,4
1051,417	0,4
1051,833	0,4
1052,249	0,4
1052,665	0,4
1053,081	0,4
1053,497	0,41
1053,914	0,41
1054,33	0,41
1054,746	0,41
1055,162	0,41
1055,578	0,41
1055,993	0,41
1056,409	0,41
1056,825	0,41
1057,241	0,41
1057,657	0,41
1058,073	0,41
1058,488	0,41
1058,904	0,41
1059,32	0,41
1059,736	0,41
1060,151	0,41
1060,567	0,41
1060,982	0,41
1061,398	0,41
1061,813	0,41
1062,229	0,41
1062,644	0,41
1063,06	0,41
1063,475	0,41
1063,891	0,41
1064,306	0,41
1064,721	0,4
1065,137	0,4
1065,552	0,4
1065,967	0,4
1066,382	0,4
1066,798	0,4
1067,213	0,4
1067,628	0,4
1068,043	0,4
1068,458	0,4
1068,873	0,4
1069,288	0,4
1069,703	0,4
1070,118	0,4
1070,533	0,4
1070,948	0,4
1071,363	0,4
1071,778	0,4
1072,193	0,4
1072,607	0,4
1073,022	0,4
1073,437	0,4
1073,852	0,4
1074,266	0,4
1074,681	0,4
1075,096	0,4
1075,51	0,4
1075,925	0,4
1076,339	0,4
1076,754	0,4
1077,168	0,4
1077,583	0,4
1077,997	0,4
1078,412	0,4
1078,826	0,4
1079,24	0,4
1079,655	0,4
1080,069	0,4
1080,483	0,4
1080,897	0,4
1081,312	0,4
1081,726	0,4
1082,14	0,4
1082,554	0,4
1082,968	0,4
1083,382	0,39
1083,796	0,39
1084,21	0,39
1084,624	0,39
1085,038	0,39
1085,452	0,39
1085,866	0,39
1086,28	0,39
1086,694	0,39
1087,108	0,39
1087,521	0,38
1087,935	0,38
1088,349	0,38
1088,763	0,38
1089,176	0,37
1089,59	0,37
1090,004	0,37
1090,417	0,36
1090,831	0,36
1091,244	0,36
1091,658	0,36
1092,071	0,35
1092,485	0,35
1092,898	0,35
1093,312	0,35
1093,725	0,34
1094,138	0,34
1094,552	0,34
1094,965	0,34
1095,378	0,34
1095,791	0,33
1096,205	0,33
1096,618	0,33
1097,031	0,32
1097,444	0,32
1097,857	0,32
1098,27	0,31
1098,683	0,31
1099,096	0,31
1099,509	0,3
1099,922	0,3
1100,335	0,3
1100,748	0,29
1101,161	0,28
1101,574	0,28
1101,986	0,28
1102,399	0,28
1102,812	0,27
1103,225	0,27
1103,637	0,26
1104,05	0,26
1104,463	0,26
1104,875	0,26
1105,288	0,25
1105,7	0,25
1106,113	0,24
1106,525	0,24
1106,938	0,24
1107,35	0,23
1107,763	0,23
1108,175	0,22
1108,588	0,22
1109	0,22
1109,412	0,21
1109,824	0,21
1110,237	0,22
1110,649	0,22
1111,061	0,2
