Data from 18C-808nm-8A-cont_Absorbance__430__01859.txt Node

Date: Mon Jul 17 17:34:30 CEST 2023
User: Laser008
Spectrometer: MAYP115816
Trigger mode: 0
Integration Time (sec): 2,500000E-1
Scans to average: 10
Electric dark correction enabled: true
Nonlinearity correction enabled: true
Boxcar width: 5
XAxis mode: Wavelengths
Number of Pixels in Spectrum: 2068
>>>>>Begin Spectral Data<<<<<
198,914	-0,73
199,384	-0,5
199,855	-0,38
200,325	-0,3
200,796	-0,26
201,266	-0,21
201,737	-0,2
202,207	-0,18
202,677	-0,17
203,147	-0,15
203,618	-0,13
204,088	-0,11
204,558	-0,1
205,028	-0,1
205,498	-0,1
205,968	-0,1
206,439	-0,13
206,909	-0,11
207,379	-0,12
207,849	-0,13
208,319	-0,13
208,789	-0,13
209,258	-0,13
209,728	-0,14
210,198	-0,14
210,668	-0,13
211,138	-0,12
211,608	-0,11
212,077	-0,13
212,547	-0,12
213,017	-0,13
213,486	-0,13
213,956	-0,13
214,426	-0,14
214,895	-0,14
215,365	-0,15
215,834	-0,16
216,304	-0,16
216,773	-0,16
217,243	-0,17
217,712	-0,18
218,181	-0,17
218,651	-0,18
219,12	-0,18
219,589	-0,18
220,058	-0,17
220,528	-0,18
220,997	-0,18
221,466	-0,19
221,935	-0,21
222,404	-0,21
222,873	-0,19
223,342	-0,19
223,812	-0,18
224,281	-0,17
224,749	-0,17
225,218	-0,19
225,687	-0,19
226,156	-0,18
226,625	-0,16
227,094	-0,16
227,563	-0,16
228,031	-0,18
228,5	-0,18
228,969	-0,18
229,438	-0,18
229,906	-0,17
230,375	-0,16
230,844	-0,16
231,312	-0,16
231,781	-0,17
232,249	-0,16
232,718	-0,17
233,186	-0,15
233,655	-0,15
234,123	-0,15
234,591	-0,16
235,06	-0,16
235,528	-0,16
235,996	-0,16
236,465	-0,15
236,933	-0,15
237,401	-0,15
237,869	-0,14
238,337	-0,14
238,805	-0,13
239,274	-0,12
239,742	-0,12
240,21	-0,11
240,678	-0,11
241,146	-0,11
241,614	-0,11
242,081	-0,11
242,549	-0,1
243,017	-0,11
243,485	-0,11
243,953	-0,11
244,421	-0,11
244,888	-0,11
245,356	-0,11
245,824	-0,11
246,291	-0,12
246,759	-0,12
247,227	-0,13
247,694	-0,12
248,162	-0,12
248,629	-0,11
249,097	-0,11
249,564	-0,12
250,032	-0,13
250,499	-0,13
250,967	-0,14
251,434	-0,14
251,901	-0,14
252,369	-0,14
252,836	-0,15
253,303	-0,16
253,77	-0,17
254,237	-0,17
254,705	-0,17
255,172	-0,16
255,639	-0,17
256,106	-0,18
256,573	-0,18
257,04	-0,18
257,507	-0,18
257,974	-0,18
258,441	-0,15
258,908	-0,16
259,375	-0,17
259,841	-0,17
260,308	-0,18
260,775	-0,18
261,242	-0,16
261,709	-0,17
262,175	-0,18
262,642	-0,18
263,109	-0,18
263,575	-0,2
264,042	-0,18
264,508	-0,18
264,975	-0,19
265,441	-0,2
265,908	-0,2
266,374	-0,2
266,841	-0,2
267,307	-0,2
267,773	-0,2
268,24	-0,19
268,706	-0,19
269,172	-0,21
269,639	-0,22
270,105	-0,2
270,571	-0,2
271,037	-0,2
271,503	-0,22
271,969	-0,21
272,435	-0,21
272,902	-0,24
273,368	-0,25
273,834	-0,24
274,3	-0,25
274,765	-0,24
275,231	-0,24
275,697	-0,23
276,163	-0,22
276,629	-0,22
277,095	-0,23
277,56	-0,22
278,026	-0,22
278,492	-0,21
278,958	-0,21
279,423	-0,21
279,889	-0,21
280,354	-0,22
280,82	-0,21
281,286	-0,23
281,751	-0,23
282,217	-0,23
282,682	-0,23
283,147	-0,23
283,613	-0,24
284,078	-0,24
284,544	-0,25
285,009	-0,26
285,474	-0,25
285,939	-0,26
286,405	-0,24
286,87	-0,24
287,335	-0,23
287,8	-0,22
288,265	-0,21
288,73	-0,22
289,195	-0,24
289,66	-0,24
290,125	-0,22
290,59	-0,23
291,055	-0,23
291,52	-0,24
291,985	-0,25
292,45	-0,25
292,915	-0,26
293,38	-0,26
293,844	-0,24
294,309	-0,23
294,774	-0,22
295,239	-0,23
295,703	-0,23
296,168	-0,22
296,632	-0,22
297,097	-0,2
297,562	-0,19
298,026	-0,19
298,491	-0,2
298,955	-0,2
299,419	-0,18
299,884	-0,18
300,348	-0,16
300,813	-0,15
301,277	-0,15
301,741	-0,15
302,205	-0,14
302,67	-0,13
303,134	-0,13
303,598	-0,13
304,062	-0,12
304,526	-0,12
304,99	-0,14
305,454	-0,15
305,919	-0,15
306,383	-0,15
306,847	-0,15
307,31	-0,17
307,774	-0,17
308,238	-0,17
308,702	-0,16
309,166	-0,18
309,63	-0,17
310,094	-0,14
310,557	-0,14
311,021	-0,14
311,485	-0,14
311,948	-0,14
312,412	-0,12
312,876	-0,12
313,339	-0,13
313,803	-0,13
314,266	-0,13
314,73	-0,13
315,193	-0,14
315,657	-0,12
316,12	-0,12
316,584	-0,1
317,047	-0,1
317,51	-0,09
317,973	-0,08
318,437	-0,06
318,9	-0,05
319,363	-0,04
319,826	-0,04
320,29	-0,04
320,753	-0,04
321,216	-0,04
321,679	-0,04
322,142	-0,04
322,605	-0,05
323,068	-0,05
323,531	-0,05
323,994	-0,05
324,457	-0,05
324,92	-0,03
325,382	-0,03
325,845	-0,03
326,308	-0,03
326,771	-0,03
327,233	-0,02
327,696	-0,01
328,159	-0,01
328,622	0
329,084	-0,01
329,547	-0
330,009	-0
330,472	0,01
330,934	0,01
331,397	0,01
331,859	0,02
332,322	0,02
332,784	0,03
333,246	0,03
333,709	0,03
334,171	0,04
334,633	0,04
335,096	0,04
335,558	0,04
336,02	0,05
336,482	0,05
336,944	0,06
337,406	0,07
337,868	0,07
338,331	0,07
338,793	0,08
339,255	0,09
339,717	0,1
340,178	0,11
340,64	0,12
341,102	0,12
341,564	0,13
342,026	0,14
342,488	0,15
342,949	0,17
343,411	0,19
343,873	0,22
344,335	0,25
344,796	0,29
345,258	0,34
345,719	0,38
346,181	0,43
346,643	0,48
347,104	0,51
347,566	0,55
348,027	0,58
348,488	0,6
348,95	0,63
349,411	0,65
349,873	0,68
350,334	0,7
350,795	0,72
351,256	0,73
351,718	0,74
352,179	0,74
352,64	0,75
353,101	0,75
353,562	0,75
354,023	0,76
354,484	0,76
354,945	0,76
355,406	0,77
355,867	0,77
356,328	0,77
356,789	0,77
357,25	0,77
357,711	0,78
358,172	0,78
358,633	0,78
359,093	0,78
359,554	0,78
360,015	0,78
360,476	0,79
360,936	0,79
361,397	0,79
361,858	0,79
362,318	0,79
362,779	0,79
363,239	0,79
363,7	0,79
364,16	0,79
364,621	0,79
365,081	0,8
365,541	0,79
366,002	0,79
366,462	0,8
366,922	0,79
367,383	0,79
367,843	0,79
368,303	0,79
368,763	0,79
369,223	0,8
369,684	0,8
370,144	0,8
370,604	0,8
371,064	0,8
371,524	0,79
371,984	0,79
372,444	0,79
372,904	0,79
373,363	0,79
373,823	0,79
374,283	0,79
374,743	0,79
375,203	0,79
375,663	0,79
376,122	0,79
376,582	0,79
377,042	0,79
377,501	0,79
377,961	0,79
378,42	0,79
378,88	0,79
379,34	0,79
379,799	0,79
380,259	0,79
380,718	0,79
381,177	0,79
381,637	0,79
382,096	0,79
382,555	0,79
383,015	0,79
383,474	0,78
383,933	0,78
384,393	0,78
384,852	0,78
385,311	0,78
385,77	0,78
386,229	0,78
386,688	0,78
387,147	0,78
387,606	0,78
388,065	0,78
388,524	0,78
388,983	0,78
389,442	0,78
389,901	0,78
390,36	0,78
390,819	0,78
391,277	0,78
391,736	0,78
392,195	0,78
392,654	0,78
393,112	0,78
393,571	0,78
394,03	0,78
394,488	0,78
394,947	0,78
395,405	0,78
395,864	0,77
396,322	0,77
396,781	0,77
397,239	0,77
397,698	0,77
398,156	0,77
398,614	0,77
399,073	0,77
399,531	0,77
399,989	0,77
400,447	0,77
400,905	0,77
401,364	0,77
401,822	0,77
402,28	0,77
402,738	0,77
403,196	0,77
403,654	0,77
404,112	0,77
404,57	0,77
405,028	0,77
405,486	0,77
405,944	0,77
406,402	0,77
406,859	0,77
407,317	0,77
407,775	0,77
408,233	0,77
408,691	0,77
409,148	0,77
409,606	0,77
410,064	0,77
410,521	0,77
410,979	0,77
411,436	0,77
411,894	0,77
412,351	0,76
412,809	0,76
413,266	0,76
413,724	0,76
414,181	0,76
414,638	0,76
415,096	0,76
415,553	0,76
416,01	0,76
416,467	0,76
416,925	0,76
417,382	0,76
417,839	0,76
418,296	0,76
418,753	0,76
419,21	0,76
419,667	0,76
420,124	0,76
420,581	0,76
421,038	0,76
421,495	0,76
421,952	0,76
422,409	0,76
422,866	0,76
423,322	0,76
423,779	0,76
424,236	0,76
424,693	0,76
425,149	0,76
425,606	0,76
426,063	0,76
426,519	0,76
426,976	0,76
427,433	0,76
427,889	0,76
428,346	0,76
428,802	0,76
429,258	0,76
429,715	0,76
430,171	0,76
430,628	0,76
431,084	0,76
431,54	0,76
431,997	0,76
432,453	0,76
432,909	0,76
433,365	0,76
433,821	0,75
434,277	0,75
434,734	0,75
435,19	0,75
435,646	0,75
436,102	0,75
436,558	0,75
437,014	0,75
437,47	0,75
437,925	0,75
438,381	0,76
438,837	0,76
439,293	0,76
439,749	0,76
440,205	0,76
440,66	0,76
441,116	0,76
441,572	0,76
442,027	0,76
442,483	0,76
442,939	0,76
443,394	0,76
443,85	0,76
444,305	0,76
444,761	0,76
445,216	0,76
445,672	0,76
446,127	0,76
446,582	0,76
447,038	0,76
447,493	0,76
447,948	0,76
448,403	0,76
448,859	0,76
449,314	0,76
449,769	0,76
450,224	0,76
450,679	0,76
451,134	0,76
451,589	0,76
452,044	0,76
452,499	0,76
452,954	0,76
453,409	0,76
453,864	0,76
454,319	0,77
454,774	0,77
455,229	0,77
455,684	0,77
456,138	0,77
456,593	0,77
457,048	0,77
457,503	0,77
457,957	0,77
458,412	0,77
458,866	0,77
459,321	0,77
459,776	0,77
460,23	0,77
460,685	0,77
461,139	0,77
461,593	0,77
462,048	0,77
462,502	0,77
462,957	0,77
463,411	0,78
463,865	0,78
464,319	0,78
464,774	0,78
465,228	0,78
465,682	0,78
466,136	0,78
466,59	0,78
467,044	0,78
467,499	0,78
467,953	0,78
468,407	0,79
468,861	0,79
469,315	0,79
469,768	0,79
470,222	0,79
470,676	0,79
471,13	0,79
471,584	0,79
472,038	0,79
472,491	0,79
472,945	0,79
473,399	0,79
473,852	0,8
474,306	0,8
474,76	0,8
475,213	0,8
475,667	0,8
476,12	0,8
476,574	0,8
477,027	0,8
477,481	0,81
477,934	0,81
478,388	0,81
478,841	0,81
479,294	0,81
479,748	0,82
480,201	0,82
480,654	0,82
481,107	0,82
481,561	0,82
482,014	0,83
482,467	0,83
482,92	0,83
483,373	0,83
483,826	0,83
484,279	0,83
484,732	0,84
485,185	0,84
485,638	0,84
486,091	0,84
486,544	0,85
486,997	0,85
487,449	0,85
487,902	0,85
488,355	0,86
488,808	0,86
489,26	0,86
489,713	0,86
490,166	0,87
490,618	0,87
491,071	0,87
491,523	0,88
491,976	0,88
492,429	0,88
492,881	0,89
493,333	0,89
493,786	0,89
494,238	0,89
494,691	0,9
495,143	0,9
495,595	0,91
496,048	0,91
496,5	0,91
496,952	0,92
497,404	0,92
497,856	0,92
498,309	0,93
498,761	0,93
499,213	0,94
499,665	0,94
500,117	0,95
500,569	0,95
501,021	0,95
501,473	0,96
501,925	0,96
502,377	0,97
502,828	0,97
503,28	0,97
503,732	0,98
504,184	0,98
504,636	0,99
505,087	0,99
505,539	0,99
505,991	1
506,442	1
506,894	1,01
507,345	1,01
507,797	1,02
508,249	1,02
508,7	1,02
509,151	1,03
509,603	1,03
510,054	1,04
510,506	1,04
510,957	1,05
511,408	1,05
511,86	1,05
512,311	1,06
512,762	1,06
513,213	1,06
513,665	1,07
514,116	1,07
514,567	1,08
515,018	1,08
515,469	1,08
515,92	1,09
516,371	1,09
516,822	1,09
517,273	1,09
517,724	1,1
518,175	1,1
518,626	1,1
519,076	1,11
519,527	1,11
519,978	1,11
520,429	1,11
520,88	1,11
521,33	1,12
521,781	1,12
522,232	1,12
522,682	1,12
523,133	1,12
523,583	1,13
524,034	1,13
524,484	1,13
524,935	1,13
525,385	1,13
525,836	1,13
526,286	1,13
526,736	1,13
527,187	1,13
527,637	1,13
528,087	1,13
528,538	1,13
528,988	1,13
529,438	1,13
529,888	1,12
530,338	1,12
530,788	1,12
531,238	1,12
531,688	1,12
532,139	1,12
532,589	1,12
533,038	1,12
533,488	1,11
533,938	1,11
534,388	1,11
534,838	1,11
535,288	1,1
535,738	1,1
536,187	1,09
536,637	1,09
537,087	1,09
537,537	1,08
537,986	1,08
538,436	1,07
538,885	1,07
539,335	1,06
539,785	1,06
540,234	1,05
540,684	1,05
541,133	1,04
541,582	1,04
542,032	1,03
542,481	1,03
542,931	1,02
543,38	1,02
543,829	1,01
544,278	1,01
544,728	1
545,177	1
545,626	0,99
546,075	0,99
546,524	0,98
546,973	0,98
547,422	0,97
547,871	0,97
548,32	0,97
548,769	0,96
549,218	0,96
549,667	0,96
550,116	0,95
550,565	0,95
551,014	0,94
551,463	0,94
551,911	0,93
552,36	0,93
552,809	0,92
553,258	0,92
553,706	0,91
554,155	0,91
554,603	0,9
555,052	0,9
555,501	0,89
555,949	0,89
556,398	0,88
556,846	0,88
557,294	0,87
557,743	0,87
558,191	0,86
558,64	0,86
559,088	0,85
559,536	0,84
559,985	0,84
560,433	0,83
560,881	0,83
561,329	0,82
561,777	0,82
562,225	0,82
562,674	0,81
563,122	0,81
563,57	0,8
564,018	0,8
564,466	0,79
564,914	0,79
565,362	0,78
565,809	0,78
566,257	0,77
566,705	0,77
567,153	0,76
567,601	0,76
568,048	0,76
568,496	0,75
568,944	0,75
569,392	0,74
569,839	0,74
570,287	0,74
570,734	0,73
571,182	0,73
571,63	0,73
572,077	0,72
572,525	0,72
572,972	0,71
573,419	0,71
573,867	0,71
574,314	0,7
574,761	0,7
575,209	0,69
575,656	0,69
576,103	0,69
576,551	0,68
576,998	0,68
577,445	0,68
577,892	0,67
578,339	0,67
578,786	0,67
579,233	0,66
579,68	0,66
580,127	0,66
580,574	0,65
581,021	0,65
581,468	0,65
581,915	0,65
582,362	0,64
582,809	0,64
583,255	0,64
583,702	0,64
584,149	0,63
584,596	0,63
585,042	0,63
585,489	0,62
585,936	0,62
586,382	0,62
586,829	0,62
587,275	0,62
587,722	0,61
588,168	0,61
588,615	0,61
589,061	0,6
589,508	0,6
589,954	0,6
590,4	0,6
590,847	0,6
591,293	0,59
591,739	0,59
592,185	0,59
592,632	0,59
593,078	0,59
593,524	0,59
593,97	0,58
594,416	0,58
594,862	0,58
595,308	0,58
595,754	0,58
596,2	0,58
596,646	0,57
597,092	0,57
597,538	0,57
597,984	0,57
598,43	0,57
598,876	0,57
599,321	0,56
599,767	0,56
600,213	0,56
600,659	0,56
601,104	0,56
601,55	0,56
601,995	0,55
602,441	0,55
602,887	0,55
603,332	0,55
603,778	0,55
604,223	0,55
604,668	0,55
605,114	0,55
605,559	0,54
606,005	0,54
606,45	0,54
606,895	0,54
607,341	0,54
607,786	0,54
608,231	0,54
608,676	0,53
609,121	0,53
609,566	0,52
610,012	0,52
610,457	0,51
610,902	0,51
611,347	0,51
611,792	0,5
612,237	0,5
612,682	0,5
613,127	0,5
613,571	0,5
614,016	0,5
614,461	0,51
614,906	0,51
615,351	0,51
615,795	0,51
616,24	0,51
616,685	0,51
617,129	0,51
617,574	0,51
618,019	0,51
618,463	0,51
618,908	0,51
619,352	0,51
619,797	0,51
620,241	0,51
620,686	0,51
621,13	0,5
621,574	0,5
622,019	0,5
622,463	0,5
622,907	0,5
623,352	0,5
623,796	0,5
624,24	0,5
624,684	0,5
625,128	0,49
625,572	0,49
626,016	0,49
626,461	0,49
626,905	0,49
627,349	0,49
627,793	0,49
628,236	0,49
628,68	0,49
629,124	0,49
629,568	0,49
630,012	0,49
630,456	0,49
630,9	0,49
631,343	0,49
631,787	0,49
632,231	0,49
632,674	0,49
633,118	0,49
633,562	0,49
634,005	0,49
634,449	0,49
634,892	0,49
635,336	0,49
635,779	0,49
636,223	0,49
636,666	0,48
637,109	0,48
637,553	0,48
637,996	0,48
638,439	0,48
638,883	0,48
639,326	0,48
639,769	0,48
640,212	0,48
640,655	0,48
641,099	0,48
641,542	0,48
641,985	0,48
642,428	0,48
642,871	0,47
643,314	0,47
643,757	0,47
644,2	0,47
644,643	0,47
645,085	0,47
645,528	0,47
645,971	0,47
646,414	0,47
646,857	0,47
647,299	0,47
647,742	0,47
648,185	0,47
648,627	0,47
649,07	0,47
649,513	0,47
649,955	0,47
650,398	0,47
650,84	0,47
651,283	0,47
651,725	0,47
652,168	0,47
652,61	0,47
653,052	0,47
653,495	0,47
653,937	0,38
654,379	0,32
654,821	0,33
655,264	0,33
655,706	0,33
656,148	0,33
656,59	0,33
657,032	0,33
657,474	0,33
657,916	0,33
658,358	0,32
658,8	0,38
659,242	0,46
659,684	0,46
660,126	0,46
660,568	0,46
661,01	0,46
661,452	0,46
661,894	0,46
662,335	0,46
662,777	0,46
663,219	0,46
663,661	0,46
664,102	0,46
664,544	0,46
664,985	0,46
665,427	0,46
665,869	0,46
666,31	0,46
666,752	0,46
667,193	0,46
667,634	0,46
668,076	0,46
668,517	0,46
668,959	0,46
669,4	0,46
669,841	0,46
670,282	0,46
670,724	0,46
671,165	0,46
671,606	0,46
672,047	0,46
672,488	0,46
672,929	0,46
673,37	0,46
673,811	0,46
674,252	0,45
674,693	0,45
675,134	0,45
675,575	0,45
676,016	0,45
676,457	0,45
676,898	0,45
677,339	0,45
677,78	0,45
678,22	0,45
678,661	0,45
679,102	0,45
679,542	0,45
679,983	0,45
680,424	0,45
680,864	0,45
681,305	0,45
681,745	0,45
682,186	0,45
682,626	0,45
683,067	0,45
683,507	0,45
683,948	0,45
684,388	0,45
684,828	0,45
685,269	0,45
685,709	0,45
686,149	0,45
686,589	0,44
687,029	0,44
687,47	0,44
687,91	0,44
688,35	0,44
688,79	0,44
689,23	0,44
689,67	0,44
690,11	0,44
690,55	0,44
690,99	0,44
691,43	0,44
691,87	0,44
692,31	0,44
692,749	0,44
693,189	0,43
693,629	0,43
694,069	0,43
694,508	0,43
694,948	0,43
695,388	0,43
695,827	0,43
696,267	0,43
696,706	0,43
697,146	0,44
697,586	0,44
698,025	0,44
698,464	0,44
698,904	0,44
699,343	0,44
699,783	0,44
700,222	0,44
700,661	0,44
701,101	0,44
701,54	0,44
701,979	0,44
702,418	0,44
702,857	0,44
703,297	0,44
703,736	0,44
704,175	0,44
704,614	0,44
705,053	0,44
705,492	0,44
705,931	0,44
706,37	0,44
706,809	0,44
707,248	0,43
707,687	0,43
708,125	0,43
708,564	0,43
709,003	0,43
709,442	0,43
709,88	0,43
710,319	0,43
710,758	0,43
711,196	0,43
711,635	0,43
712,074	0,43
712,512	0,43
712,951	0,43
713,389	0,43
713,828	0,43
714,266	0,43
714,705	0,42
715,143	0,42
715,581	0,42
716,02	0,42
716,458	0,43
716,896	0,43
717,334	0,43
717,773	0,43
718,211	0,43
718,649	0,43
719,087	0,43
719,525	0,43
719,963	0,43
720,401	0,43
720,839	0,43
721,277	0,43
721,715	0,43
722,153	0,43
722,591	0,43
723,029	0,43
723,467	0,43
723,905	0,43
724,342	0,43
724,78	0,43
725,218	0,43
725,656	0,43
726,093	0,43
726,531	0,43
726,969	0,43
727,406	0,43
727,844	0,43
728,281	0,43
728,719	0,43
729,156	0,43
729,594	0,43
730,031	0,42
730,469	0,42
730,906	0,42
731,343	0,42
731,781	0,42
732,218	0,42
732,655	0,42
733,092	0,42
733,53	0,42
733,967	0,42
734,404	0,42
734,841	0,42
735,278	0,41
735,715	0,41
736,152	0,41
736,589	0,41
737,026	0,41
737,463	0,41
737,9	0,41
738,337	0,41
738,774	0,41
739,211	0,41
739,647	0,41
740,084	0,41
740,521	0,41
740,958	0,41
741,394	0,42
741,831	0,42
742,268	0,42
742,704	0,42
743,141	0,41
743,577	0,41
744,014	0,41
744,45	0,41
744,887	0,41
745,323	0,41
745,76	0,41
746,196	0,41
746,632	0,41
747,069	0,41
747,505	0,41
747,941	0,41
748,378	0,41
748,814	0,41
749,25	0,41
749,686	0,41
750,122	0,41
750,558	0,41
750,994	0,41
751,43	0,41
751,866	0,42
752,302	0,42
752,738	0,42
753,174	0,42
753,61	0,42
754,046	0,42
754,482	0,42
754,918	0,42
755,354	0,42
755,789	0,42
756,225	0,41
756,661	0,41
757,096	0,41
757,532	0,41
757,968	0,41
758,403	0,4
758,839	0,4
759,274	0,4
759,71	0,39
760,145	0,39
760,581	0,38
761,016	0,38
761,452	0,37
761,887	0,37
762,322	0,37
762,758	0,36
763,193	0,36
763,628	0,35
764,063	0,35
764,499	0,34
764,934	0,33
765,369	0,33
765,804	0,32
766,239	0,32
766,674	0,31
767,109	0,3
767,544	0,3
767,979	0,29
768,414	0,28
768,849	0,27
769,284	0,26
769,719	0,25
770,154	0,25
770,588	0,24
771,023	0,23
771,458	0,22
771,893	0,21
772,327	0,19
772,762	0,18
773,197	0,17
773,631	0,16
774,066	0,15
774,5	0,14
774,935	0,13
775,369	0,12
775,804	0,1
776,238	0,1
776,673	0,09
777,107	0,08
777,541	0,07
777,976	0,06
778,41	0,05
778,844	0,04
779,279	0,03
779,713	0,02
780,147	0,01
780,581	0
781,015	-0,01
781,449	-0,02
781,883	-0,02
782,317	-0,03
782,751	-0,04
783,185	-0,05
783,619	-0,05
784,053	-0,07
784,487	-0,07
784,921	-0,08
785,355	-0,09
785,789	-0,1
786,223	-0,1
786,656	-0,12
787,09	-0,13
787,524	-0,14
787,957	-0,15
788,391	-0,17
788,825	-0,18
789,258	-0,2
789,692	-0,21
790,125	-0,23
790,559	-0,24
790,992	-0,27
791,426	-0,29
791,859	-0,31
792,293	-0,34
792,726	-0,35
793,159	-0,37
793,593	-0,39
794,026	-0,41
794,459	-0,44
794,892	-0,46
795,326	-0,48
795,759	-0,52
796,192	-0,56
796,625	-0,6
797,058	-0,62
797,491	-0,66
797,924	-0,7
798,357	-0,75
798,79	-0,79
799,223	-0,83
799,656	-0,89
800,089	-0,94
800,522	-0,98
800,955	-1,02
801,387	-1,08
801,82	-1,13
802,253	-1,19
802,686	-1,27
803,118	-1,32
803,551	-1,38
803,984	-1,42
804,416	-1,45
804,849	-1,49
805,281	-1,6
805,714	-1,96
806,146	-2,43
806,579	-2,7
807,011	-2,86
807,444	-2,96
807,876	-3,04
808,308	-3,07
808,741	-3,1
809,173	-3,15
809,605	-3,17
810,037	-3,25
810,47	-3,17
810,902	-2,97
811,334	-2,82
811,766	-2,65
812,198	-2,39
812,63	-1,96
813,062	-1,76
813,494	-1,67
813,926	-1,58
814,358	-1,53
814,79	-1,45
815,222	-1,39
815,654	-1,34
816,086	-1,28
816,518	-1,23
816,949	-1,17
817,381	-1,13
817,813	-1,11
818,245	-1,07
818,676	-1,04
819,108	-1,01
819,54	-0,99
819,971	-0,97
820,403	-0,92
820,834	-0,91
821,266	-0,87
821,697	-0,84
822,129	-0,83
822,56	-0,8
822,991	-0,78
823,423	-0,76
823,854	-0,75
824,286	-0,72
824,717	-0,71
825,148	-0,7
825,579	-0,69
826,01	-0,68
826,442	-0,68
826,873	-0,66
827,304	-0,63
827,735	-0,62
828,166	-0,62
828,597	-0,62
829,028	-0,61
829,459	-0,62
829,89	-0,63
830,321	-0,58
830,752	-0,59
831,183	-0,57
831,613	-0,56
832,044	-0,56
832,475	-0,55
832,906	-0,57
833,336	-0,57
833,767	-0,58
834,198	-0,57
834,628	-0,55
835,059	-0,58
835,49	-0,59
835,92	-0,56
836,351	-0,56
836,781	-0,56
837,212	-0,58
837,642	-0,58
838,072	-0,55
838,503	-0,56
838,933	-0,54
839,364	-0,54
839,794	-0,52
840,224	-0,51
840,654	-0,55
841,085	-0,56
841,515	-0,54
841,945	-0,54
842,375	-0,49
842,805	-0,48
843,235	-0,47
843,665	-0,48
844,095	-0,46
844,525	-0,48
844,955	-0,48
845,385	-0,46
845,815	-0,45
846,245	-0,47
846,675	-0,48
847,105	-0,5
847,534	-0,5
847,964	-0,48
848,394	-0,47
848,824	-0,5
849,253	-0,5
849,683	-0,51
850,112	-0,52
850,542	-0,55
850,972	-0,56
851,401	-0,53
851,831	-0,53
852,26	-0,53
852,69	-0,57
853,119	-0,57
853,548	-0,57
853,978	-0,57
854,407	-0,55
854,836	-0,55
855,266	-0,55
855,695	-0,56
856,124	-0,58
856,553	-0,58
856,983	-0,59
857,412	-0,59
857,841	-0,59
858,27	-0,6
858,699	-0,61
859,128	-0,65
859,557	-0,65
859,986	-0,65
860,415	-0,63
860,844	-0,6
861,273	-0,6
861,702	-0,61
862,13	-0,59
862,559	-0,62
862,988	-0,59
863,417	-0,58
863,845	-0,57
864,274	-0,58
864,703	-0,57
865,131	-0,58
865,56	-0,6
865,989	-0,63
866,417	-0,6
866,846	-0,61
867,274	-0,6
867,703	-0,62
868,131	-0,62
868,559	-0,63
868,988	-0,64
869,416	-0,63
869,844	-0,64
870,273	-0,65
870,701	-0,63
871,129	-0,66
871,557	-0,68
871,986	-0,68
872,414	-0,69
872,842	-0,67
873,27	-0,65
873,698	-0,62
874,126	-0,65
874,554	-0,64
874,982	-0,64
875,41	-0,67
875,838	-0,61
876,266	-0,59
876,694	-0,6
877,122	-0,59
877,549	-0,64
877,977	-0,61
878,405	-0,64
878,833	-0,61
879,26	-0,6
879,688	-0,6
880,116	-0,58
880,543	-0,57
880,971	-0,56
881,399	-0,58
881,826	-0,59
882,254	-0,58
882,681	-0,62
883,109	-0,58
883,536	-0,59
883,963	-0,61
884,391	-0,58
884,818	-0,57
885,245	-0,6
885,673	-0,61
886,1	-0,59
886,527	-0,59
886,954	-0,55
887,381	-0,57
887,809	-0,58
888,236	-0,6
888,663	-0,6
889,09	-0,64
889,517	-0,67
889,944	-0,66
890,371	-0,65
890,798	-0,65
891,225	-0,65
891,652	-0,68
892,078	-0,65
892,505	-0,68
892,932	-0,64
893,359	-0,65
893,786	-0,65
894,212	-0,62
894,639	-0,64
895,066	-0,67
895,492	-0,61
895,919	-0,61
896,346	-0,61
896,772	-0,61
897,199	-0,57
897,625	-0,59
898,052	-0,56
898,478	-0,54
898,904	-0,55
899,331	-0,54
899,757	-0,56
900,183	-0,58
900,61	-0,56
901,036	-0,57
901,462	-0,57
901,888	-0,57
902,315	-0,55
902,741	-0,6
903,167	-0,59
903,593	-0,62
904,019	-0,61
904,445	-0,57
904,871	-0,61
905,297	-0,62
905,723	-0,61
906,149	-0,59
906,575	-0,61
907,001	-0,61
907,427	-0,59
907,852	-0,58
908,278	-0,58
908,704	-0,56
909,13	-0,55
909,555	-0,54
909,981	-0,52
910,407	-0,52
910,832	-0,53
911,258	-0,54
911,684	-0,54
912,109	-0,54
912,535	-0,56
912,96	-0,52
913,386	-0,56
913,811	-0,55
914,236	-0,58
914,662	-0,57
915,087	-0,6
915,512	-0,6
915,938	-0,61
916,363	-0,6
916,788	-0,61
917,213	-0,6
917,639	-0,64
918,064	-0,62
918,489	-0,63
918,914	-0,63
919,339	-0,64
919,764	-0,61
920,189	-0,61
920,614	-0,63
921,039	-0,63
921,464	-0,59
921,889	-0,61
922,314	-0,63
922,738	-0,65
923,163	-0,66
923,588	-0,66
924,013	-0,65
924,437	-0,66
924,862	-0,67
925,287	-0,64
925,711	-0,65
926,136	-0,67
926,561	-0,65
926,985	-0,63
927,41	-0,61
927,834	-0,58
928,259	-0,55
928,683	-0,53
929,108	-0,5
929,532	-0,51
929,956	-0,49
930,381	-0,49
930,805	-0,49
931,229	-0,48
931,653	-0,47
932,078	-0,46
932,502	-0,48
932,926	-0,49
933,35	-0,49
933,774	-0,49
934,198	-0,47
934,622	-0,46
935,046	-0,47
935,47	-0,46
935,894	-0,46
936,318	-0,46
936,742	-0,46
937,166	-0,46
937,59	-0,46
938,014	-0,48
938,437	-0,49
938,861	-0,5
939,285	-0,52
939,709	-0,51
940,132	-0,52
940,556	-0,53
940,98	-0,53
941,403	-0,52
941,827	-0,52
942,25	-0,54
942,674	-0,53
943,097	-0,51
943,521	-0,51
943,944	-0,52
944,368	-0,51
944,791	-0,49
945,214	-0,51
945,638	-0,52
946,061	-0,55
946,484	-0,55
946,907	-0,54
947,331	-0,53
947,754	-0,58
948,177	-0,56
948,6	-0,56
949,023	-0,55
949,446	-0,56
949,869	-0,54
950,292	-0,54
950,715	-0,51
951,138	-0,49
951,561	-0,47
951,984	-0,48
952,407	-0,46
952,83	-0,44
953,252	-0,4
953,675	-0,4
954,098	-0,41
954,521	-0,4
954,943	-0,39
955,366	-0,39
955,789	-0,37
956,211	-0,39
956,634	-0,39
957,056	-0,36
957,479	-0,38
957,902	-0,4
958,324	-0,39
958,746	-0,37
959,169	-0,38
959,591	-0,39
960,014	-0,4
960,436	-0,4
960,858	-0,4
961,281	-0,4
961,703	-0,42
962,125	-0,41
962,547	-0,39
962,969	-0,4
963,391	-0,4
963,814	-0,41
964,236	-0,4
964,658	-0,36
965,08	-0,38
965,502	-0,37
965,924	-0,34
966,346	-0,33
966,768	-0,32
967,189	-0,35
967,611	-0,35
968,033	-0,35
968,455	-0,33
968,877	-0,34
969,298	-0,35
969,72	-0,36
970,142	-0,35
970,563	-0,36
970,985	-0,35
971,407	-0,34
971,828	-0,32
972,25	-0,31
972,671	-0,29
973,093	-0,29
973,514	-0,27
973,936	-0,26
974,357	-0,24
974,778	-0,24
975,2	-0,23
975,621	-0,22
976,042	-0,2
976,464	-0,19
976,885	-0,18
977,306	-0,18
977,727	-0,17
978,148	-0,16
978,57	-0,15
978,991	-0,14
979,412	-0,13
979,833	-0,12
980,254	-0,12
980,675	-0,12
981,096	-0,1
981,517	-0,09
981,937	-0,08
982,358	-0,07
982,779	-0,05
983,2	-0,05
983,621	-0,04
984,042	-0,02
984,462	0
984,883	0,02
985,304	0,03
985,724	0,03
986,145	0,05
986,565	0,06
986,986	0,07
987,407	0,08
987,827	0,09
988,248	0,11
988,668	0,11
989,088	0,12
989,509	0,14
989,929	0,15
990,35	0,16
990,77	0,17
991,19	0,18
991,61	0,2
992,031	0,21
992,451	0,22
992,871	0,23
993,291	0,24
993,711	0,25
994,131	0,25
994,551	0,26
994,971	0,27
995,391	0,28
995,811	0,29
996,231	0,29
996,651	0,3
997,071	0,31
997,491	0,31
997,911	0,32
998,331	0,33
998,75	0,33
999,17	0,34
999,59	0,34
1000,009	0,35
1000,429	0,35
1000,849	0,36
1001,268	0,36
1001,688	0,37
1002,107	0,37
1002,527	0,38
1002,946	0,38
1003,366	0,38
1003,785	0,39
1004,205	0,39
1004,624	0,39
1005,044	0,4
1005,463	0,4
1005,882	0,4
1006,301	0,4
1006,721	0,4
1007,14	0,4
1007,559	0,41
1007,978	0,41
1008,397	0,41
1008,816	0,41
1009,235	0,41
1009,655	0,41
1010,074	0,41
1010,492	0,41
1010,911	0,41
1011,33	0,41
1011,749	0,41
1012,168	0,4
1012,587	0,4
1013,006	0,4
1013,425	0,4
1013,843	0,4
1014,262	0,4
1014,681	0,4
1015,099	0,4
1015,518	0,4
1015,937	0,4
1016,355	0,4
1016,774	0,4
1017,192	0,4
1017,611	0,4
1018,029	0,4
1018,448	0,4
1018,866	0,4
1019,285	0,4
1019,703	0,39
1020,121	0,39
1020,54	0,39
1020,958	0,4
1021,376	0,4
1021,794	0,4
1022,213	0,39
1022,631	0,39
1023,049	0,39
1023,467	0,39
1023,885	0,39
1024,303	0,39
1024,721	0,39
1025,139	0,39
1025,557	0,39
1025,975	0,39
1026,393	0,39
1026,811	0,39
1027,229	0,38
1027,647	0,38
1028,065	0,38
1028,482	0,38
1028,9	0,38
1029,318	0,38
1029,735	0,38
1030,153	0,38
1030,571	0,38
1030,988	0,38
1031,406	0,38
1031,823	0,38
1032,241	0,38
1032,659	0,39
1033,076	0,39
1033,493	0,39
1033,911	0,39
1034,328	0,39
1034,746	0,39
1035,163	0,39
1035,58	0,39
1035,997	0,39
1036,415	0,39
1036,832	0,39
1037,249	0,39
1037,666	0,39
1038,083	0,39
1038,501	0,39
1038,918	0,39
1039,335	0,39
1039,752	0,39
1040,169	0,39
1040,586	0,39
1041,003	0,39
1041,419	0,39
1041,836	0,39
1042,253	0,39
1042,67	0,39
1043,087	0,39
1043,504	0,39
1043,92	0,38
1044,337	0,38
1044,754	0,38
1045,17	0,38
1045,587	0,38
1046,004	0,38
1046,42	0,38
1046,837	0,38
1047,253	0,38
1047,67	0,38
1048,086	0,38
1048,503	0,38
1048,919	0,38
1049,335	0,38
1049,752	0,38
1050,168	0,38
1050,584	0,38
1051,001	0,38
1051,417	0,38
1051,833	0,38
1052,249	0,38
1052,665	0,39
1053,081	0,39
1053,497	0,39
1053,914	0,39
1054,33	0,39
1054,746	0,39
1055,162	0,39
1055,578	0,39
1055,993	0,39
1056,409	0,39
1056,825	0,39
1057,241	0,39
1057,657	0,39
1058,073	0,39
1058,488	0,39
1058,904	0,39
1059,32	0,39
1059,736	0,39
1060,151	0,39
1060,567	0,39
1060,982	0,39
1061,398	0,39
1061,813	0,39
1062,229	0,39
1062,644	0,39
1063,06	0,39
1063,475	0,39
1063,891	0,39
1064,306	0,39
1064,721	0,39
1065,137	0,39
1065,552	0,39
1065,967	0,39
1066,382	0,39
1066,798	0,39
1067,213	0,39
1067,628	0,39
1068,043	0,39
1068,458	0,39
1068,873	0,39
1069,288	0,39
1069,703	0,39
1070,118	0,39
1070,533	0,39
1070,948	0,39
1071,363	0,39
1071,778	0,39
1072,193	0,39
1072,607	0,39
1073,022	0,39
1073,437	0,39
1073,852	0,39
1074,266	0,39
1074,681	0,39
1075,096	0,39
1075,51	0,39
1075,925	0,39
1076,339	0,39
1076,754	0,39
1077,168	0,39
1077,583	0,39
1077,997	0,39
1078,412	0,39
1078,826	0,39
1079,24	0,39
1079,655	0,39
1080,069	0,39
1080,483	0,39
1080,897	0,38
1081,312	0,38
1081,726	0,38
1082,14	0,38
1082,554	0,38
1082,968	0,38
1083,382	0,38
1083,796	0,38
1084,21	0,38
1084,624	0,38
1085,038	0,38
1085,452	0,38
1085,866	0,37
1086,28	0,37
1086,694	0,37
1087,108	0,37
1087,521	0,37
1087,935	0,37
1088,349	0,36
1088,763	0,36
1089,176	0,36
1089,59	0,36
1090,004	0,35
1090,417	0,35
1090,831	0,35
1091,244	0,34
1091,658	0,34
1092,071	0,34
1092,485	0,33
1092,898	0,33
1093,312	0,32
1093,725	0,32
1094,138	0,32
1094,552	0,32
1094,965	0,31
1095,378	0,31
1095,791	0,31
1096,205	0,31
1096,618	0,31
1097,031	0,3
1097,444	0,3
1097,857	0,3
1098,27	0,3
1098,683	0,29
1099,096	0,29
1099,509	0,29
1099,922	0,28
1100,335	0,28
1100,748	0,27
1101,161	0,27
1101,574	0,26
1101,986	0,26
1102,399	0,26
1102,812	0,25
1103,225	0,25
1103,637	0,25
1104,05	0,24
1104,463	0,24
1104,875	0,24
1105,288	0,24
1105,7	0,23
1106,113	0,23
1106,525	0,22
1106,938	0,21
1107,35	0,21
1107,763	0,21
1108,175	0,2
1108,588	0,2
1109	0,19
1109,412	0,18
1109,824	0,18
1110,237	0,19
1110,649	0,18
1111,061	0,17
