Data from 18C-808nm-8A-cont_Absorbance__535__01964.txt Node

Date: Mon Jul 17 17:38:53 CEST 2023
User: Laser008
Spectrometer: MAYP115816
Trigger mode: 0
Integration Time (sec): 2,500000E-1
Scans to average: 10
Electric dark correction enabled: true
Nonlinearity correction enabled: true
Boxcar width: 5
XAxis mode: Wavelengths
Number of Pixels in Spectrum: 2068
>>>>>Begin Spectral Data<<<<<
198,914	-0,75
199,384	-0,51
199,855	-0,38
200,325	-0,3
200,796	-0,26
201,266	-0,22
201,737	-0,2
202,207	-0,18
202,677	-0,17
203,147	-0,15
203,618	-0,12
204,088	-0,1
204,558	-0,08
205,028	-0,08
205,498	-0,08
205,968	-0,09
206,439	-0,1
206,909	-0,09
207,379	-0,1
207,849	-0,1
208,319	-0,1
208,789	-0,11
209,258	-0,11
209,728	-0,13
210,198	-0,12
210,668	-0,13
211,138	-0,12
211,608	-0,12
212,077	-0,12
212,547	-0,12
213,017	-0,13
213,486	-0,13
213,956	-0,13
214,426	-0,13
214,895	-0,13
215,365	-0,13
215,834	-0,14
216,304	-0,14
216,773	-0,14
217,243	-0,16
217,712	-0,17
218,181	-0,16
218,651	-0,16
219,12	-0,16
219,589	-0,17
220,058	-0,16
220,528	-0,18
220,997	-0,18
221,466	-0,19
221,935	-0,2
222,404	-0,19
222,873	-0,17
223,342	-0,17
223,812	-0,17
224,281	-0,17
224,749	-0,18
225,218	-0,19
225,687	-0,19
226,156	-0,17
226,625	-0,15
227,094	-0,15
227,563	-0,15
228,031	-0,17
228,5	-0,17
228,969	-0,17
229,438	-0,17
229,906	-0,16
230,375	-0,15
230,844	-0,14
231,312	-0,15
231,781	-0,16
232,249	-0,15
232,718	-0,15
233,186	-0,12
233,655	-0,13
234,123	-0,13
234,591	-0,12
235,06	-0,12
235,528	-0,13
235,996	-0,13
236,465	-0,13
236,933	-0,12
237,401	-0,13
237,869	-0,12
238,337	-0,13
238,805	-0,12
239,274	-0,11
239,742	-0,11
240,21	-0,11
240,678	-0,11
241,146	-0,1
241,614	-0,1
242,081	-0,1
242,549	-0,1
243,017	-0,1
243,485	-0,1
243,953	-0,1
244,421	-0,1
244,888	-0,1
245,356	-0,1
245,824	-0,09
246,291	-0,09
246,759	-0,1
247,227	-0,1
247,694	-0,09
248,162	-0,09
248,629	-0,08
249,097	-0,09
249,564	-0,1
250,032	-0,11
250,499	-0,11
250,967	-0,12
251,434	-0,12
251,901	-0,12
252,369	-0,12
252,836	-0,13
253,303	-0,14
253,77	-0,16
254,237	-0,15
254,705	-0,15
255,172	-0,14
255,639	-0,15
256,106	-0,17
256,573	-0,17
257,04	-0,17
257,507	-0,18
257,974	-0,18
258,441	-0,17
258,908	-0,16
259,375	-0,17
259,841	-0,17
260,308	-0,18
260,775	-0,18
261,242	-0,17
261,709	-0,17
262,175	-0,18
262,642	-0,17
263,109	-0,17
263,575	-0,18
264,042	-0,18
264,508	-0,18
264,975	-0,19
265,441	-0,2
265,908	-0,2
266,374	-0,2
266,841	-0,2
267,307	-0,2
267,773	-0,19
268,24	-0,19
268,706	-0,2
269,172	-0,2
269,639	-0,22
270,105	-0,19
270,571	-0,2
271,037	-0,2
271,503	-0,2
271,969	-0,21
272,435	-0,21
272,902	-0,22
273,368	-0,24
273,834	-0,23
274,3	-0,24
274,765	-0,23
275,231	-0,24
275,697	-0,23
276,163	-0,22
276,629	-0,22
277,095	-0,23
277,56	-0,22
278,026	-0,23
278,492	-0,21
278,958	-0,21
279,423	-0,21
279,889	-0,21
280,354	-0,22
280,82	-0,21
281,286	-0,23
281,751	-0,23
282,217	-0,22
282,682	-0,22
283,147	-0,21
283,613	-0,22
284,078	-0,21
284,544	-0,23
285,009	-0,22
285,474	-0,22
285,939	-0,23
286,405	-0,22
286,87	-0,22
287,335	-0,22
287,8	-0,22
288,265	-0,21
288,73	-0,23
289,195	-0,25
289,66	-0,24
290,125	-0,23
290,59	-0,23
291,055	-0,22
291,52	-0,22
291,985	-0,23
292,45	-0,23
292,915	-0,22
293,38	-0,23
293,844	-0,21
294,309	-0,2
294,774	-0,19
295,239	-0,21
295,703	-0,21
296,168	-0,21
296,632	-0,2
297,097	-0,19
297,562	-0,19
298,026	-0,2
298,491	-0,2
298,955	-0,19
299,419	-0,18
299,884	-0,18
300,348	-0,17
300,813	-0,16
301,277	-0,16
301,741	-0,16
302,205	-0,16
302,67	-0,15
303,134	-0,14
303,598	-0,14
304,062	-0,13
304,526	-0,13
304,99	-0,15
305,454	-0,15
305,919	-0,15
306,383	-0,15
306,847	-0,13
307,31	-0,14
307,774	-0,15
308,238	-0,15
308,702	-0,15
309,166	-0,16
309,63	-0,16
310,094	-0,13
310,557	-0,12
311,021	-0,13
311,485	-0,13
311,948	-0,13
312,412	-0,12
312,876	-0,1
313,339	-0,11
313,803	-0,12
314,266	-0,12
314,73	-0,12
315,193	-0,12
315,657	-0,1
316,12	-0,1
316,584	-0,09
317,047	-0,1
317,51	-0,09
317,973	-0,09
318,437	-0,07
318,9	-0,06
319,363	-0,05
319,826	-0,06
320,29	-0,07
320,753	-0,07
321,216	-0,06
321,679	-0,06
322,142	-0,05
322,605	-0,06
323,068	-0,06
323,531	-0,06
323,994	-0,05
324,457	-0,05
324,92	-0,04
325,382	-0,03
325,845	-0,03
326,308	-0,03
326,771	-0,02
327,233	-0,02
327,696	-0,01
328,159	-0
328,622	0
329,084	0
329,547	0
330,009	0
330,472	0,02
330,934	0,03
331,397	0,03
331,859	0,04
332,322	0,04
332,784	0,05
333,246	0,05
333,709	0,05
334,171	0,06
334,633	0,07
335,096	0,07
335,558	0,07
336,02	0,07
336,482	0,07
336,944	0,08
337,406	0,09
337,868	0,09
338,331	0,09
338,793	0,11
339,255	0,11
339,717	0,12
340,178	0,13
340,64	0,14
341,102	0,15
341,564	0,16
342,026	0,18
342,488	0,19
342,949	0,21
343,411	0,24
343,873	0,27
344,335	0,3
344,796	0,34
345,258	0,38
345,719	0,43
346,181	0,48
346,643	0,53
347,104	0,57
347,566	0,6
348,027	0,64
348,488	0,66
348,95	0,68
349,411	0,72
349,873	0,74
350,334	0,77
350,795	0,79
351,256	0,8
351,718	0,81
352,179	0,82
352,64	0,82
353,101	0,82
353,562	0,83
354,023	0,83
354,484	0,84
354,945	0,84
355,406	0,84
355,867	0,85
356,328	0,85
356,789	0,85
357,25	0,85
357,711	0,86
358,172	0,86
358,633	0,86
359,093	0,86
359,554	0,86
360,015	0,86
360,476	0,87
360,936	0,87
361,397	0,87
361,858	0,87
362,318	0,87
362,779	0,87
363,239	0,88
363,7	0,88
364,16	0,88
364,621	0,88
365,081	0,88
365,541	0,88
366,002	0,88
366,462	0,88
366,922	0,88
367,383	0,88
367,843	0,88
368,303	0,88
368,763	0,88
369,223	0,88
369,684	0,88
370,144	0,88
370,604	0,88
371,064	0,88
371,524	0,88
371,984	0,88
372,444	0,88
372,904	0,88
373,363	0,87
373,823	0,87
374,283	0,87
374,743	0,87
375,203	0,87
375,663	0,87
376,122	0,87
376,582	0,87
377,042	0,87
377,501	0,87
377,961	0,87
378,42	0,87
378,88	0,87
379,34	0,87
379,799	0,87
380,259	0,87
380,718	0,87
381,177	0,87
381,637	0,87
382,096	0,87
382,555	0,87
383,015	0,87
383,474	0,87
383,933	0,87
384,393	0,87
384,852	0,87
385,311	0,87
385,77	0,87
386,229	0,87
386,688	0,87
387,147	0,87
387,606	0,87
388,065	0,87
388,524	0,87
388,983	0,86
389,442	0,86
389,901	0,86
390,36	0,86
390,819	0,86
391,277	0,86
391,736	0,86
392,195	0,86
392,654	0,86
393,112	0,86
393,571	0,86
394,03	0,86
394,488	0,86
394,947	0,86
395,405	0,86
395,864	0,86
396,322	0,86
396,781	0,86
397,239	0,86
397,698	0,86
398,156	0,86
398,614	0,86
399,073	0,86
399,531	0,86
399,989	0,86
400,447	0,86
400,905	0,86
401,364	0,86
401,822	0,85
402,28	0,85
402,738	0,85
403,196	0,85
403,654	0,85
404,112	0,85
404,57	0,85
405,028	0,85
405,486	0,85
405,944	0,85
406,402	0,85
406,859	0,85
407,317	0,85
407,775	0,85
408,233	0,85
408,691	0,85
409,148	0,85
409,606	0,85
410,064	0,85
410,521	0,85
410,979	0,85
411,436	0,85
411,894	0,85
412,351	0,85
412,809	0,85
413,266	0,85
413,724	0,85
414,181	0,85
414,638	0,85
415,096	0,85
415,553	0,85
416,01	0,85
416,467	0,85
416,925	0,85
417,382	0,85
417,839	0,85
418,296	0,85
418,753	0,85
419,21	0,84
419,667	0,84
420,124	0,85
420,581	0,85
421,038	0,84
421,495	0,84
421,952	0,84
422,409	0,84
422,866	0,85
423,322	0,85
423,779	0,85
424,236	0,85
424,693	0,85
425,149	0,85
425,606	0,85
426,063	0,85
426,519	0,85
426,976	0,85
427,433	0,85
427,889	0,85
428,346	0,85
428,802	0,84
429,258	0,84
429,715	0,84
430,171	0,84
430,628	0,84
431,084	0,84
431,54	0,84
431,997	0,84
432,453	0,84
432,909	0,84
433,365	0,84
433,821	0,84
434,277	0,84
434,734	0,84
435,19	0,84
435,646	0,84
436,102	0,84
436,558	0,84
437,014	0,84
437,47	0,84
437,925	0,84
438,381	0,84
438,837	0,84
439,293	0,84
439,749	0,84
440,205	0,84
440,66	0,84
441,116	0,84
441,572	0,84
442,027	0,84
442,483	0,84
442,939	0,84
443,394	0,84
443,85	0,84
444,305	0,84
444,761	0,84
445,216	0,85
445,672	0,85
446,127	0,85
446,582	0,85
447,038	0,85
447,493	0,85
447,948	0,85
448,403	0,85
448,859	0,85
449,314	0,85
449,769	0,85
450,224	0,85
450,679	0,85
451,134	0,85
451,589	0,85
452,044	0,85
452,499	0,85
452,954	0,85
453,409	0,85
453,864	0,85
454,319	0,85
454,774	0,85
455,229	0,85
455,684	0,85
456,138	0,85
456,593	0,85
457,048	0,85
457,503	0,85
457,957	0,85
458,412	0,85
458,866	0,85
459,321	0,85
459,776	0,86
460,23	0,86
460,685	0,86
461,139	0,86
461,593	0,86
462,048	0,86
462,502	0,86
462,957	0,86
463,411	0,86
463,865	0,86
464,319	0,87
464,774	0,87
465,228	0,87
465,682	0,87
466,136	0,87
466,59	0,87
467,044	0,87
467,499	0,87
467,953	0,87
468,407	0,87
468,861	0,87
469,315	0,87
469,768	0,87
470,222	0,88
470,676	0,88
471,13	0,88
471,584	0,88
472,038	0,88
472,491	0,88
472,945	0,88
473,399	0,88
473,852	0,89
474,306	0,89
474,76	0,89
475,213	0,89
475,667	0,89
476,12	0,89
476,574	0,89
477,027	0,89
477,481	0,9
477,934	0,9
478,388	0,9
478,841	0,9
479,294	0,9
479,748	0,91
480,201	0,91
480,654	0,91
481,107	0,91
481,561	0,91
482,014	0,92
482,467	0,92
482,92	0,92
483,373	0,92
483,826	0,92
484,279	0,93
484,732	0,93
485,185	0,93
485,638	0,93
486,091	0,93
486,544	0,94
486,997	0,94
487,449	0,94
487,902	0,94
488,355	0,95
488,808	0,95
489,26	0,95
489,713	0,96
490,166	0,96
490,618	0,96
491,071	0,97
491,523	0,97
491,976	0,97
492,429	0,98
492,881	0,98
493,333	0,98
493,786	0,99
494,238	0,99
494,691	0,99
495,143	1
495,595	1
496,048	1
496,5	1,01
496,952	1,01
497,404	1,02
497,856	1,02
498,309	1,02
498,761	1,03
499,213	1,03
499,665	1,04
500,117	1,04
500,569	1,05
501,021	1,05
501,473	1,05
501,925	1,06
502,377	1,06
502,828	1,07
503,28	1,07
503,732	1,08
504,184	1,08
504,636	1,08
505,087	1,09
505,539	1,09
505,991	1,1
506,442	1,1
506,894	1,11
507,345	1,11
507,797	1,11
508,249	1,12
508,7	1,12
509,151	1,13
509,603	1,13
510,054	1,14
510,506	1,14
510,957	1,15
511,408	1,15
511,86	1,15
512,311	1,16
512,762	1,16
513,213	1,16
513,665	1,17
514,116	1,17
514,567	1,17
515,018	1,18
515,469	1,18
515,92	1,18
516,371	1,19
516,822	1,19
517,273	1,19
517,724	1,2
518,175	1,2
518,626	1,2
519,076	1,21
519,527	1,21
519,978	1,21
520,429	1,21
520,88	1,22
521,33	1,22
521,781	1,22
522,232	1,22
522,682	1,22
523,133	1,22
523,583	1,23
524,034	1,23
524,484	1,23
524,935	1,23
525,385	1,23
525,836	1,23
526,286	1,23
526,736	1,23
527,187	1,23
527,637	1,23
528,087	1,23
528,538	1,23
528,988	1,23
529,438	1,23
529,888	1,23
530,338	1,23
530,788	1,22
531,238	1,22
531,688	1,22
532,139	1,22
532,589	1,22
533,038	1,22
533,488	1,21
533,938	1,21
534,388	1,21
534,838	1,21
535,288	1,2
535,738	1,2
536,187	1,2
536,637	1,19
537,087	1,19
537,537	1,18
537,986	1,18
538,436	1,17
538,885	1,17
539,335	1,16
539,785	1,16
540,234	1,15
540,684	1,14
541,133	1,14
541,582	1,13
542,032	1,13
542,481	1,12
542,931	1,12
543,38	1,11
543,829	1,1
544,278	1,1
544,728	1,09
545,177	1,09
545,626	1,08
546,075	1,08
546,524	1,07
546,973	1,07
547,422	1,06
547,871	1,06
548,32	1,06
548,769	1,05
549,218	1,05
549,667	1,05
550,116	1,04
550,565	1,04
551,014	1,03
551,463	1,03
551,911	1,02
552,36	1,02
552,809	1,01
553,258	1,01
553,706	1
554,155	1
554,603	0,99
555,052	0,99
555,501	0,98
555,949	0,98
556,398	0,97
556,846	0,97
557,294	0,96
557,743	0,96
558,191	0,95
558,64	0,94
559,088	0,94
559,536	0,93
559,985	0,93
560,433	0,92
560,881	0,92
561,329	0,91
561,777	0,91
562,225	0,9
562,674	0,9
563,122	0,89
563,57	0,89
564,018	0,88
564,466	0,88
564,914	0,87
565,362	0,87
565,809	0,86
566,257	0,86
566,705	0,85
567,153	0,85
567,601	0,84
568,048	0,84
568,496	0,84
568,944	0,83
569,392	0,83
569,839	0,82
570,287	0,82
570,734	0,82
571,182	0,81
571,63	0,81
572,077	0,8
572,525	0,8
572,972	0,8
573,419	0,79
573,867	0,79
574,314	0,78
574,761	0,78
575,209	0,77
575,656	0,77
576,103	0,77
576,551	0,76
576,998	0,76
577,445	0,76
577,892	0,75
578,339	0,75
578,786	0,75
579,233	0,74
579,68	0,74
580,127	0,74
580,574	0,73
581,021	0,73
581,468	0,73
581,915	0,72
582,362	0,72
582,809	0,72
583,255	0,71
583,702	0,71
584,149	0,71
584,596	0,71
585,042	0,7
585,489	0,7
585,936	0,7
586,382	0,69
586,829	0,69
587,275	0,69
587,722	0,69
588,168	0,69
588,615	0,68
589,061	0,68
589,508	0,68
589,954	0,68
590,4	0,67
590,847	0,67
591,293	0,67
591,739	0,67
592,185	0,66
592,632	0,66
593,078	0,66
593,524	0,66
593,97	0,66
594,416	0,66
594,862	0,66
595,308	0,65
595,754	0,65
596,2	0,65
596,646	0,65
597,092	0,64
597,538	0,64
597,984	0,64
598,43	0,64
598,876	0,64
599,321	0,64
599,767	0,63
600,213	0,63
600,659	0,63
601,104	0,63
601,55	0,63
601,995	0,63
602,441	0,63
602,887	0,62
603,332	0,62
603,778	0,62
604,223	0,62
604,668	0,62
605,114	0,62
605,559	0,62
606,005	0,62
606,45	0,62
606,895	0,61
607,341	0,61
607,786	0,61
608,231	0,61
608,676	0,6
609,121	0,6
609,566	0,59
610,012	0,58
610,457	0,58
610,902	0,57
611,347	0,57
611,792	0,57
612,237	0,57
612,682	0,56
613,127	0,56
613,571	0,57
614,016	0,57
614,461	0,57
614,906	0,58
615,351	0,58
615,795	0,58
616,24	0,58
616,685	0,58
617,129	0,58
617,574	0,58
618,019	0,58
618,463	0,58
618,908	0,58
619,352	0,58
619,797	0,58
620,241	0,58
620,686	0,57
621,13	0,57
621,574	0,57
622,019	0,57
622,463	0,57
622,907	0,57
623,352	0,57
623,796	0,57
624,24	0,57
624,684	0,57
625,128	0,56
625,572	0,56
626,016	0,56
626,461	0,56
626,905	0,56
627,349	0,56
627,793	0,56
628,236	0,56
628,68	0,56
629,124	0,56
629,568	0,56
630,012	0,56
630,456	0,56
630,9	0,56
631,343	0,56
631,787	0,56
632,231	0,56
632,674	0,56
633,118	0,56
633,562	0,56
634,005	0,56
634,449	0,56
634,892	0,56
635,336	0,56
635,779	0,56
636,223	0,55
636,666	0,55
637,109	0,55
637,553	0,55
637,996	0,55
638,439	0,55
638,883	0,55
639,326	0,55
639,769	0,55
640,212	0,55
640,655	0,55
641,099	0,55
641,542	0,55
641,985	0,55
642,428	0,54
642,871	0,54
643,314	0,54
643,757	0,54
644,2	0,54
644,643	0,54
645,085	0,54
645,528	0,54
645,971	0,54
646,414	0,54
646,857	0,54
647,299	0,54
647,742	0,54
648,185	0,54
648,627	0,54
649,07	0,54
649,513	0,54
649,955	0,54
650,398	0,54
650,84	0,54
651,283	0,54
651,725	0,54
652,168	0,54
652,61	0,54
653,052	0,54
653,495	0,53
653,937	0,45
654,379	0,39
654,821	0,4
655,264	0,4
655,706	0,4
656,148	0,4
656,59	0,4
657,032	0,4
657,474	0,4
657,916	0,4
658,358	0,39
658,8	0,45
659,242	0,53
659,684	0,53
660,126	0,53
660,568	0,53
661,01	0,53
661,452	0,53
661,894	0,53
662,335	0,53
662,777	0,53
663,219	0,53
663,661	0,53
664,102	0,53
664,544	0,53
664,985	0,53
665,427	0,53
665,869	0,53
666,31	0,53
666,752	0,53
667,193	0,53
667,634	0,53
668,076	0,53
668,517	0,53
668,959	0,53
669,4	0,53
669,841	0,53
670,282	0,53
670,724	0,53
671,165	0,53
671,606	0,53
672,047	0,53
672,488	0,53
672,929	0,53
673,37	0,52
673,811	0,52
674,252	0,52
674,693	0,52
675,134	0,52
675,575	0,52
676,016	0,52
676,457	0,52
676,898	0,52
677,339	0,52
677,78	0,52
678,22	0,52
678,661	0,52
679,102	0,52
679,542	0,52
679,983	0,52
680,424	0,52
680,864	0,52
681,305	0,52
681,745	0,52
682,186	0,52
682,626	0,52
683,067	0,52
683,507	0,52
683,948	0,52
684,388	0,52
684,828	0,52
685,269	0,52
685,709	0,52
686,149	0,52
686,589	0,52
687,029	0,52
687,47	0,51
687,91	0,51
688,35	0,51
688,79	0,51
689,23	0,51
689,67	0,51
690,11	0,51
690,55	0,51
690,99	0,51
691,43	0,51
691,87	0,51
692,31	0,51
692,749	0,51
693,189	0,5
693,629	0,5
694,069	0,5
694,508	0,5
694,948	0,5
695,388	0,5
695,827	0,5
696,267	0,5
696,706	0,5
697,146	0,51
697,586	0,51
698,025	0,51
698,464	0,51
698,904	0,51
699,343	0,51
699,783	0,51
700,222	0,51
700,661	0,51
701,101	0,51
701,54	0,51
701,979	0,51
702,418	0,51
702,857	0,51
703,297	0,51
703,736	0,51
704,175	0,51
704,614	0,51
705,053	0,51
705,492	0,51
705,931	0,51
706,37	0,51
706,809	0,51
707,248	0,5
707,687	0,5
708,125	0,5
708,564	0,5
709,003	0,5
709,442	0,5
709,88	0,5
710,319	0,5
710,758	0,5
711,196	0,5
711,635	0,5
712,074	0,5
712,512	0,5
712,951	0,5
713,389	0,5
713,828	0,5
714,266	0,5
714,705	0,5
715,143	0,5
715,581	0,5
716,02	0,5
716,458	0,5
716,896	0,5
717,334	0,5
717,773	0,5
718,211	0,5
718,649	0,5
719,087	0,5
719,525	0,5
719,963	0,5
720,401	0,5
720,839	0,5
721,277	0,5
721,715	0,5
722,153	0,5
722,591	0,5
723,029	0,5
723,467	0,5
723,905	0,5
724,342	0,5
724,78	0,5
725,218	0,5
725,656	0,5
726,093	0,5
726,531	0,5
726,969	0,49
727,406	0,5
727,844	0,49
728,281	0,49
728,719	0,49
729,156	0,49
729,594	0,49
730,031	0,49
730,469	0,49
730,906	0,49
731,343	0,49
731,781	0,49
732,218	0,49
732,655	0,49
733,092	0,49
733,53	0,49
733,967	0,49
734,404	0,49
734,841	0,49
735,278	0,48
735,715	0,48
736,152	0,48
736,589	0,48
737,026	0,48
737,463	0,48
737,9	0,48
738,337	0,48
738,774	0,48
739,211	0,48
739,647	0,48
740,084	0,48
740,521	0,49
740,958	0,49
741,394	0,49
741,831	0,49
742,268	0,49
742,704	0,49
743,141	0,49
743,577	0,49
744,014	0,49
744,45	0,48
744,887	0,48
745,323	0,48
745,76	0,48
746,196	0,48
746,632	0,48
747,069	0,48
747,505	0,48
747,941	0,48
748,378	0,48
748,814	0,48
749,25	0,48
749,686	0,48
750,122	0,48
750,558	0,48
750,994	0,48
751,43	0,48
751,866	0,48
752,302	0,48
752,738	0,48
753,174	0,48
753,61	0,48
754,046	0,48
754,482	0,48
754,918	0,48
755,354	0,48
755,789	0,48
756,225	0,48
756,661	0,47
757,096	0,47
757,532	0,47
757,968	0,47
758,403	0,47
758,839	0,46
759,274	0,46
759,71	0,46
760,145	0,45
760,581	0,44
761,016	0,44
761,452	0,43
761,887	0,43
762,322	0,43
762,758	0,42
763,193	0,42
763,628	0,41
764,063	0,4
764,499	0,39
764,934	0,39
765,369	0,38
765,804	0,37
766,239	0,36
766,674	0,36
767,109	0,35
767,544	0,34
767,979	0,33
768,414	0,32
768,849	0,31
769,284	0,3
769,719	0,29
770,154	0,28
770,588	0,27
771,023	0,26
771,458	0,24
771,893	0,23
772,327	0,22
772,762	0,21
773,197	0,2
773,631	0,18
774,066	0,18
774,5	0,17
774,935	0,15
775,369	0,14
775,804	0,13
776,238	0,12
776,673	0,11
777,107	0,1
777,541	0,09
777,976	0,08
778,41	0,08
778,844	0,06
779,279	0,05
779,713	0,04
780,147	0,04
780,581	0,03
781,015	0,02
781,449	0,01
781,883	-0
782,317	-0,02
782,751	-0,02
783,185	-0,03
783,619	-0,03
784,053	-0,05
784,487	-0,06
784,921	-0,06
785,355	-0,07
785,789	-0,08
786,223	-0,08
786,656	-0,1
787,09	-0,11
787,524	-0,11
787,957	-0,12
788,391	-0,14
788,825	-0,16
789,258	-0,17
789,692	-0,19
790,125	-0,21
790,559	-0,23
790,992	-0,25
791,426	-0,27
791,859	-0,28
792,293	-0,32
792,726	-0,33
793,159	-0,35
793,593	-0,37
794,026	-0,4
794,459	-0,43
794,892	-0,45
795,326	-0,48
795,759	-0,52
796,192	-0,56
796,625	-0,61
797,058	-0,63
797,491	-0,68
797,924	-0,71
798,357	-0,76
798,79	-0,8
799,223	-0,84
799,656	-0,9
800,089	-0,94
800,522	-0,98
800,955	-1,03
801,387	-1,08
801,82	-1,14
802,253	-1,2
802,686	-1,28
803,118	-1,34
803,551	-1,39
803,984	-1,43
804,416	-1,47
804,849	-1,5
805,281	-1,58
805,714	-1,92
806,146	-2,42
806,579	-2,69
807,011	-2,86
807,444	-2,95
807,876	-3,04
808,308	-3,07
808,741	-3,1
809,173	-3,15
809,605	-3,17
810,037	-3,25
810,47	-3,18
810,902	-2,98
811,334	-2,82
811,766	-2,66
812,198	-2,41
812,63	-1,98
813,062	-1,78
813,494	-1,68
813,926	-1,6
814,358	-1,55
814,79	-1,46
815,222	-1,41
815,654	-1,36
816,086	-1,29
816,518	-1,24
816,949	-1,19
817,381	-1,14
817,813	-1,13
818,245	-1,09
818,676	-1,05
819,108	-1,01
819,54	-1
819,971	-0,98
820,403	-0,93
820,834	-0,92
821,266	-0,88
821,697	-0,85
822,129	-0,84
822,56	-0,81
822,991	-0,79
823,423	-0,77
823,854	-0,76
824,286	-0,74
824,717	-0,73
825,148	-0,71
825,579	-0,71
826,01	-0,69
826,442	-0,69
826,873	-0,67
827,304	-0,63
827,735	-0,62
828,166	-0,63
828,597	-0,62
829,028	-0,61
829,459	-0,61
829,89	-0,62
830,321	-0,57
830,752	-0,58
831,183	-0,56
831,613	-0,56
832,044	-0,55
832,475	-0,54
832,906	-0,55
833,336	-0,56
833,767	-0,56
834,198	-0,55
834,628	-0,54
835,059	-0,57
835,49	-0,58
835,92	-0,56
836,351	-0,56
836,781	-0,55
837,212	-0,58
837,642	-0,58
838,072	-0,56
838,503	-0,56
838,933	-0,54
839,364	-0,55
839,794	-0,52
840,224	-0,51
840,654	-0,56
841,085	-0,56
841,515	-0,53
841,945	-0,53
842,375	-0,49
842,805	-0,48
843,235	-0,47
843,665	-0,48
844,095	-0,47
844,525	-0,48
844,955	-0,49
845,385	-0,47
845,815	-0,45
846,245	-0,47
846,675	-0,48
847,105	-0,5
847,534	-0,5
847,964	-0,49
848,394	-0,48
848,824	-0,51
849,253	-0,5
849,683	-0,49
850,112	-0,51
850,542	-0,54
850,972	-0,55
851,401	-0,52
851,831	-0,51
852,26	-0,52
852,69	-0,56
853,119	-0,55
853,548	-0,55
853,978	-0,56
854,407	-0,55
854,836	-0,54
855,266	-0,54
855,695	-0,54
856,124	-0,55
856,553	-0,57
856,983	-0,58
857,412	-0,57
857,841	-0,57
858,27	-0,58
858,699	-0,58
859,128	-0,61
859,557	-0,62
859,986	-0,62
860,415	-0,61
860,844	-0,58
861,273	-0,59
861,702	-0,6
862,13	-0,58
862,559	-0,61
862,988	-0,58
863,417	-0,58
863,845	-0,58
864,274	-0,58
864,703	-0,59
865,131	-0,59
865,56	-0,6
865,989	-0,62
866,417	-0,59
866,846	-0,6
867,274	-0,59
867,703	-0,61
868,131	-0,62
868,559	-0,62
868,988	-0,65
869,416	-0,63
869,844	-0,65
870,273	-0,67
870,701	-0,65
871,129	-0,69
871,557	-0,7
871,986	-0,7
872,414	-0,72
872,842	-0,69
873,27	-0,66
873,698	-0,62
874,126	-0,66
874,554	-0,64
874,982	-0,64
875,41	-0,67
875,838	-0,62
876,266	-0,61
876,694	-0,61
877,122	-0,59
877,549	-0,64
877,977	-0,61
878,405	-0,65
878,833	-0,62
879,26	-0,6
879,688	-0,6
880,116	-0,57
880,543	-0,55
880,971	-0,54
881,399	-0,58
881,826	-0,58
882,254	-0,57
882,681	-0,6
883,109	-0,56
883,536	-0,58
883,963	-0,6
884,391	-0,58
884,818	-0,57
885,245	-0,61
885,673	-0,63
886,1	-0,6
886,527	-0,6
886,954	-0,56
887,381	-0,58
887,809	-0,58
888,236	-0,6
888,663	-0,61
889,09	-0,65
889,517	-0,68
889,944	-0,67
890,371	-0,66
890,798	-0,67
891,225	-0,67
891,652	-0,7
892,078	-0,67
892,505	-0,71
892,932	-0,66
893,359	-0,66
893,786	-0,65
894,212	-0,62
894,639	-0,63
895,066	-0,66
895,492	-0,6
895,919	-0,59
896,346	-0,59
896,772	-0,6
897,199	-0,56
897,625	-0,59
898,052	-0,55
898,478	-0,53
898,904	-0,55
899,331	-0,54
899,757	-0,55
900,183	-0,57
900,61	-0,55
901,036	-0,55
901,462	-0,55
901,888	-0,55
902,315	-0,54
902,741	-0,59
903,167	-0,58
903,593	-0,61
904,019	-0,59
904,445	-0,57
904,871	-0,59
905,297	-0,6
905,723	-0,6
906,149	-0,59
906,575	-0,61
907,001	-0,6
907,427	-0,58
907,852	-0,57
908,278	-0,58
908,704	-0,56
909,13	-0,54
909,555	-0,54
909,981	-0,54
910,407	-0,54
910,832	-0,54
911,258	-0,53
911,684	-0,54
912,109	-0,54
912,535	-0,56
912,96	-0,52
913,386	-0,55
913,811	-0,56
914,236	-0,58
914,662	-0,55
915,087	-0,58
915,512	-0,58
915,938	-0,6
916,363	-0,59
916,788	-0,61
917,213	-0,58
917,639	-0,63
918,064	-0,6
918,489	-0,61
918,914	-0,61
919,339	-0,62
919,764	-0,59
920,189	-0,59
920,614	-0,61
921,039	-0,61
921,464	-0,56
921,889	-0,6
922,314	-0,61
922,738	-0,65
923,163	-0,66
923,588	-0,67
924,013	-0,67
924,437	-0,67
924,862	-0,68
925,287	-0,64
925,711	-0,65
926,136	-0,67
926,561	-0,63
926,985	-0,63
927,41	-0,59
927,834	-0,56
928,259	-0,52
928,683	-0,5
929,108	-0,48
929,532	-0,49
929,956	-0,49
930,381	-0,49
930,805	-0,49
931,229	-0,49
931,653	-0,48
932,078	-0,48
932,502	-0,49
932,926	-0,5
933,35	-0,5
933,774	-0,49
934,198	-0,47
934,622	-0,46
935,046	-0,45
935,47	-0,45
935,894	-0,44
936,318	-0,44
936,742	-0,44
937,166	-0,45
937,59	-0,44
938,014	-0,47
938,437	-0,47
938,861	-0,49
939,285	-0,5
939,709	-0,49
940,132	-0,5
940,556	-0,49
940,98	-0,49
941,403	-0,48
941,827	-0,48
942,25	-0,5
942,674	-0,48
943,097	-0,48
943,521	-0,47
943,944	-0,49
944,368	-0,48
944,791	-0,46
945,214	-0,48
945,638	-0,49
946,061	-0,52
946,484	-0,53
946,907	-0,52
947,331	-0,51
947,754	-0,56
948,177	-0,53
948,6	-0,53
949,023	-0,53
949,446	-0,53
949,869	-0,52
950,292	-0,51
950,715	-0,48
951,138	-0,46
951,561	-0,45
951,984	-0,45
952,407	-0,43
952,83	-0,42
953,252	-0,38
953,675	-0,37
954,098	-0,39
954,521	-0,37
954,943	-0,37
955,366	-0,37
955,789	-0,35
956,211	-0,36
956,634	-0,36
957,056	-0,33
957,479	-0,34
957,902	-0,37
958,324	-0,36
958,746	-0,35
959,169	-0,37
959,591	-0,37
960,014	-0,37
960,436	-0,37
960,858	-0,37
961,281	-0,37
961,703	-0,39
962,125	-0,38
962,547	-0,36
962,969	-0,37
963,391	-0,37
963,814	-0,37
964,236	-0,37
964,658	-0,34
965,08	-0,35
965,502	-0,34
965,924	-0,32
966,346	-0,32
966,768	-0,31
967,189	-0,34
967,611	-0,33
968,033	-0,33
968,455	-0,31
968,877	-0,31
969,298	-0,32
969,72	-0,33
970,142	-0,32
970,563	-0,32
970,985	-0,31
971,407	-0,31
971,828	-0,28
972,25	-0,27
972,671	-0,25
973,093	-0,25
973,514	-0,24
973,936	-0,22
974,357	-0,21
974,778	-0,21
975,2	-0,21
975,621	-0,2
976,042	-0,18
976,464	-0,18
976,885	-0,17
977,306	-0,16
977,727	-0,15
978,148	-0,14
978,57	-0,13
978,991	-0,11
979,412	-0,1
979,833	-0,09
980,254	-0,08
980,675	-0,08
981,096	-0,07
981,517	-0,06
981,937	-0,05
982,358	-0,03
982,779	-0,02
983,2	-0,01
983,621	-0,01
984,042	0,02
984,462	0,03
984,883	0,04
985,304	0,06
985,724	0,07
986,145	0,08
986,565	0,09
986,986	0,1
987,407	0,11
987,827	0,13
988,248	0,15
988,668	0,15
989,088	0,16
989,509	0,17
989,929	0,19
990,35	0,2
990,77	0,22
991,19	0,23
991,61	0,25
992,031	0,25
992,451	0,26
992,871	0,28
993,291	0,29
993,711	0,3
994,131	0,31
994,551	0,32
994,971	0,33
995,391	0,34
995,811	0,34
996,231	0,35
996,651	0,36
997,071	0,36
997,491	0,37
997,911	0,38
998,331	0,39
998,75	0,39
999,17	0,4
999,59	0,4
1000,009	0,41
1000,429	0,42
1000,849	0,43
1001,268	0,43
1001,688	0,44
1002,107	0,44
1002,527	0,44
1002,946	0,45
1003,366	0,45
1003,785	0,46
1004,205	0,46
1004,624	0,46
1005,044	0,47
1005,463	0,47
1005,882	0,47
1006,301	0,47
1006,721	0,47
1007,14	0,48
1007,559	0,48
1007,978	0,48
1008,397	0,48
1008,816	0,48
1009,235	0,48
1009,655	0,48
1010,074	0,48
1010,492	0,48
1010,911	0,48
1011,33	0,48
1011,749	0,48
1012,168	0,48
1012,587	0,48
1013,006	0,48
1013,425	0,48
1013,843	0,48
1014,262	0,47
1014,681	0,47
1015,099	0,47
1015,518	0,47
1015,937	0,47
1016,355	0,47
1016,774	0,47
1017,192	0,47
1017,611	0,47
1018,029	0,47
1018,448	0,47
1018,866	0,47
1019,285	0,47
1019,703	0,47
1020,121	0,47
1020,54	0,47
1020,958	0,47
1021,376	0,47
1021,794	0,47
1022,213	0,47
1022,631	0,47
1023,049	0,47
1023,467	0,47
1023,885	0,47
1024,303	0,46
1024,721	0,46
1025,139	0,46
1025,557	0,46
1025,975	0,46
1026,393	0,46
1026,811	0,46
1027,229	0,46
1027,647	0,46
1028,065	0,45
1028,482	0,45
1028,9	0,45
1029,318	0,45
1029,735	0,45
1030,153	0,45
1030,571	0,45
1030,988	0,45
1031,406	0,45
1031,823	0,45
1032,241	0,45
1032,659	0,45
1033,076	0,46
1033,493	0,46
1033,911	0,46
1034,328	0,46
1034,746	0,46
1035,163	0,46
1035,58	0,46
1035,997	0,46
1036,415	0,46
1036,832	0,46
1037,249	0,46
1037,666	0,46
1038,083	0,46
1038,501	0,46
1038,918	0,45
1039,335	0,46
1039,752	0,46
1040,169	0,46
1040,586	0,46
1041,003	0,46
1041,419	0,46
1041,836	0,46
1042,253	0,46
1042,67	0,46
1043,087	0,46
1043,504	0,46
1043,92	0,46
1044,337	0,45
1044,754	0,45
1045,17	0,45
1045,587	0,45
1046,004	0,45
1046,42	0,45
1046,837	0,45
1047,253	0,45
1047,67	0,45
1048,086	0,45
1048,503	0,45
1048,919	0,45
1049,335	0,45
1049,752	0,45
1050,168	0,45
1050,584	0,45
1051,001	0,45
1051,417	0,45
1051,833	0,45
1052,249	0,45
1052,665	0,45
1053,081	0,46
1053,497	0,46
1053,914	0,46
1054,33	0,46
1054,746	0,46
1055,162	0,46
1055,578	0,46
1055,993	0,47
1056,409	0,47
1056,825	0,47
1057,241	0,47
1057,657	0,47
1058,073	0,47
1058,488	0,47
1058,904	0,47
1059,32	0,47
1059,736	0,47
1060,151	0,47
1060,567	0,47
1060,982	0,47
1061,398	0,47
1061,813	0,47
1062,229	0,47
1062,644	0,47
1063,06	0,46
1063,475	0,46
1063,891	0,46
1064,306	0,46
1064,721	0,46
1065,137	0,46
1065,552	0,46
1065,967	0,46
1066,382	0,46
1066,798	0,46
1067,213	0,46
1067,628	0,46
1068,043	0,46
1068,458	0,46
1068,873	0,46
1069,288	0,46
1069,703	0,46
1070,118	0,46
1070,533	0,46
1070,948	0,46
1071,363	0,46
1071,778	0,46
1072,193	0,46
1072,607	0,46
1073,022	0,46
1073,437	0,46
1073,852	0,46
1074,266	0,46
1074,681	0,46
1075,096	0,46
1075,51	0,46
1075,925	0,47
1076,339	0,46
1076,754	0,46
1077,168	0,46
1077,583	0,46
1077,997	0,46
1078,412	0,46
1078,826	0,46
1079,24	0,46
1079,655	0,45
1080,069	0,45
1080,483	0,45
1080,897	0,45
1081,312	0,45
1081,726	0,45
1082,14	0,45
1082,554	0,45
1082,968	0,45
1083,382	0,44
1083,796	0,44
1084,21	0,44
1084,624	0,44
1085,038	0,44
1085,452	0,44
1085,866	0,44
1086,28	0,43
1086,694	0,43
1087,108	0,43
1087,521	0,43
1087,935	0,43
1088,349	0,43
1088,763	0,42
1089,176	0,42
1089,59	0,42
1090,004	0,42
1090,417	0,42
1090,831	0,41
1091,244	0,41
1091,658	0,4
1092,071	0,4
1092,485	0,4
1092,898	0,4
1093,312	0,39
1093,725	0,39
1094,138	0,39
1094,552	0,38
1094,965	0,38
1095,378	0,38
1095,791	0,38
1096,205	0,38
1096,618	0,37
1097,031	0,36
1097,444	0,36
1097,857	0,35
1098,27	0,35
1098,683	0,35
1099,096	0,35
1099,509	0,34
1099,922	0,34
1100,335	0,33
1100,748	0,32
1101,161	0,32
1101,574	0,32
1101,986	0,31
1102,399	0,31
1102,812	0,31
1103,225	0,3
1103,637	0,3
1104,05	0,29
1104,463	0,3
1104,875	0,29
1105,288	0,29
1105,7	0,28
1106,113	0,28
1106,525	0,27
1106,938	0,26
1107,35	0,26
1107,763	0,26
1108,175	0,25
1108,588	0,24
1109	0,23
1109,412	0,22
1109,824	0,22
1110,237	0,22
1110,649	0,23
1111,061	0,22
