Data from 18C-808nm-8A-cont_Absorbance__647__02076.txt Node

Date: Mon Jul 17 17:43:33 CEST 2023
User: Laser008
Spectrometer: MAYP115816
Trigger mode: 0
Integration Time (sec): 2,500000E-1
Scans to average: 10
Electric dark correction enabled: true
Nonlinearity correction enabled: true
Boxcar width: 5
XAxis mode: Wavelengths
Number of Pixels in Spectrum: 2068
>>>>>Begin Spectral Data<<<<<
198,914	-0,7
199,384	-0,45
199,855	-0,33
200,325	-0,24
200,796	-0,2
201,266	-0,17
201,737	-0,16
202,207	-0,14
202,677	-0,13
203,147	-0,12
203,618	-0,09
204,088	-0,07
204,558	-0,06
205,028	-0,05
205,498	-0,07
205,968	-0,07
206,439	-0,08
206,909	-0,08
207,379	-0,09
207,849	-0,09
208,319	-0,09
208,789	-0,09
209,258	-0,09
209,728	-0,1
210,198	-0,1
210,668	-0,09
211,138	-0,09
211,608	-0,08
212,077	-0,08
212,547	-0,07
213,017	-0,07
213,486	-0,07
213,956	-0,08
214,426	-0,09
214,895	-0,09
215,365	-0,1
215,834	-0,1
216,304	-0,12
216,773	-0,13
217,243	-0,14
217,712	-0,14
218,181	-0,14
218,651	-0,15
219,12	-0,15
219,589	-0,15
220,058	-0,14
220,528	-0,16
220,997	-0,16
221,466	-0,17
221,935	-0,17
222,404	-0,17
222,873	-0,17
223,342	-0,17
223,812	-0,17
224,281	-0,17
224,749	-0,17
225,218	-0,19
225,687	-0,19
226,156	-0,18
226,625	-0,16
227,094	-0,16
227,563	-0,16
228,031	-0,18
228,5	-0,18
228,969	-0,18
229,438	-0,17
229,906	-0,16
230,375	-0,15
230,844	-0,15
231,312	-0,14
231,781	-0,15
232,249	-0,14
232,718	-0,14
233,186	-0,12
233,655	-0,12
234,123	-0,12
234,591	-0,11
235,06	-0,12
235,528	-0,13
235,996	-0,13
236,465	-0,12
236,933	-0,12
237,401	-0,12
237,869	-0,11
238,337	-0,11
238,805	-0,09
239,274	-0,09
239,742	-0,09
240,21	-0,08
240,678	-0,07
241,146	-0,06
241,614	-0,07
242,081	-0,06
242,549	-0,06
243,017	-0,07
243,485	-0,08
243,953	-0,08
244,421	-0,08
244,888	-0,08
245,356	-0,07
245,824	-0,07
246,291	-0,07
246,759	-0,08
247,227	-0,08
247,694	-0,08
248,162	-0,07
248,629	-0,07
249,097	-0,07
249,564	-0,08
250,032	-0,09
250,499	-0,09
250,967	-0,1
251,434	-0,11
251,901	-0,1
252,369	-0,11
252,836	-0,12
253,303	-0,13
253,77	-0,15
254,237	-0,14
254,705	-0,13
255,172	-0,13
255,639	-0,14
256,106	-0,16
256,573	-0,16
257,04	-0,16
257,507	-0,16
257,974	-0,16
258,441	-0,14
258,908	-0,14
259,375	-0,15
259,841	-0,16
260,308	-0,16
260,775	-0,16
261,242	-0,15
261,709	-0,15
262,175	-0,16
262,642	-0,15
263,109	-0,16
263,575	-0,17
264,042	-0,16
264,508	-0,16
264,975	-0,17
265,441	-0,17
265,908	-0,18
266,374	-0,17
266,841	-0,17
267,307	-0,17
267,773	-0,17
268,24	-0,17
268,706	-0,16
269,172	-0,18
269,639	-0,19
270,105	-0,17
270,571	-0,17
271,037	-0,17
271,503	-0,18
271,969	-0,18
272,435	-0,17
272,902	-0,2
273,368	-0,21
273,834	-0,21
274,3	-0,21
274,765	-0,2
275,231	-0,21
275,697	-0,2
276,163	-0,21
276,629	-0,21
277,095	-0,21
277,56	-0,2
278,026	-0,2
278,492	-0,18
278,958	-0,18
279,423	-0,2
279,889	-0,19
280,354	-0,2
280,82	-0,2
281,286	-0,21
281,751	-0,21
282,217	-0,2
282,682	-0,21
283,147	-0,21
283,613	-0,22
284,078	-0,22
284,544	-0,23
285,009	-0,23
285,474	-0,22
285,939	-0,23
286,405	-0,22
286,87	-0,22
287,335	-0,21
287,8	-0,21
288,265	-0,19
288,73	-0,2
289,195	-0,22
289,66	-0,21
290,125	-0,21
290,59	-0,21
291,055	-0,21
291,52	-0,21
291,985	-0,22
292,45	-0,23
292,915	-0,23
293,38	-0,24
293,844	-0,22
294,309	-0,2
294,774	-0,19
295,239	-0,2
295,703	-0,2
296,168	-0,19
296,632	-0,18
297,097	-0,17
297,562	-0,16
298,026	-0,16
298,491	-0,17
298,955	-0,17
299,419	-0,17
299,884	-0,17
300,348	-0,16
300,813	-0,15
301,277	-0,17
301,741	-0,16
302,205	-0,15
302,67	-0,14
303,134	-0,14
303,598	-0,13
304,062	-0,12
304,526	-0,11
304,99	-0,12
305,454	-0,13
305,919	-0,12
306,383	-0,12
306,847	-0,11
307,31	-0,12
307,774	-0,13
308,238	-0,13
308,702	-0,12
309,166	-0,14
309,63	-0,13
310,094	-0,11
310,557	-0,1
311,021	-0,1
311,485	-0,1
311,948	-0,09
312,412	-0,09
312,876	-0,09
313,339	-0,1
313,803	-0,11
314,266	-0,1
314,73	-0,1
315,193	-0,11
315,657	-0,09
316,12	-0,1
316,584	-0,08
317,047	-0,09
317,51	-0,07
317,973	-0,07
318,437	-0,06
318,9	-0,05
319,363	-0,04
319,826	-0,03
320,29	-0,03
320,753	-0,03
321,216	-0,03
321,679	-0,04
322,142	-0,04
322,605	-0,05
323,068	-0,05
323,531	-0,05
323,994	-0,04
324,457	-0,05
324,92	-0,04
325,382	-0,03
325,845	-0,03
326,308	-0,02
326,771	-0,01
327,233	-0,01
327,696	0,01
328,159	0,03
328,622	0,03
329,084	0,02
329,547	0,04
330,009	0,04
330,472	0,05
330,934	0,05
331,397	0,06
331,859	0,08
332,322	0,08
332,784	0,07
333,246	0,07
333,709	0,07
334,171	0,08
334,633	0,09
335,096	0,09
335,558	0,09
336,02	0,09
336,482	0,09
336,944	0,09
337,406	0,1
337,868	0,11
338,331	0,11
338,793	0,12
339,255	0,13
339,717	0,13
340,178	0,15
340,64	0,15
341,102	0,16
341,564	0,17
342,026	0,18
342,488	0,19
342,949	0,21
343,411	0,23
343,873	0,26
344,335	0,29
344,796	0,34
345,258	0,39
345,719	0,44
346,181	0,49
346,643	0,53
347,104	0,57
347,566	0,61
348,027	0,64
348,488	0,67
348,95	0,69
349,411	0,72
349,873	0,75
350,334	0,77
350,795	0,79
351,256	0,8
351,718	0,81
352,179	0,82
352,64	0,83
353,101	0,83
353,562	0,83
354,023	0,84
354,484	0,84
354,945	0,84
355,406	0,85
355,867	0,85
356,328	0,85
356,789	0,87
357,25	0,87
357,711	0,87
358,172	0,87
358,633	0,87
359,093	0,88
359,554	0,88
360,015	0,88
360,476	0,88
360,936	0,88
361,397	0,88
361,858	0,88
362,318	0,88
362,779	0,88
363,239	0,88
363,7	0,88
364,16	0,88
364,621	0,88
365,081	0,88
365,541	0,88
366,002	0,88
366,462	0,88
366,922	0,88
367,383	0,88
367,843	0,88
368,303	0,88
368,763	0,88
369,223	0,88
369,684	0,88
370,144	0,88
370,604	0,88
371,064	0,88
371,524	0,88
371,984	0,88
372,444	0,88
372,904	0,88
373,363	0,88
373,823	0,88
374,283	0,88
374,743	0,88
375,203	0,88
375,663	0,88
376,122	0,88
376,582	0,88
377,042	0,88
377,501	0,88
377,961	0,88
378,42	0,88
378,88	0,88
379,34	0,88
379,799	0,88
380,259	0,87
380,718	0,87
381,177	0,87
381,637	0,87
382,096	0,87
382,555	0,87
383,015	0,87
383,474	0,87
383,933	0,87
384,393	0,87
384,852	0,87
385,311	0,87
385,77	0,87
386,229	0,87
386,688	0,87
387,147	0,87
387,606	0,87
388,065	0,87
388,524	0,87
388,983	0,87
389,442	0,87
389,901	0,87
390,36	0,86
390,819	0,86
391,277	0,86
391,736	0,86
392,195	0,86
392,654	0,86
393,112	0,86
393,571	0,86
394,03	0,86
394,488	0,86
394,947	0,86
395,405	0,86
395,864	0,86
396,322	0,86
396,781	0,86
397,239	0,86
397,698	0,86
398,156	0,86
398,614	0,86
399,073	0,86
399,531	0,86
399,989	0,86
400,447	0,86
400,905	0,86
401,364	0,86
401,822	0,86
402,28	0,86
402,738	0,86
403,196	0,86
403,654	0,85
404,112	0,85
404,57	0,85
405,028	0,85
405,486	0,85
405,944	0,85
406,402	0,85
406,859	0,85
407,317	0,85
407,775	0,85
408,233	0,85
408,691	0,85
409,148	0,85
409,606	0,85
410,064	0,85
410,521	0,85
410,979	0,85
411,436	0,85
411,894	0,85
412,351	0,85
412,809	0,85
413,266	0,85
413,724	0,85
414,181	0,85
414,638	0,85
415,096	0,85
415,553	0,85
416,01	0,85
416,467	0,85
416,925	0,85
417,382	0,85
417,839	0,85
418,296	0,85
418,753	0,85
419,21	0,85
419,667	0,85
420,124	0,85
420,581	0,85
421,038	0,85
421,495	0,85
421,952	0,85
422,409	0,85
422,866	0,85
423,322	0,85
423,779	0,85
424,236	0,85
424,693	0,85
425,149	0,85
425,606	0,85
426,063	0,85
426,519	0,85
426,976	0,85
427,433	0,85
427,889	0,85
428,346	0,85
428,802	0,85
429,258	0,85
429,715	0,85
430,171	0,85
430,628	0,85
431,084	0,85
431,54	0,85
431,997	0,85
432,453	0,85
432,909	0,85
433,365	0,84
433,821	0,84
434,277	0,84
434,734	0,84
435,19	0,84
435,646	0,84
436,102	0,84
436,558	0,84
437,014	0,84
437,47	0,84
437,925	0,84
438,381	0,84
438,837	0,84
439,293	0,85
439,749	0,85
440,205	0,85
440,66	0,85
441,116	0,85
441,572	0,85
442,027	0,85
442,483	0,85
442,939	0,85
443,394	0,85
443,85	0,85
444,305	0,85
444,761	0,85
445,216	0,85
445,672	0,85
446,127	0,85
446,582	0,85
447,038	0,85
447,493	0,85
447,948	0,85
448,403	0,85
448,859	0,85
449,314	0,85
449,769	0,85
450,224	0,85
450,679	0,85
451,134	0,85
451,589	0,85
452,044	0,85
452,499	0,85
452,954	0,85
453,409	0,85
453,864	0,85
454,319	0,85
454,774	0,85
455,229	0,85
455,684	0,85
456,138	0,85
456,593	0,85
457,048	0,85
457,503	0,85
457,957	0,85
458,412	0,86
458,866	0,86
459,321	0,86
459,776	0,86
460,23	0,86
460,685	0,86
461,139	0,86
461,593	0,86
462,048	0,86
462,502	0,87
462,957	0,87
463,411	0,87
463,865	0,87
464,319	0,87
464,774	0,87
465,228	0,87
465,682	0,87
466,136	0,87
466,59	0,87
467,044	0,87
467,499	0,87
467,953	0,88
468,407	0,88
468,861	0,88
469,315	0,88
469,768	0,88
470,222	0,88
470,676	0,88
471,13	0,88
471,584	0,88
472,038	0,88
472,491	0,88
472,945	0,89
473,399	0,89
473,852	0,89
474,306	0,89
474,76	0,89
475,213	0,89
475,667	0,89
476,12	0,89
476,574	0,9
477,027	0,9
477,481	0,9
477,934	0,9
478,388	0,9
478,841	0,91
479,294	0,91
479,748	0,91
480,201	0,91
480,654	0,91
481,107	0,92
481,561	0,92
482,014	0,92
482,467	0,92
482,92	0,92
483,373	0,92
483,826	0,93
484,279	0,93
484,732	0,93
485,185	0,93
485,638	0,94
486,091	0,94
486,544	0,94
486,997	0,94
487,449	0,95
487,902	0,95
488,355	0,95
488,808	0,95
489,26	0,96
489,713	0,96
490,166	0,96
490,618	0,97
491,071	0,97
491,523	0,97
491,976	0,98
492,429	0,98
492,881	0,98
493,333	0,99
493,786	0,99
494,238	0,99
494,691	1
495,143	1
495,595	1,01
496,048	1,01
496,5	1,01
496,952	1,02
497,404	1,02
497,856	1,02
498,309	1,03
498,761	1,03
499,213	1,04
499,665	1,04
500,117	1,05
500,569	1,05
501,021	1,06
501,473	1,06
501,925	1,06
502,377	1,07
502,828	1,07
503,28	1,08
503,732	1,08
504,184	1,09
504,636	1,09
505,087	1,09
505,539	1,1
505,991	1,1
506,442	1,11
506,894	1,11
507,345	1,12
507,797	1,12
508,249	1,13
508,7	1,13
509,151	1,14
509,603	1,14
510,054	1,14
510,506	1,15
510,957	1,15
511,408	1,16
511,86	1,16
512,311	1,17
512,762	1,17
513,213	1,17
513,665	1,18
514,116	1,18
514,567	1,18
515,018	1,19
515,469	1,19
515,92	1,19
516,371	1,2
516,822	1,2
517,273	1,2
517,724	1,21
518,175	1,21
518,626	1,21
519,076	1,21
519,527	1,22
519,978	1,22
520,429	1,22
520,88	1,22
521,33	1,23
521,781	1,23
522,232	1,23
522,682	1,23
523,133	1,23
523,583	1,23
524,034	1,24
524,484	1,24
524,935	1,24
525,385	1,24
525,836	1,24
526,286	1,24
526,736	1,24
527,187	1,24
527,637	1,24
528,087	1,24
528,538	1,24
528,988	1,23
529,438	1,23
529,888	1,23
530,338	1,23
530,788	1,23
531,238	1,23
531,688	1,23
532,139	1,22
532,589	1,22
533,038	1,22
533,488	1,22
533,938	1,22
534,388	1,21
534,838	1,21
535,288	1,21
535,738	1,2
536,187	1,2
536,637	1,2
537,087	1,19
537,537	1,19
537,986	1,18
538,436	1,18
538,885	1,17
539,335	1,17
539,785	1,16
540,234	1,16
540,684	1,15
541,133	1,14
541,582	1,14
542,032	1,13
542,481	1,13
542,931	1,12
543,38	1,11
543,829	1,11
544,278	1,1
544,728	1,1
545,177	1,09
545,626	1,09
546,075	1,08
546,524	1,07
546,973	1,07
547,422	1,06
547,871	1,06
548,32	1,06
548,769	1,05
549,218	1,05
549,667	1,05
550,116	1,04
550,565	1,04
551,014	1,04
551,463	1,03
551,911	1,03
552,36	1,02
552,809	1,02
553,258	1,01
553,706	1
554,155	1
554,603	1
555,052	0,99
555,501	0,98
555,949	0,98
556,398	0,97
556,846	0,97
557,294	0,96
557,743	0,96
558,191	0,95
558,64	0,94
559,088	0,94
559,536	0,93
559,985	0,93
560,433	0,92
560,881	0,92
561,329	0,91
561,777	0,91
562,225	0,9
562,674	0,9
563,122	0,89
563,57	0,89
564,018	0,88
564,466	0,88
564,914	0,87
565,362	0,87
565,809	0,86
566,257	0,86
566,705	0,85
567,153	0,85
567,601	0,84
568,048	0,84
568,496	0,84
568,944	0,83
569,392	0,83
569,839	0,82
570,287	0,82
570,734	0,82
571,182	0,81
571,63	0,81
572,077	0,8
572,525	0,8
572,972	0,79
573,419	0,79
573,867	0,79
574,314	0,78
574,761	0,78
575,209	0,77
575,656	0,77
576,103	0,76
576,551	0,76
576,998	0,76
577,445	0,76
577,892	0,75
578,339	0,75
578,786	0,74
579,233	0,74
579,68	0,74
580,127	0,73
580,574	0,73
581,021	0,73
581,468	0,72
581,915	0,72
582,362	0,72
582,809	0,71
583,255	0,71
583,702	0,71
584,149	0,71
584,596	0,7
585,042	0,7
585,489	0,69
585,936	0,69
586,382	0,69
586,829	0,69
587,275	0,69
587,722	0,68
588,168	0,68
588,615	0,68
589,061	0,67
589,508	0,67
589,954	0,67
590,4	0,67
590,847	0,67
591,293	0,66
591,739	0,66
592,185	0,66
592,632	0,66
593,078	0,66
593,524	0,66
593,97	0,65
594,416	0,65
594,862	0,65
595,308	0,65
595,754	0,65
596,2	0,65
596,646	0,64
597,092	0,64
597,538	0,64
597,984	0,64
598,43	0,63
598,876	0,63
599,321	0,63
599,767	0,63
600,213	0,63
600,659	0,63
601,104	0,62
601,55	0,62
601,995	0,62
602,441	0,62
602,887	0,62
603,332	0,62
603,778	0,62
604,223	0,61
604,668	0,61
605,114	0,61
605,559	0,61
606,005	0,61
606,45	0,61
606,895	0,61
607,341	0,61
607,786	0,61
608,231	0,6
608,676	0,6
609,121	0,59
609,566	0,58
610,012	0,58
610,457	0,57
610,902	0,57
611,347	0,56
611,792	0,56
612,237	0,56
612,682	0,56
613,127	0,56
613,571	0,56
614,016	0,56
614,461	0,57
614,906	0,57
615,351	0,57
615,795	0,57
616,24	0,57
616,685	0,57
617,129	0,57
617,574	0,57
618,019	0,57
618,463	0,57
618,908	0,57
619,352	0,57
619,797	0,57
620,241	0,57
620,686	0,57
621,13	0,57
621,574	0,57
622,019	0,57
622,463	0,57
622,907	0,56
623,352	0,56
623,796	0,56
624,24	0,56
624,684	0,56
625,128	0,56
625,572	0,56
626,016	0,56
626,461	0,56
626,905	0,56
627,349	0,56
627,793	0,56
628,236	0,56
628,68	0,56
629,124	0,55
629,568	0,55
630,012	0,55
630,456	0,55
630,9	0,55
631,343	0,55
631,787	0,55
632,231	0,55
632,674	0,55
633,118	0,55
633,562	0,55
634,005	0,55
634,449	0,55
634,892	0,55
635,336	0,55
635,779	0,55
636,223	0,55
636,666	0,55
637,109	0,55
637,553	0,55
637,996	0,55
638,439	0,55
638,883	0,55
639,326	0,54
639,769	0,54
640,212	0,54
640,655	0,54
641,099	0,54
641,542	0,54
641,985	0,54
642,428	0,54
642,871	0,54
643,314	0,54
643,757	0,54
644,2	0,54
644,643	0,54
645,085	0,54
645,528	0,54
645,971	0,54
646,414	0,53
646,857	0,53
647,299	0,53
647,742	0,53
648,185	0,53
648,627	0,53
649,07	0,53
649,513	0,53
649,955	0,53
650,398	0,53
650,84	0,53
651,283	0,53
651,725	0,53
652,168	0,53
652,61	0,53
653,052	0,53
653,495	0,52
653,937	0,44
654,379	0,38
654,821	0,39
655,264	0,39
655,706	0,39
656,148	0,39
656,59	0,39
657,032	0,39
657,474	0,39
657,916	0,39
658,358	0,38
658,8	0,45
659,242	0,53
659,684	0,53
660,126	0,53
660,568	0,53
661,01	0,53
661,452	0,53
661,894	0,53
662,335	0,52
662,777	0,52
663,219	0,52
663,661	0,52
664,102	0,52
664,544	0,52
664,985	0,52
665,427	0,52
665,869	0,52
666,31	0,52
666,752	0,52
667,193	0,52
667,634	0,52
668,076	0,52
668,517	0,52
668,959	0,52
669,4	0,52
669,841	0,52
670,282	0,52
670,724	0,52
671,165	0,52
671,606	0,52
672,047	0,52
672,488	0,52
672,929	0,52
673,37	0,52
673,811	0,52
674,252	0,52
674,693	0,51
675,134	0,51
675,575	0,51
676,016	0,51
676,457	0,51
676,898	0,51
677,339	0,51
677,78	0,51
678,22	0,51
678,661	0,51
679,102	0,51
679,542	0,52
679,983	0,52
680,424	0,52
680,864	0,52
681,305	0,52
681,745	0,52
682,186	0,52
682,626	0,52
683,067	0,52
683,507	0,52
683,948	0,52
684,388	0,52
684,828	0,52
685,269	0,52
685,709	0,51
686,149	0,51
686,589	0,51
687,029	0,51
687,47	0,51
687,91	0,51
688,35	0,51
688,79	0,51
689,23	0,51
689,67	0,51
690,11	0,51
690,55	0,51
690,99	0,51
691,43	0,51
691,87	0,5
692,31	0,5
692,749	0,5
693,189	0,5
693,629	0,5
694,069	0,5
694,508	0,5
694,948	0,5
695,388	0,5
695,827	0,5
696,267	0,5
696,706	0,5
697,146	0,5
697,586	0,5
698,025	0,5
698,464	0,51
698,904	0,51
699,343	0,51
699,783	0,51
700,222	0,51
700,661	0,51
701,101	0,51
701,54	0,51
701,979	0,51
702,418	0,51
702,857	0,51
703,297	0,51
703,736	0,51
704,175	0,51
704,614	0,51
705,053	0,51
705,492	0,5
705,931	0,5
706,37	0,5
706,809	0,5
707,248	0,5
707,687	0,5
708,125	0,5
708,564	0,5
709,003	0,5
709,442	0,5
709,88	0,5
710,319	0,5
710,758	0,49
711,196	0,49
711,635	0,49
712,074	0,49
712,512	0,49
712,951	0,49
713,389	0,49
713,828	0,49
714,266	0,49
714,705	0,49
715,143	0,49
715,581	0,49
716,02	0,49
716,458	0,49
716,896	0,49
717,334	0,49
717,773	0,49
718,211	0,49
718,649	0,49
719,087	0,49
719,525	0,5
719,963	0,49
720,401	0,49
720,839	0,49
721,277	0,49
721,715	0,49
722,153	0,49
722,591	0,49
723,029	0,49
723,467	0,49
723,905	0,49
724,342	0,49
724,78	0,49
725,218	0,49
725,656	0,49
726,093	0,49
726,531	0,49
726,969	0,49
727,406	0,49
727,844	0,49
728,281	0,49
728,719	0,49
729,156	0,49
729,594	0,49
730,031	0,49
730,469	0,49
730,906	0,49
731,343	0,49
731,781	0,48
732,218	0,48
732,655	0,48
733,092	0,48
733,53	0,48
733,967	0,48
734,404	0,48
734,841	0,48
735,278	0,48
735,715	0,48
736,152	0,48
736,589	0,48
737,026	0,48
737,463	0,48
737,9	0,48
738,337	0,48
738,774	0,48
739,211	0,48
739,647	0,48
740,084	0,48
740,521	0,48
740,958	0,48
741,394	0,48
741,831	0,48
742,268	0,48
742,704	0,48
743,141	0,48
743,577	0,48
744,014	0,48
744,45	0,48
744,887	0,48
745,323	0,48
745,76	0,48
746,196	0,48
746,632	0,48
747,069	0,47
747,505	0,47
747,941	0,47
748,378	0,47
748,814	0,47
749,25	0,48
749,686	0,48
750,122	0,48
750,558	0,48
750,994	0,48
751,43	0,48
751,866	0,48
752,302	0,48
752,738	0,48
753,174	0,48
753,61	0,48
754,046	0,48
754,482	0,47
754,918	0,47
755,354	0,47
755,789	0,47
756,225	0,47
756,661	0,47
757,096	0,47
757,532	0,47
757,968	0,47
758,403	0,46
758,839	0,46
759,274	0,46
759,71	0,45
760,145	0,45
760,581	0,44
761,016	0,44
761,452	0,43
761,887	0,43
762,322	0,42
762,758	0,42
763,193	0,41
763,628	0,41
764,063	0,4
764,499	0,39
764,934	0,39
765,369	0,38
765,804	0,37
766,239	0,37
766,674	0,35
767,109	0,34
767,544	0,34
767,979	0,32
768,414	0,31
768,849	0,3
769,284	0,29
769,719	0,28
770,154	0,27
770,588	0,27
771,023	0,25
771,458	0,24
771,893	0,23
772,327	0,22
772,762	0,21
773,197	0,2
773,631	0,19
774,066	0,18
774,5	0,18
774,935	0,17
775,369	0,16
775,804	0,15
776,238	0,14
776,673	0,13
777,107	0,12
777,541	0,11
777,976	0,1
778,41	0,09
778,844	0,08
779,279	0,07
779,713	0,06
780,147	0,05
780,581	0,04
781,015	0,03
781,449	0,02
781,883	0,01
782,317	-0,01
782,751	-0,02
783,185	-0,02
783,619	-0,04
784,053	-0,05
784,487	-0,06
784,921	-0,06
785,355	-0,07
785,789	-0,08
786,223	-0,1
786,656	-0,11
787,09	-0,12
787,524	-0,13
787,957	-0,14
788,391	-0,16
788,825	-0,17
789,258	-0,19
789,692	-0,21
790,125	-0,22
790,559	-0,23
790,992	-0,25
791,426	-0,27
791,859	-0,28
792,293	-0,32
792,726	-0,33
793,159	-0,35
793,593	-0,37
794,026	-0,39
794,459	-0,42
794,892	-0,45
795,326	-0,47
795,759	-0,51
796,192	-0,55
796,625	-0,59
797,058	-0,62
797,491	-0,66
797,924	-0,7
798,357	-0,75
798,79	-0,79
799,223	-0,83
799,656	-0,88
800,089	-0,93
800,522	-0,97
800,955	-1,02
801,387	-1,07
801,82	-1,13
802,253	-1,19
802,686	-1,27
803,118	-1,32
803,551	-1,38
803,984	-1,42
804,416	-1,45
804,849	-1,48
805,281	-1,58
805,714	-1,92
806,146	-2,4
806,579	-2,68
807,011	-2,85
807,444	-2,95
807,876	-3,04
808,308	-3,08
808,741	-3,11
809,173	-3,16
809,605	-3,18
810,037	-3,26
810,47	-3,18
810,902	-2,99
811,334	-2,84
811,766	-2,69
812,198	-2,46
812,63	-2,02
813,062	-1,79
813,494	-1,69
813,926	-1,6
814,358	-1,55
814,79	-1,47
815,222	-1,41
815,654	-1,36
816,086	-1,29
816,518	-1,24
816,949	-1,19
817,381	-1,14
817,813	-1,12
818,245	-1,08
818,676	-1,04
819,108	-1,01
819,54	-1
819,971	-0,97
820,403	-0,92
820,834	-0,91
821,266	-0,86
821,697	-0,84
822,129	-0,82
822,56	-0,79
822,991	-0,77
823,423	-0,74
823,854	-0,73
824,286	-0,71
824,717	-0,7
825,148	-0,68
825,579	-0,67
826,01	-0,66
826,442	-0,66
826,873	-0,65
827,304	-0,61
827,735	-0,6
828,166	-0,6
828,597	-0,6
829,028	-0,58
829,459	-0,59
829,89	-0,59
830,321	-0,55
830,752	-0,56
831,183	-0,55
831,613	-0,54
832,044	-0,54
832,475	-0,53
832,906	-0,54
833,336	-0,55
833,767	-0,56
834,198	-0,56
834,628	-0,54
835,059	-0,57
835,49	-0,58
835,92	-0,55
836,351	-0,55
836,781	-0,55
837,212	-0,57
837,642	-0,56
838,072	-0,54
838,503	-0,55
838,933	-0,52
839,364	-0,53
839,794	-0,5
840,224	-0,5
840,654	-0,54
841,085	-0,54
841,515	-0,52
841,945	-0,53
842,375	-0,49
842,805	-0,49
843,235	-0,47
843,665	-0,49
844,095	-0,47
844,525	-0,49
844,955	-0,49
845,385	-0,47
845,815	-0,46
846,245	-0,48
846,675	-0,49
847,105	-0,5
847,534	-0,5
847,964	-0,48
848,394	-0,47
848,824	-0,51
849,253	-0,5
849,683	-0,5
850,112	-0,51
850,542	-0,54
850,972	-0,55
851,401	-0,52
851,831	-0,5
852,26	-0,5
852,69	-0,53
853,119	-0,53
853,548	-0,54
853,978	-0,54
854,407	-0,52
854,836	-0,52
855,266	-0,5
855,695	-0,52
856,124	-0,53
856,553	-0,54
856,983	-0,56
857,412	-0,56
857,841	-0,56
858,27	-0,57
858,699	-0,58
859,128	-0,62
859,557	-0,62
859,986	-0,64
860,415	-0,61
860,844	-0,58
861,273	-0,59
861,702	-0,6
862,13	-0,57
862,559	-0,59
862,988	-0,56
863,417	-0,54
863,845	-0,54
864,274	-0,54
864,703	-0,54
865,131	-0,55
865,56	-0,56
865,989	-0,58
866,417	-0,55
866,846	-0,56
867,274	-0,55
867,703	-0,57
868,131	-0,58
868,559	-0,58
868,988	-0,61
869,416	-0,6
869,844	-0,61
870,273	-0,64
870,701	-0,63
871,129	-0,66
871,557	-0,69
871,986	-0,69
872,414	-0,7
872,842	-0,68
873,27	-0,66
873,698	-0,62
874,126	-0,66
874,554	-0,64
874,982	-0,63
875,41	-0,66
875,838	-0,6
876,266	-0,58
876,694	-0,59
877,122	-0,58
877,549	-0,63
877,977	-0,6
878,405	-0,63
878,833	-0,6
879,26	-0,58
879,688	-0,58
880,116	-0,56
880,543	-0,55
880,971	-0,54
881,399	-0,57
881,826	-0,58
882,254	-0,55
882,681	-0,59
883,109	-0,55
883,536	-0,56
883,963	-0,59
884,391	-0,56
884,818	-0,55
885,245	-0,59
885,673	-0,61
886,1	-0,58
886,527	-0,57
886,954	-0,55
887,381	-0,56
887,809	-0,57
888,236	-0,58
888,663	-0,58
889,09	-0,62
889,517	-0,64
889,944	-0,63
890,371	-0,62
890,798	-0,62
891,225	-0,63
891,652	-0,65
892,078	-0,63
892,505	-0,66
892,932	-0,62
893,359	-0,63
893,786	-0,63
894,212	-0,6
894,639	-0,62
895,066	-0,64
895,492	-0,58
895,919	-0,58
896,346	-0,58
896,772	-0,59
897,199	-0,56
897,625	-0,59
898,052	-0,56
898,478	-0,54
898,904	-0,55
899,331	-0,55
899,757	-0,57
900,183	-0,59
900,61	-0,58
901,036	-0,58
901,462	-0,57
901,888	-0,57
902,315	-0,56
902,741	-0,61
903,167	-0,59
903,593	-0,62
904,019	-0,6
904,445	-0,56
904,871	-0,6
905,297	-0,61
905,723	-0,6
906,149	-0,59
906,575	-0,59
907,001	-0,59
907,427	-0,55
907,852	-0,55
908,278	-0,55
908,704	-0,52
909,13	-0,53
909,555	-0,51
909,981	-0,5
910,407	-0,51
910,832	-0,5
911,258	-0,51
911,684	-0,5
912,109	-0,51
912,535	-0,52
912,96	-0,48
913,386	-0,53
913,811	-0,51
914,236	-0,53
914,662	-0,51
915,087	-0,55
915,512	-0,56
915,938	-0,57
916,363	-0,57
916,788	-0,59
917,213	-0,57
917,639	-0,61
918,064	-0,58
918,489	-0,59
918,914	-0,59
919,339	-0,6
919,764	-0,57
920,189	-0,56
920,614	-0,59
921,039	-0,59
921,464	-0,56
921,889	-0,58
922,314	-0,6
922,738	-0,62
923,163	-0,64
923,588	-0,63
924,013	-0,62
924,437	-0,63
924,862	-0,64
925,287	-0,6
925,711	-0,61
926,136	-0,61
926,561	-0,6
926,985	-0,59
927,41	-0,57
927,834	-0,54
928,259	-0,52
928,683	-0,49
929,108	-0,46
929,532	-0,47
929,956	-0,47
930,381	-0,46
930,805	-0,46
931,229	-0,45
931,653	-0,43
932,078	-0,42
932,502	-0,43
932,926	-0,45
933,35	-0,45
933,774	-0,45
934,198	-0,43
934,622	-0,42
935,046	-0,42
935,47	-0,43
935,894	-0,43
936,318	-0,43
936,742	-0,43
937,166	-0,43
937,59	-0,42
938,014	-0,44
938,437	-0,45
938,861	-0,47
939,285	-0,48
939,709	-0,48
940,132	-0,48
940,556	-0,48
940,98	-0,48
941,403	-0,48
941,827	-0,47
942,25	-0,49
942,674	-0,49
943,097	-0,48
943,521	-0,48
943,944	-0,49
944,368	-0,47
944,791	-0,46
945,214	-0,49
945,638	-0,49
946,061	-0,52
946,484	-0,53
946,907	-0,52
947,331	-0,51
947,754	-0,54
948,177	-0,52
948,6	-0,51
949,023	-0,51
949,446	-0,51
949,869	-0,48
950,292	-0,48
950,715	-0,45
951,138	-0,43
951,561	-0,41
951,984	-0,41
952,407	-0,4
952,83	-0,39
953,252	-0,35
953,675	-0,36
954,098	-0,37
954,521	-0,36
954,943	-0,35
955,366	-0,35
955,789	-0,33
956,211	-0,35
956,634	-0,36
957,056	-0,34
957,479	-0,35
957,902	-0,36
958,324	-0,36
958,746	-0,33
959,169	-0,35
959,591	-0,36
960,014	-0,37
960,436	-0,37
960,858	-0,37
961,281	-0,36
961,703	-0,37
962,125	-0,37
962,547	-0,36
962,969	-0,37
963,391	-0,37
963,814	-0,38
964,236	-0,37
964,658	-0,34
965,08	-0,35
965,502	-0,33
965,924	-0,3
966,346	-0,31
966,768	-0,31
967,189	-0,33
967,611	-0,32
968,033	-0,32
968,455	-0,3
968,877	-0,31
969,298	-0,33
969,72	-0,33
970,142	-0,33
970,563	-0,34
970,985	-0,32
971,407	-0,31
971,828	-0,28
972,25	-0,27
972,671	-0,26
973,093	-0,25
973,514	-0,23
973,936	-0,21
974,357	-0,19
974,778	-0,19
975,2	-0,18
975,621	-0,17
976,042	-0,16
976,464	-0,16
976,885	-0,15
977,306	-0,14
977,727	-0,14
978,148	-0,13
978,57	-0,11
978,991	-0,11
979,412	-0,09
979,833	-0,08
980,254	-0,07
980,675	-0,07
981,096	-0,05
981,517	-0,03
981,937	-0,03
982,358	-0,01
982,779	-0
983,2	-0
983,621	0,01
984,042	0,02
984,462	0,04
984,883	0,05
985,304	0,06
985,724	0,08
986,145	0,09
986,565	0,11
986,986	0,11
987,407	0,11
987,827	0,13
988,248	0,14
988,668	0,16
989,088	0,17
989,509	0,18
989,929	0,19
990,35	0,21
990,77	0,23
991,19	0,23
991,61	0,25
992,031	0,27
992,451	0,28
992,871	0,29
993,291	0,3
993,711	0,31
994,131	0,31
994,551	0,32
994,971	0,33
995,391	0,34
995,811	0,35
996,231	0,35
996,651	0,36
997,071	0,37
997,491	0,38
997,911	0,39
998,331	0,4
998,75	0,4
999,17	0,41
999,59	0,41
1000,009	0,42
1000,429	0,42
1000,849	0,43
1001,268	0,44
1001,688	0,44
1002,107	0,44
1002,527	0,45
1002,946	0,45
1003,366	0,45
1003,785	0,46
1004,205	0,46
1004,624	0,46
1005,044	0,47
1005,463	0,47
1005,882	0,47
1006,301	0,47
1006,721	0,48
1007,14	0,48
1007,559	0,48
1007,978	0,48
1008,397	0,48
1008,816	0,48
1009,235	0,48
1009,655	0,48
1010,074	0,48
1010,492	0,48
1010,911	0,48
1011,33	0,48
1011,749	0,48
1012,168	0,48
1012,587	0,48
1013,006	0,48
1013,425	0,47
1013,843	0,47
1014,262	0,47
1014,681	0,47
1015,099	0,47
1015,518	0,47
1015,937	0,47
1016,355	0,47
1016,774	0,47
1017,192	0,47
1017,611	0,47
1018,029	0,47
1018,448	0,47
1018,866	0,47
1019,285	0,47
1019,703	0,47
1020,121	0,47
1020,54	0,47
1020,958	0,47
1021,376	0,47
1021,794	0,47
1022,213	0,47
1022,631	0,47
1023,049	0,47
1023,467	0,47
1023,885	0,47
1024,303	0,47
1024,721	0,46
1025,139	0,46
1025,557	0,46
1025,975	0,46
1026,393	0,46
1026,811	0,46
1027,229	0,46
1027,647	0,46
1028,065	0,46
1028,482	0,45
1028,9	0,45
1029,318	0,45
1029,735	0,45
1030,153	0,45
1030,571	0,45
1030,988	0,45
1031,406	0,45
1031,823	0,45
1032,241	0,45
1032,659	0,45
1033,076	0,46
1033,493	0,46
1033,911	0,46
1034,328	0,46
1034,746	0,46
1035,163	0,46
1035,58	0,46
1035,997	0,46
1036,415	0,46
1036,832	0,46
1037,249	0,46
1037,666	0,46
1038,083	0,46
1038,501	0,46
1038,918	0,45
1039,335	0,45
1039,752	0,45
1040,169	0,45
1040,586	0,45
1041,003	0,45
1041,419	0,45
1041,836	0,45
1042,253	0,45
1042,67	0,45
1043,087	0,45
1043,504	0,45
1043,92	0,45
1044,337	0,45
1044,754	0,45
1045,17	0,45
1045,587	0,45
1046,004	0,45
1046,42	0,45
1046,837	0,45
1047,253	0,45
1047,67	0,45
1048,086	0,45
1048,503	0,45
1048,919	0,45
1049,335	0,45
1049,752	0,45
1050,168	0,45
1050,584	0,45
1051,001	0,45
1051,417	0,45
1051,833	0,45
1052,249	0,45
1052,665	0,45
1053,081	0,46
1053,497	0,46
1053,914	0,46
1054,33	0,46
1054,746	0,46
1055,162	0,46
1055,578	0,46
1055,993	0,46
1056,409	0,46
1056,825	0,47
1057,241	0,47
1057,657	0,47
1058,073	0,47
1058,488	0,47
1058,904	0,47
1059,32	0,47
1059,736	0,47
1060,151	0,47
1060,567	0,47
1060,982	0,47
1061,398	0,47
1061,813	0,47
1062,229	0,47
1062,644	0,47
1063,06	0,47
1063,475	0,47
1063,891	0,47
1064,306	0,47
1064,721	0,46
1065,137	0,46
1065,552	0,46
1065,967	0,46
1066,382	0,46
1066,798	0,46
1067,213	0,46
1067,628	0,46
1068,043	0,46
1068,458	0,46
1068,873	0,46
1069,288	0,46
1069,703	0,46
1070,118	0,46
1070,533	0,46
1070,948	0,46
1071,363	0,46
1071,778	0,46
1072,193	0,46
1072,607	0,46
1073,022	0,46
1073,437	0,46
1073,852	0,46
1074,266	0,46
1074,681	0,46
1075,096	0,47
1075,51	0,46
1075,925	0,46
1076,339	0,46
1076,754	0,46
1077,168	0,46
1077,583	0,46
1077,997	0,46
1078,412	0,46
1078,826	0,46
1079,24	0,46
1079,655	0,45
1080,069	0,45
1080,483	0,45
1080,897	0,45
1081,312	0,45
1081,726	0,45
1082,14	0,45
1082,554	0,45
1082,968	0,45
1083,382	0,45
1083,796	0,44
1084,21	0,44
1084,624	0,44
1085,038	0,44
1085,452	0,44
1085,866	0,44
1086,28	0,44
1086,694	0,43
1087,108	0,44
1087,521	0,43
1087,935	0,43
1088,349	0,43
1088,763	0,43
1089,176	0,42
1089,59	0,42
1090,004	0,42
1090,417	0,42
1090,831	0,41
1091,244	0,41
1091,658	0,4
1092,071	0,4
1092,485	0,4
1092,898	0,39
1093,312	0,39
1093,725	0,39
1094,138	0,39
1094,552	0,38
1094,965	0,38
1095,378	0,38
1095,791	0,38
1096,205	0,38
1096,618	0,37
1097,031	0,37
1097,444	0,37
1097,857	0,36
1098,27	0,36
1098,683	0,36
1099,096	0,35
1099,509	0,35
1099,922	0,35
1100,335	0,34
1100,748	0,33
1101,161	0,33
1101,574	0,33
1101,986	0,32
1102,399	0,32
1102,812	0,32
1103,225	0,32
1103,637	0,31
1104,05	0,31
1104,463	0,31
1104,875	0,31
1105,288	0,3
1105,7	0,29
1106,113	0,29
1106,525	0,28
1106,938	0,28
1107,35	0,27
1107,763	0,27
1108,175	0,26
1108,588	0,26
1109	0,25
1109,412	0,25
1109,824	0,24
1110,237	0,25
1110,649	0,26
1111,061	0,26
