Data from 18C-808nm-8A-cont_Absorbance__136__01565.txt Node

Date: Mon Jul 17 17:22:15 CEST 2023
User: Laser008
Spectrometer: MAYP115816
Trigger mode: 0
Integration Time (sec): 2,500000E-1
Scans to average: 10
Electric dark correction enabled: true
Nonlinearity correction enabled: true
Boxcar width: 5
XAxis mode: Wavelengths
Number of Pixels in Spectrum: 2068
>>>>>Begin Spectral Data<<<<<
198,914	-0,69
199,384	-0,44
199,855	-0,31
200,325	-0,25
200,796	-0,21
201,266	-0,17
201,737	-0,15
202,207	-0,14
202,677	-0,13
203,147	-0,12
203,618	-0,09
204,088	-0,07
204,558	-0,06
205,028	-0,06
205,498	-0,07
205,968	-0,07
206,439	-0,09
206,909	-0,08
207,379	-0,08
207,849	-0,08
208,319	-0,08
208,789	-0,09
209,258	-0,09
209,728	-0,1
210,198	-0,1
210,668	-0,1
211,138	-0,09
211,608	-0,09
212,077	-0,09
212,547	-0,09
213,017	-0,1
213,486	-0,1
213,956	-0,11
214,426	-0,11
214,895	-0,11
215,365	-0,13
215,834	-0,12
216,304	-0,13
216,773	-0,13
217,243	-0,15
217,712	-0,17
218,181	-0,17
218,651	-0,17
219,12	-0,17
219,589	-0,16
220,058	-0,15
220,528	-0,15
220,997	-0,16
221,466	-0,17
221,935	-0,17
222,404	-0,16
222,873	-0,15
223,342	-0,14
223,812	-0,14
224,281	-0,14
224,749	-0,14
225,218	-0,16
225,687	-0,16
226,156	-0,14
226,625	-0,14
227,094	-0,14
227,563	-0,14
228,031	-0,16
228,5	-0,15
228,969	-0,17
229,438	-0,16
229,906	-0,15
230,375	-0,15
230,844	-0,15
231,312	-0,15
231,781	-0,16
232,249	-0,15
232,718	-0,15
233,186	-0,13
233,655	-0,15
234,123	-0,14
234,591	-0,14
235,06	-0,14
235,528	-0,14
235,996	-0,13
236,465	-0,13
236,933	-0,12
237,401	-0,12
237,869	-0,12
238,337	-0,12
238,805	-0,1
239,274	-0,09
239,742	-0,09
240,21	-0,09
240,678	-0,08
241,146	-0,07
241,614	-0,08
242,081	-0,07
242,549	-0,07
243,017	-0,07
243,485	-0,08
243,953	-0,09
244,421	-0,08
244,888	-0,09
245,356	-0,09
245,824	-0,09
246,291	-0,1
246,759	-0,1
247,227	-0,11
247,694	-0,1
248,162	-0,09
248,629	-0,08
249,097	-0,09
249,564	-0,1
250,032	-0,11
250,499	-0,11
250,967	-0,11
251,434	-0,11
251,901	-0,11
252,369	-0,11
252,836	-0,12
253,303	-0,13
253,77	-0,15
254,237	-0,14
254,705	-0,13
255,172	-0,12
255,639	-0,12
256,106	-0,14
256,573	-0,13
257,04	-0,13
257,507	-0,14
257,974	-0,14
258,441	-0,12
258,908	-0,12
259,375	-0,13
259,841	-0,14
260,308	-0,15
260,775	-0,14
261,242	-0,14
261,709	-0,15
262,175	-0,16
262,642	-0,16
263,109	-0,17
263,575	-0,19
264,042	-0,18
264,508	-0,18
264,975	-0,19
265,441	-0,2
265,908	-0,21
266,374	-0,2
266,841	-0,2
267,307	-0,19
267,773	-0,18
268,24	-0,18
268,706	-0,18
269,172	-0,19
269,639	-0,2
270,105	-0,17
270,571	-0,18
271,037	-0,18
271,503	-0,19
271,969	-0,18
272,435	-0,19
272,902	-0,21
273,368	-0,22
273,834	-0,22
274,3	-0,22
274,765	-0,22
275,231	-0,22
275,697	-0,21
276,163	-0,2
276,629	-0,19
277,095	-0,2
277,56	-0,19
278,026	-0,2
278,492	-0,18
278,958	-0,18
279,423	-0,18
279,889	-0,17
280,354	-0,18
280,82	-0,18
281,286	-0,2
281,751	-0,2
282,217	-0,19
282,682	-0,2
283,147	-0,19
283,613	-0,2
284,078	-0,2
284,544	-0,21
285,009	-0,22
285,474	-0,21
285,939	-0,22
286,405	-0,21
286,87	-0,2
287,335	-0,2
287,8	-0,2
288,265	-0,18
288,73	-0,2
289,195	-0,22
289,66	-0,21
290,125	-0,19
290,59	-0,2
291,055	-0,19
291,52	-0,19
291,985	-0,19
292,45	-0,21
292,915	-0,2
293,38	-0,21
293,844	-0,19
294,309	-0,18
294,774	-0,17
295,239	-0,18
295,703	-0,19
296,168	-0,18
296,632	-0,17
297,097	-0,16
297,562	-0,14
298,026	-0,14
298,491	-0,14
298,955	-0,14
299,419	-0,13
299,884	-0,14
300,348	-0,13
300,813	-0,12
301,277	-0,13
301,741	-0,13
302,205	-0,14
302,67	-0,13
303,134	-0,12
303,598	-0,12
304,062	-0,11
304,526	-0,1
304,99	-0,11
305,454	-0,11
305,919	-0,1
306,383	-0,09
306,847	-0,09
307,31	-0,1
307,774	-0,11
308,238	-0,11
308,702	-0,1
309,166	-0,12
309,63	-0,13
310,094	-0,11
310,557	-0,1
311,021	-0,1
311,485	-0,1
311,948	-0,09
312,412	-0,07
312,876	-0,07
313,339	-0,08
313,803	-0,09
314,266	-0,09
314,73	-0,09
315,193	-0,09
315,657	-0,08
316,12	-0,08
316,584	-0,08
317,047	-0,08
317,51	-0,08
317,973	-0,08
318,437	-0,07
318,9	-0,06
319,363	-0,05
319,826	-0,04
320,29	-0,06
320,753	-0,06
321,216	-0,06
321,679	-0,06
322,142	-0,04
322,605	-0,06
323,068	-0,05
323,531	-0,05
323,994	-0,04
324,457	-0,03
324,92	-0,02
325,382	-0
325,845	0
326,308	0,01
326,771	0,01
327,233	0,01
327,696	0,02
328,159	0,02
328,622	0,03
329,084	0,02
329,547	0,03
330,009	0,03
330,472	0,03
330,934	0,02
331,397	0,03
331,859	0,03
332,322	0,04
332,784	0,05
333,246	0,05
333,709	0,05
334,171	0,05
334,633	0,05
335,096	0,05
335,558	0,06
336,02	0,06
336,482	0,06
336,944	0,07
337,406	0,07
337,868	0,08
338,331	0,07
338,793	0,09
339,255	0,09
339,717	0,09
340,178	0,1
340,64	0,11
341,102	0,12
341,564	0,13
342,026	0,13
342,488	0,14
342,949	0,15
343,411	0,18
343,873	0,21
344,335	0,25
344,796	0,29
345,258	0,32
345,719	0,36
346,181	0,4
346,643	0,43
347,104	0,46
347,566	0,48
348,027	0,51
348,488	0,52
348,95	0,54
349,411	0,55
349,873	0,57
350,334	0,58
350,795	0,59
351,256	0,6
351,718	0,61
352,179	0,61
352,64	0,62
353,101	0,62
353,562	0,62
354,023	0,62
354,484	0,62
354,945	0,63
355,406	0,63
355,867	0,63
356,328	0,63
356,789	0,63
357,25	0,63
357,711	0,64
358,172	0,64
358,633	0,64
359,093	0,64
359,554	0,64
360,015	0,64
360,476	0,64
360,936	0,64
361,397	0,64
361,858	0,65
362,318	0,65
362,779	0,65
363,239	0,65
363,7	0,65
364,16	0,65
364,621	0,65
365,081	0,65
365,541	0,65
366,002	0,65
366,462	0,65
366,922	0,65
367,383	0,65
367,843	0,65
368,303	0,65
368,763	0,65
369,223	0,65
369,684	0,65
370,144	0,65
370,604	0,65
371,064	0,65
371,524	0,65
371,984	0,65
372,444	0,65
372,904	0,65
373,363	0,65
373,823	0,65
374,283	0,64
374,743	0,64
375,203	0,64
375,663	0,64
376,122	0,64
376,582	0,64
377,042	0,64
377,501	0,64
377,961	0,64
378,42	0,64
378,88	0,64
379,34	0,64
379,799	0,64
380,259	0,64
380,718	0,64
381,177	0,64
381,637	0,64
382,096	0,64
382,555	0,64
383,015	0,64
383,474	0,64
383,933	0,64
384,393	0,64
384,852	0,64
385,311	0,64
385,77	0,64
386,229	0,64
386,688	0,64
387,147	0,64
387,606	0,64
388,065	0,64
388,524	0,64
388,983	0,63
389,442	0,63
389,901	0,63
390,36	0,63
390,819	0,63
391,277	0,63
391,736	0,63
392,195	0,63
392,654	0,63
393,112	0,63
393,571	0,63
394,03	0,63
394,488	0,63
394,947	0,63
395,405	0,63
395,864	0,63
396,322	0,63
396,781	0,63
397,239	0,63
397,698	0,63
398,156	0,63
398,614	0,63
399,073	0,63
399,531	0,63
399,989	0,63
400,447	0,63
400,905	0,63
401,364	0,63
401,822	0,63
402,28	0,63
402,738	0,63
403,196	0,62
403,654	0,62
404,112	0,62
404,57	0,62
405,028	0,62
405,486	0,62
405,944	0,62
406,402	0,62
406,859	0,62
407,317	0,62
407,775	0,62
408,233	0,62
408,691	0,62
409,148	0,62
409,606	0,62
410,064	0,62
410,521	0,62
410,979	0,62
411,436	0,62
411,894	0,62
412,351	0,62
412,809	0,62
413,266	0,62
413,724	0,62
414,181	0,62
414,638	0,62
415,096	0,62
415,553	0,62
416,01	0,62
416,467	0,62
416,925	0,62
417,382	0,62
417,839	0,62
418,296	0,62
418,753	0,62
419,21	0,62
419,667	0,62
420,124	0,62
420,581	0,62
421,038	0,62
421,495	0,62
421,952	0,62
422,409	0,62
422,866	0,62
423,322	0,62
423,779	0,62
424,236	0,62
424,693	0,62
425,149	0,62
425,606	0,62
426,063	0,62
426,519	0,62
426,976	0,62
427,433	0,62
427,889	0,62
428,346	0,62
428,802	0,62
429,258	0,62
429,715	0,62
430,171	0,62
430,628	0,62
431,084	0,62
431,54	0,62
431,997	0,62
432,453	0,62
432,909	0,61
433,365	0,61
433,821	0,61
434,277	0,61
434,734	0,61
435,19	0,61
435,646	0,61
436,102	0,61
436,558	0,61
437,014	0,61
437,47	0,61
437,925	0,61
438,381	0,61
438,837	0,61
439,293	0,61
439,749	0,61
440,205	0,61
440,66	0,61
441,116	0,61
441,572	0,61
442,027	0,61
442,483	0,61
442,939	0,61
443,394	0,61
443,85	0,62
444,305	0,62
444,761	0,62
445,216	0,62
445,672	0,62
446,127	0,62
446,582	0,62
447,038	0,62
447,493	0,62
447,948	0,62
448,403	0,62
448,859	0,62
449,314	0,62
449,769	0,62
450,224	0,62
450,679	0,62
451,134	0,62
451,589	0,62
452,044	0,62
452,499	0,62
452,954	0,62
453,409	0,62
453,864	0,62
454,319	0,62
454,774	0,62
455,229	0,62
455,684	0,62
456,138	0,62
456,593	0,62
457,048	0,62
457,503	0,62
457,957	0,62
458,412	0,62
458,866	0,62
459,321	0,62
459,776	0,62
460,23	0,62
460,685	0,62
461,139	0,62
461,593	0,62
462,048	0,62
462,502	0,63
462,957	0,63
463,411	0,63
463,865	0,63
464,319	0,63
464,774	0,63
465,228	0,63
465,682	0,63
466,136	0,63
466,59	0,63
467,044	0,63
467,499	0,63
467,953	0,63
468,407	0,63
468,861	0,64
469,315	0,64
469,768	0,64
470,222	0,64
470,676	0,64
471,13	0,64
471,584	0,64
472,038	0,64
472,491	0,64
472,945	0,64
473,399	0,64
473,852	0,64
474,306	0,64
474,76	0,64
475,213	0,64
475,667	0,65
476,12	0,65
476,574	0,65
477,027	0,65
477,481	0,65
477,934	0,65
478,388	0,65
478,841	0,65
479,294	0,65
479,748	0,66
480,201	0,66
480,654	0,66
481,107	0,66
481,561	0,66
482,014	0,66
482,467	0,67
482,92	0,67
483,373	0,67
483,826	0,67
484,279	0,67
484,732	0,67
485,185	0,67
485,638	0,68
486,091	0,68
486,544	0,68
486,997	0,68
487,449	0,68
487,902	0,68
488,355	0,69
488,808	0,69
489,26	0,69
489,713	0,69
490,166	0,69
490,618	0,7
491,071	0,7
491,523	0,7
491,976	0,7
492,429	0,71
492,881	0,71
493,333	0,71
493,786	0,71
494,238	0,72
494,691	0,72
495,143	0,72
495,595	0,72
496,048	0,73
496,5	0,73
496,952	0,73
497,404	0,74
497,856	0,74
498,309	0,74
498,761	0,74
499,213	0,75
499,665	0,75
500,117	0,75
500,569	0,76
501,021	0,76
501,473	0,76
501,925	0,77
502,377	0,77
502,828	0,77
503,28	0,78
503,732	0,78
504,184	0,78
504,636	0,79
505,087	0,79
505,539	0,79
505,991	0,8
506,442	0,8
506,894	0,8
507,345	0,81
507,797	0,81
508,249	0,81
508,7	0,82
509,151	0,82
509,603	0,82
510,054	0,83
510,506	0,83
510,957	0,83
511,408	0,84
511,86	0,84
512,311	0,84
512,762	0,84
513,213	0,85
513,665	0,85
514,116	0,85
514,567	0,86
515,018	0,86
515,469	0,86
515,92	0,86
516,371	0,87
516,822	0,87
517,273	0,87
517,724	0,87
518,175	0,88
518,626	0,88
519,076	0,88
519,527	0,88
519,978	0,89
520,429	0,89
520,88	0,89
521,33	0,89
521,781	0,89
522,232	0,89
522,682	0,89
523,133	0,9
523,583	0,9
524,034	0,9
524,484	0,9
524,935	0,9
525,385	0,9
525,836	0,9
526,286	0,9
526,736	0,9
527,187	0,9
527,637	0,9
528,087	0,9
528,538	0,9
528,988	0,9
529,438	0,9
529,888	0,9
530,338	0,9
530,788	0,9
531,238	0,9
531,688	0,9
532,139	0,89
532,589	0,89
533,038	0,89
533,488	0,89
533,938	0,89
534,388	0,89
534,838	0,88
535,288	0,88
535,738	0,88
536,187	0,88
536,637	0,87
537,087	0,87
537,537	0,87
537,986	0,87
538,436	0,86
538,885	0,86
539,335	0,85
539,785	0,85
540,234	0,85
540,684	0,84
541,133	0,84
541,582	0,84
542,032	0,83
542,481	0,83
542,931	0,82
543,38	0,82
543,829	0,82
544,278	0,81
544,728	0,81
545,177	0,81
545,626	0,8
546,075	0,8
546,524	0,8
546,973	0,79
547,422	0,79
547,871	0,79
548,32	0,78
548,769	0,78
549,218	0,78
549,667	0,78
550,116	0,78
550,565	0,77
551,014	0,77
551,463	0,77
551,911	0,76
552,36	0,76
552,809	0,75
553,258	0,75
553,706	0,75
554,155	0,74
554,603	0,74
555,052	0,74
555,501	0,73
555,949	0,73
556,398	0,73
556,846	0,72
557,294	0,72
557,743	0,72
558,191	0,71
558,64	0,71
559,088	0,7
559,536	0,7
559,985	0,7
560,433	0,69
560,881	0,69
561,329	0,69
561,777	0,68
562,225	0,68
562,674	0,68
563,122	0,67
563,57	0,67
564,018	0,67
564,466	0,66
564,914	0,66
565,362	0,66
565,809	0,65
566,257	0,65
566,705	0,65
567,153	0,65
567,601	0,64
568,048	0,64
568,496	0,64
568,944	0,63
569,392	0,63
569,839	0,63
570,287	0,63
570,734	0,62
571,182	0,62
571,63	0,62
572,077	0,61
572,525	0,61
572,972	0,61
573,419	0,61
573,867	0,6
574,314	0,6
574,761	0,6
575,209	0,59
575,656	0,59
576,103	0,59
576,551	0,59
576,998	0,59
577,445	0,58
577,892	0,58
578,339	0,58
578,786	0,58
579,233	0,57
579,68	0,57
580,127	0,57
580,574	0,57
581,021	0,56
581,468	0,56
581,915	0,56
582,362	0,56
582,809	0,56
583,255	0,55
583,702	0,55
584,149	0,55
584,596	0,55
585,042	0,55
585,489	0,54
585,936	0,54
586,382	0,54
586,829	0,54
587,275	0,54
587,722	0,54
588,168	0,53
588,615	0,53
589,061	0,53
589,508	0,53
589,954	0,53
590,4	0,53
590,847	0,53
591,293	0,52
591,739	0,52
592,185	0,52
592,632	0,52
593,078	0,52
593,524	0,52
593,97	0,52
594,416	0,52
594,862	0,52
595,308	0,51
595,754	0,51
596,2	0,51
596,646	0,51
597,092	0,51
597,538	0,51
597,984	0,51
598,43	0,51
598,876	0,51
599,321	0,51
599,767	0,5
600,213	0,5
600,659	0,5
601,104	0,5
601,55	0,5
601,995	0,5
602,441	0,5
602,887	0,5
603,332	0,49
603,778	0,49
604,223	0,49
604,668	0,49
605,114	0,49
605,559	0,49
606,005	0,49
606,45	0,49
606,895	0,49
607,341	0,49
607,786	0,49
608,231	0,48
608,676	0,48
609,121	0,48
609,566	0,47
610,012	0,47
610,457	0,46
610,902	0,46
611,347	0,46
611,792	0,46
612,237	0,45
612,682	0,45
613,127	0,45
613,571	0,45
614,016	0,46
614,461	0,46
614,906	0,46
615,351	0,46
615,795	0,46
616,24	0,46
616,685	0,46
617,129	0,46
617,574	0,46
618,019	0,46
618,463	0,46
618,908	0,46
619,352	0,46
619,797	0,46
620,241	0,46
620,686	0,46
621,13	0,46
621,574	0,46
622,019	0,46
622,463	0,46
622,907	0,46
623,352	0,46
623,796	0,46
624,24	0,45
624,684	0,45
625,128	0,45
625,572	0,45
626,016	0,45
626,461	0,45
626,905	0,45
627,349	0,45
627,793	0,45
628,236	0,45
628,68	0,45
629,124	0,45
629,568	0,45
630,012	0,45
630,456	0,45
630,9	0,45
631,343	0,45
631,787	0,45
632,231	0,45
632,674	0,45
633,118	0,45
633,562	0,45
634,005	0,45
634,449	0,45
634,892	0,45
635,336	0,45
635,779	0,45
636,223	0,45
636,666	0,45
637,109	0,45
637,553	0,45
637,996	0,45
638,439	0,45
638,883	0,45
639,326	0,45
639,769	0,45
640,212	0,44
640,655	0,44
641,099	0,44
641,542	0,44
641,985	0,44
642,428	0,44
642,871	0,44
643,314	0,44
643,757	0,44
644,2	0,44
644,643	0,44
645,085	0,44
645,528	0,44
645,971	0,44
646,414	0,44
646,857	0,44
647,299	0,44
647,742	0,44
648,185	0,44
648,627	0,43
649,07	0,43
649,513	0,43
649,955	0,43
650,398	0,43
650,84	0,44
651,283	0,44
651,725	0,44
652,168	0,44
652,61	0,44
653,052	0,44
653,495	0,44
653,937	0,35
654,379	0,29
654,821	0,3
655,264	0,3
655,706	0,3
656,148	0,3
656,59	0,3
657,032	0,3
657,474	0,3
657,916	0,3
658,358	0,29
658,8	0,35
659,242	0,43
659,684	0,43
660,126	0,43
660,568	0,43
661,01	0,43
661,452	0,43
661,894	0,43
662,335	0,43
662,777	0,43
663,219	0,43
663,661	0,43
664,102	0,43
664,544	0,43
664,985	0,43
665,427	0,43
665,869	0,43
666,31	0,43
666,752	0,43
667,193	0,43
667,634	0,43
668,076	0,43
668,517	0,43
668,959	0,43
669,4	0,43
669,841	0,43
670,282	0,43
670,724	0,43
671,165	0,43
671,606	0,43
672,047	0,43
672,488	0,43
672,929	0,43
673,37	0,43
673,811	0,43
674,252	0,43
674,693	0,42
675,134	0,42
675,575	0,42
676,016	0,42
676,457	0,42
676,898	0,42
677,339	0,42
677,78	0,42
678,22	0,42
678,661	0,42
679,102	0,42
679,542	0,42
679,983	0,42
680,424	0,42
680,864	0,42
681,305	0,42
681,745	0,42
682,186	0,42
682,626	0,42
683,067	0,42
683,507	0,42
683,948	0,42
684,388	0,42
684,828	0,42
685,269	0,42
685,709	0,42
686,149	0,42
686,589	0,41
687,029	0,41
687,47	0,41
687,91	0,41
688,35	0,41
688,79	0,41
689,23	0,41
689,67	0,41
690,11	0,41
690,55	0,41
690,99	0,41
691,43	0,41
691,87	0,41
692,31	0,41
692,749	0,41
693,189	0,41
693,629	0,41
694,069	0,4
694,508	0,4
694,948	0,4
695,388	0,4
695,827	0,4
696,267	0,41
696,706	0,41
697,146	0,41
697,586	0,41
698,025	0,41
698,464	0,41
698,904	0,41
699,343	0,41
699,783	0,41
700,222	0,41
700,661	0,41
701,101	0,41
701,54	0,41
701,979	0,41
702,418	0,41
702,857	0,41
703,297	0,41
703,736	0,41
704,175	0,41
704,614	0,41
705,053	0,41
705,492	0,41
705,931	0,41
706,37	0,41
706,809	0,41
707,248	0,41
707,687	0,41
708,125	0,41
708,564	0,41
709,003	0,41
709,442	0,41
709,88	0,4
710,319	0,4
710,758	0,4
711,196	0,4
711,635	0,4
712,074	0,4
712,512	0,4
712,951	0,4
713,389	0,4
713,828	0,4
714,266	0,4
714,705	0,4
715,143	0,4
715,581	0,4
716,02	0,39
716,458	0,39
716,896	0,39
717,334	0,39
717,773	0,39
718,211	0,39
718,649	0,39
719,087	0,4
719,525	0,4
719,963	0,4
720,401	0,4
720,839	0,4
721,277	0,4
721,715	0,4
722,153	0,4
722,591	0,4
723,029	0,4
723,467	0,4
723,905	0,4
724,342	0,4
724,78	0,4
725,218	0,4
725,656	0,4
726,093	0,4
726,531	0,4
726,969	0,4
727,406	0,4
727,844	0,4
728,281	0,4
728,719	0,4
729,156	0,4
729,594	0,39
730,031	0,39
730,469	0,39
730,906	0,39
731,343	0,39
731,781	0,39
732,218	0,39
732,655	0,39
733,092	0,39
733,53	0,39
733,967	0,39
734,404	0,39
734,841	0,39
735,278	0,39
735,715	0,39
736,152	0,39
736,589	0,39
737,026	0,38
737,463	0,38
737,9	0,38
738,337	0,38
738,774	0,38
739,211	0,38
739,647	0,38
740,084	0,38
740,521	0,38
740,958	0,38
741,394	0,38
741,831	0,38
742,268	0,38
742,704	0,38
743,141	0,38
743,577	0,38
744,014	0,38
744,45	0,38
744,887	0,38
745,323	0,38
745,76	0,37
746,196	0,37
746,632	0,37
747,069	0,37
747,505	0,37
747,941	0,37
748,378	0,37
748,814	0,37
749,25	0,37
749,686	0,37
750,122	0,38
750,558	0,38
750,994	0,38
751,43	0,38
751,866	0,38
752,302	0,38
752,738	0,38
753,174	0,38
753,61	0,39
754,046	0,39
754,482	0,38
754,918	0,38
755,354	0,38
755,789	0,38
756,225	0,38
756,661	0,38
757,096	0,38
757,532	0,38
757,968	0,38
758,403	0,37
758,839	0,37
759,274	0,37
759,71	0,37
760,145	0,36
760,581	0,36
761,016	0,35
761,452	0,35
761,887	0,34
762,322	0,34
762,758	0,33
763,193	0,33
763,628	0,32
764,063	0,32
764,499	0,31
764,934	0,31
765,369	0,3
765,804	0,3
766,239	0,29
766,674	0,29
767,109	0,28
767,544	0,27
767,979	0,26
768,414	0,26
768,849	0,25
769,284	0,24
769,719	0,23
770,154	0,23
770,588	0,22
771,023	0,21
771,458	0,19
771,893	0,18
772,327	0,17
772,762	0,16
773,197	0,15
773,631	0,15
774,066	0,14
774,5	0,13
774,935	0,12
775,369	0,11
775,804	0,1
776,238	0,09
776,673	0,08
777,107	0,08
777,541	0,08
777,976	0,07
778,41	0,06
778,844	0,05
779,279	0,04
779,713	0,03
780,147	0,02
780,581	0,02
781,015	0
781,449	-0,01
781,883	-0,02
782,317	-0,04
782,751	-0,05
783,185	-0,05
783,619	-0,06
784,053	-0,07
784,487	-0,08
784,921	-0,08
785,355	-0,09
785,789	-0,09
786,223	-0,1
786,656	-0,11
787,09	-0,12
787,524	-0,13
787,957	-0,15
788,391	-0,17
788,825	-0,17
789,258	-0,19
789,692	-0,2
790,125	-0,21
790,559	-0,23
790,992	-0,25
791,426	-0,28
791,859	-0,3
792,293	-0,32
792,726	-0,34
793,159	-0,36
793,593	-0,38
794,026	-0,4
794,459	-0,43
794,892	-0,46
795,326	-0,49
795,759	-0,53
796,192	-0,57
796,625	-0,62
797,058	-0,64
797,491	-0,69
797,924	-0,73
798,357	-0,78
798,79	-0,82
799,223	-0,86
799,656	-0,92
800,089	-0,97
800,522	-1,01
800,955	-1,05
801,387	-1,11
801,82	-1,16
802,253	-1,23
802,686	-1,31
803,118	-1,36
803,551	-1,41
803,984	-1,46
804,416	-1,5
804,849	-1,53
805,281	-1,64
805,714	-2,02
806,146	-2,46
806,579	-2,72
807,011	-2,88
807,444	-2,97
807,876	-3,06
808,308	-3,09
808,741	-3,12
809,173	-3,17
809,605	-3,19
810,037	-3,27
810,47	-3,18
810,902	-2,98
811,334	-2,84
811,766	-2,68
812,198	-2,44
812,63	-2,02
813,062	-1,8
813,494	-1,71
813,926	-1,62
814,358	-1,56
814,79	-1,48
815,222	-1,42
815,654	-1,38
816,086	-1,31
816,518	-1,25
816,949	-1,2
817,381	-1,16
817,813	-1,14
818,245	-1,1
818,676	-1,06
819,108	-1,02
819,54	-1,01
819,971	-0,99
820,403	-0,93
820,834	-0,92
821,266	-0,88
821,697	-0,85
822,129	-0,84
822,56	-0,82
822,991	-0,79
823,423	-0,76
823,854	-0,76
824,286	-0,73
824,717	-0,72
825,148	-0,7
825,579	-0,69
826,01	-0,67
826,442	-0,67
826,873	-0,65
827,304	-0,61
827,735	-0,61
828,166	-0,61
828,597	-0,6
829,028	-0,59
829,459	-0,6
829,89	-0,6
830,321	-0,55
830,752	-0,56
831,183	-0,55
831,613	-0,54
832,044	-0,54
832,475	-0,52
832,906	-0,53
833,336	-0,54
833,767	-0,54
834,198	-0,52
834,628	-0,5
835,059	-0,53
835,49	-0,54
835,92	-0,51
836,351	-0,5
836,781	-0,51
837,212	-0,53
837,642	-0,53
838,072	-0,51
838,503	-0,53
838,933	-0,51
839,364	-0,51
839,794	-0,5
840,224	-0,49
840,654	-0,53
841,085	-0,54
841,515	-0,52
841,945	-0,52
842,375	-0,47
842,805	-0,46
843,235	-0,45
843,665	-0,46
844,095	-0,45
844,525	-0,47
844,955	-0,47
845,385	-0,45
845,815	-0,43
846,245	-0,44
846,675	-0,45
847,105	-0,46
847,534	-0,46
847,964	-0,44
848,394	-0,43
848,824	-0,46
849,253	-0,45
849,683	-0,45
850,112	-0,47
850,542	-0,51
850,972	-0,51
851,401	-0,49
851,831	-0,49
852,26	-0,49
852,69	-0,53
853,119	-0,53
853,548	-0,53
853,978	-0,54
854,407	-0,52
854,836	-0,51
855,266	-0,5
855,695	-0,51
856,124	-0,53
856,553	-0,54
856,983	-0,55
857,412	-0,54
857,841	-0,55
858,27	-0,56
858,699	-0,57
859,128	-0,6
859,557	-0,61
859,986	-0,62
860,415	-0,6
860,844	-0,57
861,273	-0,58
861,702	-0,59
862,13	-0,56
862,559	-0,58
862,988	-0,54
863,417	-0,53
863,845	-0,52
864,274	-0,53
864,703	-0,52
865,131	-0,52
865,56	-0,54
865,989	-0,57
866,417	-0,54
866,846	-0,54
867,274	-0,54
867,703	-0,56
868,131	-0,58
868,559	-0,58
868,988	-0,61
869,416	-0,6
869,844	-0,61
870,273	-0,63
870,701	-0,61
871,129	-0,64
871,557	-0,65
871,986	-0,65
872,414	-0,67
872,842	-0,63
873,27	-0,61
873,698	-0,58
874,126	-0,62
874,554	-0,6
874,982	-0,6
875,41	-0,62
875,838	-0,57
876,266	-0,56
876,694	-0,56
877,122	-0,55
877,549	-0,6
877,977	-0,56
878,405	-0,6
878,833	-0,57
879,26	-0,56
879,688	-0,57
880,116	-0,55
880,543	-0,53
880,971	-0,52
881,399	-0,55
881,826	-0,56
882,254	-0,55
882,681	-0,59
883,109	-0,54
883,536	-0,54
883,963	-0,56
884,391	-0,54
884,818	-0,53
885,245	-0,57
885,673	-0,59
886,1	-0,56
886,527	-0,55
886,954	-0,5
887,381	-0,52
887,809	-0,54
888,236	-0,55
888,663	-0,55
889,09	-0,59
889,517	-0,61
889,944	-0,61
890,371	-0,59
890,798	-0,6
891,225	-0,61
891,652	-0,64
892,078	-0,62
892,505	-0,65
892,932	-0,61
893,359	-0,61
893,786	-0,62
894,212	-0,58
894,639	-0,59
895,066	-0,61
895,492	-0,55
895,919	-0,55
896,346	-0,54
896,772	-0,54
897,199	-0,49
897,625	-0,52
898,052	-0,5
898,478	-0,48
898,904	-0,5
899,331	-0,5
899,757	-0,52
900,183	-0,54
900,61	-0,53
901,036	-0,53
901,462	-0,52
901,888	-0,52
902,315	-0,51
902,741	-0,56
903,167	-0,54
903,593	-0,57
904,019	-0,55
904,445	-0,52
904,871	-0,55
905,297	-0,56
905,723	-0,56
906,149	-0,56
906,575	-0,57
907,001	-0,57
907,427	-0,54
907,852	-0,53
908,278	-0,53
908,704	-0,52
909,13	-0,5
909,555	-0,49
909,981	-0,48
910,407	-0,48
910,832	-0,48
911,258	-0,48
911,684	-0,48
912,109	-0,49
912,535	-0,51
912,96	-0,47
913,386	-0,5
913,811	-0,51
914,236	-0,53
914,662	-0,52
915,087	-0,55
915,512	-0,56
915,938	-0,58
916,363	-0,57
916,788	-0,58
917,213	-0,56
917,639	-0,62
918,064	-0,59
918,489	-0,59
918,914	-0,59
919,339	-0,6
919,764	-0,58
920,189	-0,57
920,614	-0,59
921,039	-0,59
921,464	-0,55
921,889	-0,58
922,314	-0,59
922,738	-0,62
923,163	-0,63
923,588	-0,63
924,013	-0,62
924,437	-0,62
924,862	-0,63
925,287	-0,59
925,711	-0,61
926,136	-0,62
926,561	-0,6
926,985	-0,59
927,41	-0,56
927,834	-0,54
928,259	-0,51
928,683	-0,49
929,108	-0,47
929,532	-0,48
929,956	-0,48
930,381	-0,45
930,805	-0,45
931,229	-0,45
931,653	-0,44
932,078	-0,43
932,502	-0,44
932,926	-0,46
933,35	-0,45
933,774	-0,44
934,198	-0,42
934,622	-0,42
935,046	-0,43
935,47	-0,43
935,894	-0,42
936,318	-0,42
936,742	-0,42
937,166	-0,42
937,59	-0,42
938,014	-0,44
938,437	-0,45
938,861	-0,47
939,285	-0,48
939,709	-0,48
940,132	-0,47
940,556	-0,48
940,98	-0,48
941,403	-0,46
941,827	-0,47
942,25	-0,48
942,674	-0,46
943,097	-0,45
943,521	-0,45
943,944	-0,46
944,368	-0,45
944,791	-0,44
945,214	-0,46
945,638	-0,47
946,061	-0,5
946,484	-0,51
946,907	-0,49
947,331	-0,49
947,754	-0,53
948,177	-0,51
948,6	-0,5
949,023	-0,5
949,446	-0,5
949,869	-0,48
950,292	-0,48
950,715	-0,45
951,138	-0,44
951,561	-0,41
951,984	-0,41
952,407	-0,4
952,83	-0,4
953,252	-0,36
953,675	-0,36
954,098	-0,37
954,521	-0,35
954,943	-0,34
955,366	-0,35
955,789	-0,33
956,211	-0,35
956,634	-0,37
957,056	-0,34
957,479	-0,34
957,902	-0,36
958,324	-0,37
958,746	-0,35
959,169	-0,37
959,591	-0,36
960,014	-0,38
960,436	-0,37
960,858	-0,37
961,281	-0,36
961,703	-0,37
962,125	-0,37
962,547	-0,36
962,969	-0,36
963,391	-0,37
963,814	-0,38
964,236	-0,38
964,658	-0,35
965,08	-0,36
965,502	-0,35
965,924	-0,33
966,346	-0,33
966,768	-0,33
967,189	-0,35
967,611	-0,35
968,033	-0,33
968,455	-0,31
968,877	-0,32
969,298	-0,34
969,72	-0,34
970,142	-0,33
970,563	-0,34
970,985	-0,32
971,407	-0,3
971,828	-0,28
972,25	-0,26
972,671	-0,25
973,093	-0,25
973,514	-0,24
973,936	-0,22
974,357	-0,21
974,778	-0,2
975,2	-0,2
975,621	-0,2
976,042	-0,18
976,464	-0,17
976,885	-0,16
977,306	-0,16
977,727	-0,15
978,148	-0,14
978,57	-0,12
978,991	-0,1
979,412	-0,09
979,833	-0,08
980,254	-0,07
980,675	-0,08
981,096	-0,07
981,517	-0,06
981,937	-0,05
982,358	-0,03
982,779	-0,02
983,2	-0,02
983,621	-0,02
984,042	-0
984,462	0,01
984,883	0,02
985,304	0,04
985,724	0,05
986,145	0,06
986,565	0,08
986,986	0,08
987,407	0,09
987,827	0,1
988,248	0,11
988,668	0,11
989,088	0,13
989,509	0,14
989,929	0,15
990,35	0,15
990,77	0,16
991,19	0,17
991,61	0,19
992,031	0,19
992,451	0,2
992,871	0,21
993,291	0,22
993,711	0,23
994,131	0,24
994,551	0,24
994,971	0,25
995,391	0,25
995,811	0,26
996,231	0,27
996,651	0,27
997,071	0,28
997,491	0,28
997,911	0,29
998,331	0,3
998,75	0,3
999,17	0,31
999,59	0,31
1000,009	0,32
1000,429	0,32
1000,849	0,33
1001,268	0,33
1001,688	0,33
1002,107	0,34
1002,527	0,34
1002,946	0,34
1003,366	0,35
1003,785	0,35
1004,205	0,35
1004,624	0,35
1005,044	0,35
1005,463	0,36
1005,882	0,36
1006,301	0,36
1006,721	0,36
1007,14	0,36
1007,559	0,36
1007,978	0,36
1008,397	0,36
1008,816	0,36
1009,235	0,36
1009,655	0,36
1010,074	0,36
1010,492	0,36
1010,911	0,36
1011,33	0,36
1011,749	0,36
1012,168	0,36
1012,587	0,36
1013,006	0,35
1013,425	0,35
1013,843	0,35
1014,262	0,35
1014,681	0,35
1015,099	0,35
1015,518	0,35
1015,937	0,35
1016,355	0,35
1016,774	0,35
1017,192	0,35
1017,611	0,35
1018,029	0,35
1018,448	0,35
1018,866	0,35
1019,285	0,35
1019,703	0,35
1020,121	0,35
1020,54	0,35
1020,958	0,35
1021,376	0,35
1021,794	0,35
1022,213	0,35
1022,631	0,35
1023,049	0,35
1023,467	0,35
1023,885	0,35
1024,303	0,34
1024,721	0,34
1025,139	0,34
1025,557	0,34
1025,975	0,34
1026,393	0,34
1026,811	0,34
1027,229	0,34
1027,647	0,34
1028,065	0,34
1028,482	0,34
1028,9	0,34
1029,318	0,34
1029,735	0,34
1030,153	0,34
1030,571	0,34
1030,988	0,34
1031,406	0,34
1031,823	0,34
1032,241	0,34
1032,659	0,34
1033,076	0,34
1033,493	0,34
1033,911	0,34
1034,328	0,34
1034,746	0,34
1035,163	0,34
1035,58	0,34
1035,997	0,34
1036,415	0,34
1036,832	0,34
1037,249	0,34
1037,666	0,34
1038,083	0,34
1038,501	0,34
1038,918	0,34
1039,335	0,34
1039,752	0,34
1040,169	0,34
1040,586	0,34
1041,003	0,34
1041,419	0,34
1041,836	0,34
1042,253	0,34
1042,67	0,34
1043,087	0,34
1043,504	0,34
1043,92	0,34
1044,337	0,34
1044,754	0,34
1045,17	0,34
1045,587	0,34
1046,004	0,34
1046,42	0,34
1046,837	0,34
1047,253	0,34
1047,67	0,34
1048,086	0,34
1048,503	0,34
1048,919	0,34
1049,335	0,34
1049,752	0,34
1050,168	0,34
1050,584	0,34
1051,001	0,34
1051,417	0,34
1051,833	0,34
1052,249	0,34
1052,665	0,34
1053,081	0,34
1053,497	0,34
1053,914	0,34
1054,33	0,34
1054,746	0,34
1055,162	0,34
1055,578	0,34
1055,993	0,35
1056,409	0,35
1056,825	0,35
1057,241	0,35
1057,657	0,35
1058,073	0,35
1058,488	0,35
1058,904	0,35
1059,32	0,35
1059,736	0,35
1060,151	0,35
1060,567	0,34
1060,982	0,34
1061,398	0,35
1061,813	0,34
1062,229	0,34
1062,644	0,34
1063,06	0,34
1063,475	0,34
1063,891	0,34
1064,306	0,34
1064,721	0,34
1065,137	0,34
1065,552	0,34
1065,967	0,34
1066,382	0,34
1066,798	0,34
1067,213	0,34
1067,628	0,34
1068,043	0,34
1068,458	0,34
1068,873	0,34
1069,288	0,34
1069,703	0,34
1070,118	0,34
1070,533	0,34
1070,948	0,34
1071,363	0,34
1071,778	0,34
1072,193	0,34
1072,607	0,34
1073,022	0,34
1073,437	0,34
1073,852	0,34
1074,266	0,34
1074,681	0,34
1075,096	0,34
1075,51	0,34
1075,925	0,34
1076,339	0,34
1076,754	0,34
1077,168	0,34
1077,583	0,34
1077,997	0,34
1078,412	0,34
1078,826	0,34
1079,24	0,34
1079,655	0,33
1080,069	0,33
1080,483	0,33
1080,897	0,33
1081,312	0,33
1081,726	0,33
1082,14	0,33
1082,554	0,33
1082,968	0,33
1083,382	0,33
1083,796	0,33
1084,21	0,33
1084,624	0,33
1085,038	0,33
1085,452	0,33
1085,866	0,33
1086,28	0,32
1086,694	0,32
1087,108	0,32
1087,521	0,32
1087,935	0,32
1088,349	0,32
1088,763	0,31
1089,176	0,31
1089,59	0,31
1090,004	0,31
1090,417	0,31
1090,831	0,3
1091,244	0,3
1091,658	0,3
1092,071	0,3
1092,485	0,29
1092,898	0,29
1093,312	0,29
1093,725	0,29
1094,138	0,29
1094,552	0,28
1094,965	0,28
1095,378	0,28
1095,791	0,28
1096,205	0,28
1096,618	0,28
1097,031	0,27
1097,444	0,27
1097,857	0,27
1098,27	0,27
1098,683	0,27
1099,096	0,26
1099,509	0,26
1099,922	0,25
1100,335	0,25
1100,748	0,24
1101,161	0,24
1101,574	0,23
1101,986	0,23
1102,399	0,23
1102,812	0,22
1103,225	0,22
1103,637	0,22
1104,05	0,22
1104,463	0,22
1104,875	0,21
1105,288	0,21
1105,7	0,21
1106,113	0,2
1106,525	0,2
1106,938	0,19
1107,35	0,19
1107,763	0,19
1108,175	0,19
1108,588	0,18
1109	0,17
1109,412	0,17
1109,824	0,17
1110,237	0,18
1110,649	0,19
1111,061	0,19
