Data from 18C-808nm-8A-cont_Absorbance__186__01615.txt Node

Date: Mon Jul 17 17:24:20 CEST 2023
User: Laser008
Spectrometer: MAYP115816
Trigger mode: 0
Integration Time (sec): 2,500000E-1
Scans to average: 10
Electric dark correction enabled: true
Nonlinearity correction enabled: true
Boxcar width: 5
XAxis mode: Wavelengths
Number of Pixels in Spectrum: 2068
>>>>>Begin Spectral Data<<<<<
198,914	-0,65
199,384	-0,44
199,855	-0,3
200,325	-0,23
200,796	-0,21
201,266	-0,17
201,737	-0,16
202,207	-0,14
202,677	-0,14
203,147	-0,12
203,618	-0,09
204,088	-0,08
204,558	-0,06
205,028	-0,07
205,498	-0,08
205,968	-0,08
206,439	-0,09
206,909	-0,09
207,379	-0,09
207,849	-0,1
208,319	-0,1
208,789	-0,12
209,258	-0,11
209,728	-0,13
210,198	-0,13
210,668	-0,13
211,138	-0,12
211,608	-0,12
212,077	-0,12
212,547	-0,11
213,017	-0,11
213,486	-0,11
213,956	-0,11
214,426	-0,13
214,895	-0,11
215,365	-0,12
215,834	-0,12
216,304	-0,13
216,773	-0,13
217,243	-0,14
217,712	-0,16
218,181	-0,15
218,651	-0,15
219,12	-0,15
219,589	-0,14
220,058	-0,14
220,528	-0,15
220,997	-0,16
221,466	-0,17
221,935	-0,18
222,404	-0,17
222,873	-0,16
223,342	-0,16
223,812	-0,17
224,281	-0,17
224,749	-0,17
225,218	-0,18
225,687	-0,18
226,156	-0,16
226,625	-0,14
227,094	-0,14
227,563	-0,14
228,031	-0,15
228,5	-0,15
228,969	-0,16
229,438	-0,15
229,906	-0,14
230,375	-0,13
230,844	-0,13
231,312	-0,13
231,781	-0,13
232,249	-0,13
232,718	-0,14
233,186	-0,12
233,655	-0,13
234,123	-0,11
234,591	-0,12
235,06	-0,12
235,528	-0,13
235,996	-0,12
236,465	-0,12
236,933	-0,12
237,401	-0,12
237,869	-0,11
238,337	-0,11
238,805	-0,1
239,274	-0,1
239,742	-0,09
240,21	-0,09
240,678	-0,08
241,146	-0,09
241,614	-0,09
242,081	-0,08
242,549	-0,08
243,017	-0,09
243,485	-0,09
243,953	-0,08
244,421	-0,08
244,888	-0,09
245,356	-0,09
245,824	-0,09
246,291	-0,09
246,759	-0,1
247,227	-0,11
247,694	-0,09
248,162	-0,08
248,629	-0,08
249,097	-0,09
249,564	-0,1
250,032	-0,1
250,499	-0,1
250,967	-0,11
251,434	-0,11
251,901	-0,1
252,369	-0,1
252,836	-0,12
253,303	-0,14
253,77	-0,16
254,237	-0,15
254,705	-0,14
255,172	-0,14
255,639	-0,14
256,106	-0,16
256,573	-0,16
257,04	-0,16
257,507	-0,17
257,974	-0,17
258,441	-0,14
258,908	-0,15
259,375	-0,17
259,841	-0,17
260,308	-0,18
260,775	-0,18
261,242	-0,16
261,709	-0,18
262,175	-0,19
262,642	-0,18
263,109	-0,17
263,575	-0,19
264,042	-0,17
264,508	-0,17
264,975	-0,19
265,441	-0,19
265,908	-0,2
266,374	-0,2
266,841	-0,19
267,307	-0,19
267,773	-0,19
268,24	-0,2
268,706	-0,2
269,172	-0,2
269,639	-0,22
270,105	-0,2
270,571	-0,2
271,037	-0,2
271,503	-0,22
271,969	-0,21
272,435	-0,22
272,902	-0,23
273,368	-0,24
273,834	-0,23
274,3	-0,24
274,765	-0,23
275,231	-0,23
275,697	-0,22
276,163	-0,21
276,629	-0,2
277,095	-0,21
277,56	-0,2
278,026	-0,2
278,492	-0,18
278,958	-0,19
279,423	-0,18
279,889	-0,17
280,354	-0,18
280,82	-0,18
281,286	-0,2
281,751	-0,2
282,217	-0,19
282,682	-0,19
283,147	-0,18
283,613	-0,19
284,078	-0,18
284,544	-0,19
285,009	-0,21
285,474	-0,2
285,939	-0,22
286,405	-0,21
286,87	-0,22
287,335	-0,21
287,8	-0,21
288,265	-0,21
288,73	-0,22
289,195	-0,23
289,66	-0,23
290,125	-0,21
290,59	-0,22
291,055	-0,21
291,52	-0,22
291,985	-0,22
292,45	-0,23
292,915	-0,23
293,38	-0,22
293,844	-0,21
294,309	-0,21
294,774	-0,2
295,239	-0,2
295,703	-0,2
296,168	-0,19
296,632	-0,18
297,097	-0,17
297,562	-0,16
298,026	-0,16
298,491	-0,17
298,955	-0,17
299,419	-0,16
299,884	-0,15
300,348	-0,14
300,813	-0,14
301,277	-0,15
301,741	-0,15
302,205	-0,15
302,67	-0,14
303,134	-0,14
303,598	-0,12
304,062	-0,11
304,526	-0,11
304,99	-0,12
305,454	-0,13
305,919	-0,13
306,383	-0,12
306,847	-0,11
307,31	-0,12
307,774	-0,13
308,238	-0,13
308,702	-0,13
309,166	-0,15
309,63	-0,15
310,094	-0,12
310,557	-0,11
311,021	-0,11
311,485	-0,12
311,948	-0,12
312,412	-0,11
312,876	-0,1
313,339	-0,11
313,803	-0,11
314,266	-0,11
314,73	-0,12
315,193	-0,12
315,657	-0,11
316,12	-0,1
316,584	-0,09
317,047	-0,09
317,51	-0,08
317,973	-0,09
318,437	-0,07
318,9	-0,06
319,363	-0,04
319,826	-0,03
320,29	-0,04
320,753	-0,04
321,216	-0,04
321,679	-0,04
322,142	-0,04
322,605	-0,05
323,068	-0,04
323,531	-0,04
323,994	-0,04
324,457	-0,04
324,92	-0,03
325,382	-0,04
325,845	-0,03
326,308	-0,04
326,771	-0,03
327,233	-0,02
327,696	-0,01
328,159	-0,01
328,622	-0
329,084	-0
329,547	0
330,009	0,01
330,472	0,03
330,934	0,04
331,397	0,04
331,859	0,05
332,322	0,05
332,784	0,05
333,246	0,05
333,709	0,05
334,171	0,06
334,633	0,07
335,096	0,06
335,558	0,06
336,02	0,06
336,482	0,06
336,944	0,07
337,406	0,08
337,868	0,09
338,331	0,09
338,793	0,11
339,255	0,11
339,717	0,11
340,178	0,12
340,64	0,13
341,102	0,13
341,564	0,14
342,026	0,15
342,488	0,15
342,949	0,17
343,411	0,19
343,873	0,22
344,335	0,24
344,796	0,28
345,258	0,32
345,719	0,36
346,181	0,4
346,643	0,44
347,104	0,47
347,566	0,5
348,027	0,52
348,488	0,54
348,95	0,56
349,411	0,58
349,873	0,6
350,334	0,62
350,795	0,63
351,256	0,64
351,718	0,65
352,179	0,65
352,64	0,65
353,101	0,66
353,562	0,66
354,023	0,66
354,484	0,66
354,945	0,66
355,406	0,67
355,867	0,67
356,328	0,67
356,789	0,67
357,25	0,67
357,711	0,67
358,172	0,68
358,633	0,68
359,093	0,68
359,554	0,68
360,015	0,68
360,476	0,68
360,936	0,68
361,397	0,68
361,858	0,69
362,318	0,69
362,779	0,69
363,239	0,69
363,7	0,69
364,16	0,69
364,621	0,69
365,081	0,69
365,541	0,69
366,002	0,69
366,462	0,69
366,922	0,69
367,383	0,69
367,843	0,69
368,303	0,69
368,763	0,69
369,223	0,69
369,684	0,69
370,144	0,69
370,604	0,69
371,064	0,69
371,524	0,69
371,984	0,69
372,444	0,69
372,904	0,69
373,363	0,69
373,823	0,68
374,283	0,68
374,743	0,68
375,203	0,68
375,663	0,68
376,122	0,68
376,582	0,68
377,042	0,68
377,501	0,68
377,961	0,68
378,42	0,68
378,88	0,68
379,34	0,68
379,799	0,68
380,259	0,68
380,718	0,68
381,177	0,68
381,637	0,68
382,096	0,68
382,555	0,68
383,015	0,68
383,474	0,68
383,933	0,68
384,393	0,68
384,852	0,68
385,311	0,68
385,77	0,68
386,229	0,68
386,688	0,68
387,147	0,68
387,606	0,68
388,065	0,68
388,524	0,68
388,983	0,67
389,442	0,67
389,901	0,67
390,36	0,67
390,819	0,67
391,277	0,67
391,736	0,67
392,195	0,67
392,654	0,67
393,112	0,67
393,571	0,67
394,03	0,67
394,488	0,67
394,947	0,67
395,405	0,67
395,864	0,67
396,322	0,67
396,781	0,67
397,239	0,67
397,698	0,67
398,156	0,67
398,614	0,67
399,073	0,67
399,531	0,67
399,989	0,67
400,447	0,67
400,905	0,67
401,364	0,67
401,822	0,67
402,28	0,67
402,738	0,67
403,196	0,67
403,654	0,66
404,112	0,66
404,57	0,66
405,028	0,66
405,486	0,66
405,944	0,66
406,402	0,66
406,859	0,66
407,317	0,66
407,775	0,66
408,233	0,66
408,691	0,66
409,148	0,66
409,606	0,66
410,064	0,66
410,521	0,66
410,979	0,66
411,436	0,66
411,894	0,66
412,351	0,66
412,809	0,66
413,266	0,66
413,724	0,66
414,181	0,66
414,638	0,66
415,096	0,66
415,553	0,66
416,01	0,66
416,467	0,66
416,925	0,66
417,382	0,66
417,839	0,66
418,296	0,66
418,753	0,66
419,21	0,66
419,667	0,66
420,124	0,66
420,581	0,66
421,038	0,66
421,495	0,66
421,952	0,66
422,409	0,66
422,866	0,66
423,322	0,66
423,779	0,66
424,236	0,66
424,693	0,66
425,149	0,66
425,606	0,66
426,063	0,66
426,519	0,66
426,976	0,66
427,433	0,66
427,889	0,66
428,346	0,66
428,802	0,66
429,258	0,66
429,715	0,66
430,171	0,66
430,628	0,66
431,084	0,66
431,54	0,66
431,997	0,66
432,453	0,66
432,909	0,66
433,365	0,65
433,821	0,65
434,277	0,65
434,734	0,65
435,19	0,65
435,646	0,65
436,102	0,65
436,558	0,65
437,014	0,65
437,47	0,65
437,925	0,65
438,381	0,65
438,837	0,66
439,293	0,66
439,749	0,66
440,205	0,66
440,66	0,66
441,116	0,66
441,572	0,66
442,027	0,66
442,483	0,66
442,939	0,66
443,394	0,66
443,85	0,66
444,305	0,66
444,761	0,66
445,216	0,66
445,672	0,66
446,127	0,66
446,582	0,66
447,038	0,66
447,493	0,66
447,948	0,66
448,403	0,66
448,859	0,66
449,314	0,66
449,769	0,66
450,224	0,66
450,679	0,66
451,134	0,66
451,589	0,66
452,044	0,66
452,499	0,66
452,954	0,66
453,409	0,66
453,864	0,66
454,319	0,66
454,774	0,66
455,229	0,66
455,684	0,66
456,138	0,66
456,593	0,66
457,048	0,66
457,503	0,66
457,957	0,66
458,412	0,66
458,866	0,66
459,321	0,66
459,776	0,66
460,23	0,66
460,685	0,66
461,139	0,67
461,593	0,67
462,048	0,67
462,502	0,67
462,957	0,67
463,411	0,67
463,865	0,67
464,319	0,67
464,774	0,67
465,228	0,67
465,682	0,67
466,136	0,67
466,59	0,67
467,044	0,68
467,499	0,68
467,953	0,68
468,407	0,68
468,861	0,68
469,315	0,68
469,768	0,68
470,222	0,68
470,676	0,68
471,13	0,68
471,584	0,68
472,038	0,68
472,491	0,68
472,945	0,68
473,399	0,68
473,852	0,69
474,306	0,69
474,76	0,69
475,213	0,69
475,667	0,69
476,12	0,69
476,574	0,69
477,027	0,69
477,481	0,69
477,934	0,7
478,388	0,7
478,841	0,7
479,294	0,7
479,748	0,7
480,201	0,7
480,654	0,7
481,107	0,71
481,561	0,71
482,014	0,71
482,467	0,71
482,92	0,71
483,373	0,71
483,826	0,71
484,279	0,72
484,732	0,72
485,185	0,72
485,638	0,72
486,091	0,72
486,544	0,72
486,997	0,73
487,449	0,73
487,902	0,73
488,355	0,73
488,808	0,73
489,26	0,74
489,713	0,74
490,166	0,74
490,618	0,74
491,071	0,75
491,523	0,75
491,976	0,75
492,429	0,75
492,881	0,76
493,333	0,76
493,786	0,76
494,238	0,76
494,691	0,77
495,143	0,77
495,595	0,77
496,048	0,78
496,5	0,78
496,952	0,78
497,404	0,78
497,856	0,79
498,309	0,79
498,761	0,79
499,213	0,8
499,665	0,8
500,117	0,8
500,569	0,81
501,021	0,81
501,473	0,81
501,925	0,82
502,377	0,82
502,828	0,82
503,28	0,83
503,732	0,83
504,184	0,83
504,636	0,84
505,087	0,84
505,539	0,84
505,991	0,85
506,442	0,85
506,894	0,85
507,345	0,86
507,797	0,86
508,249	0,86
508,7	0,87
509,151	0,87
509,603	0,87
510,054	0,88
510,506	0,88
510,957	0,89
511,408	0,89
511,86	0,89
512,311	0,89
512,762	0,9
513,213	0,9
513,665	0,9
514,116	0,91
514,567	0,91
515,018	0,91
515,469	0,91
515,92	0,92
516,371	0,92
516,822	0,92
517,273	0,93
517,724	0,93
518,175	0,93
518,626	0,93
519,076	0,94
519,527	0,94
519,978	0,94
520,429	0,94
520,88	0,94
521,33	0,95
521,781	0,95
522,232	0,95
522,682	0,95
523,133	0,95
523,583	0,95
524,034	0,95
524,484	0,95
524,935	0,95
525,385	0,95
525,836	0,96
526,286	0,96
526,736	0,96
527,187	0,96
527,637	0,96
528,087	0,96
528,538	0,96
528,988	0,95
529,438	0,95
529,888	0,95
530,338	0,95
530,788	0,95
531,238	0,95
531,688	0,95
532,139	0,95
532,589	0,95
533,038	0,95
533,488	0,94
533,938	0,94
534,388	0,94
534,838	0,94
535,288	0,94
535,738	0,93
536,187	0,93
536,637	0,93
537,087	0,92
537,537	0,92
537,986	0,92
538,436	0,91
538,885	0,91
539,335	0,91
539,785	0,9
540,234	0,9
540,684	0,89
541,133	0,89
541,582	0,89
542,032	0,88
542,481	0,88
542,931	0,87
543,38	0,87
543,829	0,87
544,278	0,86
544,728	0,86
545,177	0,86
545,626	0,85
546,075	0,85
546,524	0,85
546,973	0,84
547,422	0,84
547,871	0,84
548,32	0,83
548,769	0,83
549,218	0,83
549,667	0,83
550,116	0,82
550,565	0,82
551,014	0,82
551,463	0,81
551,911	0,81
552,36	0,8
552,809	0,8
553,258	0,8
553,706	0,79
554,155	0,79
554,603	0,79
555,052	0,78
555,501	0,78
555,949	0,78
556,398	0,77
556,846	0,77
557,294	0,76
557,743	0,76
558,191	0,76
558,64	0,75
559,088	0,75
559,536	0,74
559,985	0,74
560,433	0,73
560,881	0,73
561,329	0,73
561,777	0,72
562,225	0,72
562,674	0,72
563,122	0,71
563,57	0,71
564,018	0,71
564,466	0,71
564,914	0,7
565,362	0,7
565,809	0,7
566,257	0,69
566,705	0,69
567,153	0,69
567,601	0,68
568,048	0,68
568,496	0,68
568,944	0,67
569,392	0,67
569,839	0,67
570,287	0,66
570,734	0,66
571,182	0,66
571,63	0,66
572,077	0,65
572,525	0,65
572,972	0,65
573,419	0,64
573,867	0,64
574,314	0,64
574,761	0,63
575,209	0,63
575,656	0,63
576,103	0,62
576,551	0,62
576,998	0,62
577,445	0,62
577,892	0,62
578,339	0,61
578,786	0,61
579,233	0,61
579,68	0,61
580,127	0,6
580,574	0,6
581,021	0,6
581,468	0,6
581,915	0,59
582,362	0,59
582,809	0,59
583,255	0,59
583,702	0,59
584,149	0,59
584,596	0,58
585,042	0,58
585,489	0,58
585,936	0,58
586,382	0,58
586,829	0,57
587,275	0,57
587,722	0,57
588,168	0,57
588,615	0,57
589,061	0,56
589,508	0,56
589,954	0,56
590,4	0,56
590,847	0,56
591,293	0,56
591,739	0,56
592,185	0,55
592,632	0,55
593,078	0,55
593,524	0,55
593,97	0,55
594,416	0,55
594,862	0,55
595,308	0,55
595,754	0,55
596,2	0,54
596,646	0,54
597,092	0,54
597,538	0,54
597,984	0,54
598,43	0,54
598,876	0,54
599,321	0,54
599,767	0,54
600,213	0,53
600,659	0,53
601,104	0,53
601,55	0,53
601,995	0,53
602,441	0,53
602,887	0,53
603,332	0,53
603,778	0,52
604,223	0,52
604,668	0,52
605,114	0,52
605,559	0,52
606,005	0,52
606,45	0,52
606,895	0,52
607,341	0,52
607,786	0,52
608,231	0,51
608,676	0,51
609,121	0,51
609,566	0,5
610,012	0,5
610,457	0,49
610,902	0,49
611,347	0,49
611,792	0,49
612,237	0,48
612,682	0,48
613,127	0,48
613,571	0,48
614,016	0,49
614,461	0,49
614,906	0,49
615,351	0,49
615,795	0,49
616,24	0,49
616,685	0,49
617,129	0,49
617,574	0,49
618,019	0,49
618,463	0,49
618,908	0,49
619,352	0,49
619,797	0,49
620,241	0,49
620,686	0,49
621,13	0,49
621,574	0,49
622,019	0,49
622,463	0,49
622,907	0,49
623,352	0,48
623,796	0,48
624,24	0,48
624,684	0,48
625,128	0,48
625,572	0,48
626,016	0,48
626,461	0,48
626,905	0,48
627,349	0,48
627,793	0,48
628,236	0,48
628,68	0,48
629,124	0,48
629,568	0,48
630,012	0,48
630,456	0,48
630,9	0,48
631,343	0,48
631,787	0,48
632,231	0,48
632,674	0,48
633,118	0,48
633,562	0,48
634,005	0,48
634,449	0,48
634,892	0,48
635,336	0,48
635,779	0,48
636,223	0,48
636,666	0,48
637,109	0,48
637,553	0,48
637,996	0,48
638,439	0,48
638,883	0,48
639,326	0,47
639,769	0,47
640,212	0,47
640,655	0,47
641,099	0,47
641,542	0,47
641,985	0,47
642,428	0,47
642,871	0,47
643,314	0,47
643,757	0,47
644,2	0,47
644,643	0,47
645,085	0,47
645,528	0,47
645,971	0,47
646,414	0,46
646,857	0,46
647,299	0,46
647,742	0,46
648,185	0,46
648,627	0,46
649,07	0,46
649,513	0,46
649,955	0,46
650,398	0,46
650,84	0,46
651,283	0,46
651,725	0,46
652,168	0,46
652,61	0,46
653,052	0,47
653,495	0,46
653,937	0,38
654,379	0,32
654,821	0,33
655,264	0,33
655,706	0,33
656,148	0,33
656,59	0,33
657,032	0,33
657,474	0,33
657,916	0,33
658,358	0,32
658,8	0,38
659,242	0,46
659,684	0,46
660,126	0,46
660,568	0,46
661,01	0,46
661,452	0,46
661,894	0,46
662,335	0,46
662,777	0,46
663,219	0,46
663,661	0,45
664,102	0,45
664,544	0,45
664,985	0,45
665,427	0,45
665,869	0,45
666,31	0,45
666,752	0,45
667,193	0,45
667,634	0,46
668,076	0,46
668,517	0,46
668,959	0,46
669,4	0,46
669,841	0,46
670,282	0,46
670,724	0,46
671,165	0,46
671,606	0,46
672,047	0,46
672,488	0,46
672,929	0,46
673,37	0,46
673,811	0,45
674,252	0,45
674,693	0,45
675,134	0,45
675,575	0,45
676,016	0,45
676,457	0,45
676,898	0,45
677,339	0,45
677,78	0,45
678,22	0,45
678,661	0,44
679,102	0,45
679,542	0,45
679,983	0,45
680,424	0,45
680,864	0,45
681,305	0,45
681,745	0,45
682,186	0,45
682,626	0,45
683,067	0,45
683,507	0,45
683,948	0,45
684,388	0,45
684,828	0,45
685,269	0,45
685,709	0,45
686,149	0,44
686,589	0,44
687,029	0,44
687,47	0,44
687,91	0,44
688,35	0,44
688,79	0,44
689,23	0,44
689,67	0,44
690,11	0,44
690,55	0,44
690,99	0,44
691,43	0,44
691,87	0,44
692,31	0,44
692,749	0,44
693,189	0,43
693,629	0,43
694,069	0,43
694,508	0,43
694,948	0,43
695,388	0,43
695,827	0,43
696,267	0,43
696,706	0,43
697,146	0,44
697,586	0,44
698,025	0,44
698,464	0,44
698,904	0,44
699,343	0,44
699,783	0,44
700,222	0,44
700,661	0,44
701,101	0,44
701,54	0,44
701,979	0,44
702,418	0,44
702,857	0,44
703,297	0,44
703,736	0,44
704,175	0,44
704,614	0,44
705,053	0,44
705,492	0,44
705,931	0,44
706,37	0,44
706,809	0,44
707,248	0,43
707,687	0,43
708,125	0,43
708,564	0,43
709,003	0,43
709,442	0,43
709,88	0,43
710,319	0,43
710,758	0,43
711,196	0,43
711,635	0,43
712,074	0,43
712,512	0,43
712,951	0,43
713,389	0,42
713,828	0,42
714,266	0,42
714,705	0,42
715,143	0,42
715,581	0,42
716,02	0,42
716,458	0,42
716,896	0,42
717,334	0,42
717,773	0,42
718,211	0,42
718,649	0,42
719,087	0,42
719,525	0,42
719,963	0,43
720,401	0,43
720,839	0,43
721,277	0,43
721,715	0,43
722,153	0,43
722,591	0,43
723,029	0,43
723,467	0,42
723,905	0,42
724,342	0,42
724,78	0,42
725,218	0,42
725,656	0,42
726,093	0,42
726,531	0,42
726,969	0,42
727,406	0,42
727,844	0,42
728,281	0,42
728,719	0,42
729,156	0,42
729,594	0,42
730,031	0,42
730,469	0,42
730,906	0,42
731,343	0,42
731,781	0,42
732,218	0,42
732,655	0,42
733,092	0,42
733,53	0,42
733,967	0,42
734,404	0,42
734,841	0,42
735,278	0,41
735,715	0,41
736,152	0,41
736,589	0,41
737,026	0,41
737,463	0,41
737,9	0,41
738,337	0,41
738,774	0,41
739,211	0,41
739,647	0,41
740,084	0,41
740,521	0,41
740,958	0,41
741,394	0,41
741,831	0,41
742,268	0,41
742,704	0,41
743,141	0,41
743,577	0,41
744,014	0,41
744,45	0,41
744,887	0,41
745,323	0,4
745,76	0,4
746,196	0,4
746,632	0,4
747,069	0,4
747,505	0,4
747,941	0,4
748,378	0,4
748,814	0,4
749,25	0,4
749,686	0,4
750,122	0,4
750,558	0,4
750,994	0,41
751,43	0,41
751,866	0,41
752,302	0,41
752,738	0,41
753,174	0,41
753,61	0,41
754,046	0,41
754,482	0,41
754,918	0,41
755,354	0,41
755,789	0,41
756,225	0,41
756,661	0,41
757,096	0,4
757,532	0,4
757,968	0,4
758,403	0,4
758,839	0,4
759,274	0,39
759,71	0,39
760,145	0,39
760,581	0,38
761,016	0,38
761,452	0,37
761,887	0,37
762,322	0,37
762,758	0,36
763,193	0,36
763,628	0,35
764,063	0,34
764,499	0,34
764,934	0,33
765,369	0,33
765,804	0,32
766,239	0,31
766,674	0,31
767,109	0,3
767,544	0,29
767,979	0,28
768,414	0,27
768,849	0,26
769,284	0,26
769,719	0,24
770,154	0,24
770,588	0,23
771,023	0,22
771,458	0,21
771,893	0,19
772,327	0,18
772,762	0,17
773,197	0,16
773,631	0,16
774,066	0,15
774,5	0,14
774,935	0,13
775,369	0,12
775,804	0,1
776,238	0,1
776,673	0,09
777,107	0,08
777,541	0,08
777,976	0,07
778,41	0,06
778,844	0,05
779,279	0,04
779,713	0,03
780,147	0,02
780,581	0,01
781,015	0
781,449	-0,01
781,883	-0,02
782,317	-0,03
782,751	-0,04
783,185	-0,05
783,619	-0,05
784,053	-0,06
784,487	-0,07
784,921	-0,07
785,355	-0,07
785,789	-0,08
786,223	-0,09
786,656	-0,1
787,09	-0,12
787,524	-0,13
787,957	-0,15
788,391	-0,17
788,825	-0,19
789,258	-0,2
789,692	-0,21
790,125	-0,23
790,559	-0,24
790,992	-0,26
791,426	-0,29
791,859	-0,3
792,293	-0,33
792,726	-0,35
793,159	-0,37
793,593	-0,39
794,026	-0,41
794,459	-0,44
794,892	-0,47
795,326	-0,49
795,759	-0,53
796,192	-0,57
796,625	-0,61
797,058	-0,64
797,491	-0,68
797,924	-0,72
798,357	-0,77
798,79	-0,81
799,223	-0,85
799,656	-0,91
800,089	-0,96
800,522	-1
800,955	-1,04
801,387	-1,1
801,82	-1,16
802,253	-1,22
802,686	-1,3
803,118	-1,35
803,551	-1,41
803,984	-1,45
804,416	-1,49
804,849	-1,52
805,281	-1,62
805,714	-1,96
806,146	-2,44
806,579	-2,7
807,011	-2,87
807,444	-2,96
807,876	-3,05
808,308	-3,08
808,741	-3,11
809,173	-3,16
809,605	-3,18
810,037	-3,26
810,47	-3,18
810,902	-2,98
811,334	-2,84
811,766	-2,68
812,198	-2,44
812,63	-2,01
813,062	-1,8
813,494	-1,7
813,926	-1,62
814,358	-1,57
814,79	-1,48
815,222	-1,43
815,654	-1,38
816,086	-1,31
816,518	-1,26
816,949	-1,2
817,381	-1,16
817,813	-1,14
818,245	-1,1
818,676	-1,06
819,108	-1,03
819,54	-1,01
819,971	-0,99
820,403	-0,94
820,834	-0,92
821,266	-0,88
821,697	-0,85
822,129	-0,83
822,56	-0,81
822,991	-0,79
823,423	-0,76
823,854	-0,75
824,286	-0,72
824,717	-0,71
825,148	-0,69
825,579	-0,68
826,01	-0,67
826,442	-0,66
826,873	-0,64
827,304	-0,61
827,735	-0,6
828,166	-0,61
828,597	-0,61
829,028	-0,6
829,459	-0,6
829,89	-0,6
830,321	-0,55
830,752	-0,56
831,183	-0,54
831,613	-0,54
832,044	-0,53
832,475	-0,52
832,906	-0,53
833,336	-0,53
833,767	-0,53
834,198	-0,52
834,628	-0,5
835,059	-0,53
835,49	-0,54
835,92	-0,51
836,351	-0,52
836,781	-0,53
837,212	-0,54
837,642	-0,54
838,072	-0,53
838,503	-0,54
838,933	-0,52
839,364	-0,53
839,794	-0,51
840,224	-0,49
840,654	-0,54
841,085	-0,54
841,515	-0,5
841,945	-0,51
842,375	-0,46
842,805	-0,45
843,235	-0,44
843,665	-0,45
844,095	-0,44
844,525	-0,46
844,955	-0,47
845,385	-0,45
845,815	-0,43
846,245	-0,46
846,675	-0,46
847,105	-0,48
847,534	-0,49
847,964	-0,48
848,394	-0,46
848,824	-0,49
849,253	-0,48
849,683	-0,48
850,112	-0,49
850,542	-0,52
850,972	-0,52
851,401	-0,5
851,831	-0,49
852,26	-0,49
852,69	-0,52
853,119	-0,52
853,548	-0,52
853,978	-0,53
854,407	-0,53
854,836	-0,53
855,266	-0,53
855,695	-0,54
856,124	-0,55
856,553	-0,56
856,983	-0,57
857,412	-0,56
857,841	-0,57
858,27	-0,57
858,699	-0,56
859,128	-0,59
859,557	-0,6
859,986	-0,61
860,415	-0,6
860,844	-0,57
861,273	-0,56
861,702	-0,57
862,13	-0,56
862,559	-0,58
862,988	-0,55
863,417	-0,55
863,845	-0,54
864,274	-0,54
864,703	-0,53
865,131	-0,53
865,56	-0,54
865,989	-0,58
866,417	-0,54
866,846	-0,54
867,274	-0,54
867,703	-0,56
868,131	-0,57
868,559	-0,58
868,988	-0,6
869,416	-0,59
869,844	-0,61
870,273	-0,64
870,701	-0,61
871,129	-0,65
871,557	-0,66
871,986	-0,67
872,414	-0,68
872,842	-0,65
873,27	-0,62
873,698	-0,59
874,126	-0,63
874,554	-0,61
874,982	-0,61
875,41	-0,64
875,838	-0,59
876,266	-0,57
876,694	-0,57
877,122	-0,56
877,549	-0,61
877,977	-0,59
878,405	-0,61
878,833	-0,58
879,26	-0,56
879,688	-0,56
880,116	-0,54
880,543	-0,53
880,971	-0,52
881,399	-0,55
881,826	-0,56
882,254	-0,54
882,681	-0,56
883,109	-0,53
883,536	-0,55
883,963	-0,57
884,391	-0,54
884,818	-0,53
885,245	-0,57
885,673	-0,59
886,1	-0,57
886,527	-0,57
886,954	-0,53
887,381	-0,55
887,809	-0,56
888,236	-0,58
888,663	-0,57
889,09	-0,62
889,517	-0,64
889,944	-0,63
890,371	-0,62
890,798	-0,63
891,225	-0,63
891,652	-0,65
892,078	-0,63
892,505	-0,66
892,932	-0,6
893,359	-0,61
893,786	-0,62
894,212	-0,58
894,639	-0,6
895,066	-0,62
895,492	-0,57
895,919	-0,57
896,346	-0,57
896,772	-0,57
897,199	-0,54
897,625	-0,57
898,052	-0,54
898,478	-0,51
898,904	-0,54
899,331	-0,53
899,757	-0,54
900,183	-0,56
900,61	-0,55
901,036	-0,55
901,462	-0,55
901,888	-0,53
902,315	-0,52
902,741	-0,58
903,167	-0,56
903,593	-0,59
904,019	-0,57
904,445	-0,54
904,871	-0,57
905,297	-0,59
905,723	-0,58
906,149	-0,57
906,575	-0,58
907,001	-0,58
907,427	-0,54
907,852	-0,54
908,278	-0,54
908,704	-0,52
909,13	-0,5
909,555	-0,5
909,981	-0,49
910,407	-0,49
910,832	-0,49
911,258	-0,5
911,684	-0,5
912,109	-0,51
912,535	-0,53
912,96	-0,48
913,386	-0,52
913,811	-0,52
914,236	-0,53
914,662	-0,51
915,087	-0,54
915,512	-0,54
915,938	-0,56
916,363	-0,54
916,788	-0,55
917,213	-0,53
917,639	-0,59
918,064	-0,56
918,489	-0,56
918,914	-0,57
919,339	-0,58
919,764	-0,56
920,189	-0,56
920,614	-0,57
921,039	-0,57
921,464	-0,54
921,889	-0,58
922,314	-0,59
922,738	-0,62
923,163	-0,63
923,588	-0,63
924,013	-0,62
924,437	-0,61
924,862	-0,63
925,287	-0,59
925,711	-0,61
926,136	-0,62
926,561	-0,6
926,985	-0,59
927,41	-0,57
927,834	-0,55
928,259	-0,52
928,683	-0,51
929,108	-0,48
929,532	-0,49
929,956	-0,48
930,381	-0,46
930,805	-0,46
931,229	-0,46
931,653	-0,44
932,078	-0,43
932,502	-0,44
932,926	-0,45
933,35	-0,46
933,774	-0,46
934,198	-0,44
934,622	-0,43
935,046	-0,44
935,47	-0,44
935,894	-0,43
936,318	-0,43
936,742	-0,43
937,166	-0,43
937,59	-0,43
938,014	-0,45
938,437	-0,46
938,861	-0,47
939,285	-0,49
939,709	-0,48
940,132	-0,49
940,556	-0,5
940,98	-0,5
941,403	-0,48
941,827	-0,49
942,25	-0,5
942,674	-0,48
943,097	-0,47
943,521	-0,48
943,944	-0,48
944,368	-0,48
944,791	-0,46
945,214	-0,48
945,638	-0,48
946,061	-0,53
946,484	-0,53
946,907	-0,51
947,331	-0,51
947,754	-0,55
948,177	-0,52
948,6	-0,51
949,023	-0,51
949,446	-0,51
949,869	-0,49
950,292	-0,49
950,715	-0,45
951,138	-0,43
951,561	-0,41
951,984	-0,42
952,407	-0,4
952,83	-0,39
953,252	-0,36
953,675	-0,36
954,098	-0,37
954,521	-0,35
954,943	-0,34
955,366	-0,35
955,789	-0,34
956,211	-0,35
956,634	-0,36
957,056	-0,33
957,479	-0,35
957,902	-0,37
958,324	-0,37
958,746	-0,36
959,169	-0,36
959,591	-0,38
960,014	-0,38
960,436	-0,38
960,858	-0,38
961,281	-0,37
961,703	-0,38
962,125	-0,38
962,547	-0,36
962,969	-0,36
963,391	-0,37
963,814	-0,4
964,236	-0,39
964,658	-0,36
965,08	-0,37
965,502	-0,36
965,924	-0,33
966,346	-0,33
966,768	-0,32
967,189	-0,34
967,611	-0,33
968,033	-0,33
968,455	-0,3
968,877	-0,3
969,298	-0,32
969,72	-0,32
970,142	-0,31
970,563	-0,32
970,985	-0,31
971,407	-0,3
971,828	-0,29
972,25	-0,28
972,671	-0,27
973,093	-0,27
973,514	-0,26
973,936	-0,23
974,357	-0,22
974,778	-0,23
975,2	-0,23
975,621	-0,22
976,042	-0,2
976,464	-0,19
976,885	-0,17
977,306	-0,16
977,727	-0,15
978,148	-0,14
978,57	-0,13
978,991	-0,12
979,412	-0,1
979,833	-0,09
980,254	-0,09
980,675	-0,09
981,096	-0,08
981,517	-0,07
981,937	-0,06
982,358	-0,05
982,779	-0,03
983,2	-0,03
983,621	-0,03
984,042	-0,01
984,462	0
984,883	0,02
985,304	0,04
985,724	0,05
986,145	0,06
986,565	0,07
986,986	0,08
987,407	0,09
987,827	0,1
988,248	0,12
988,668	0,13
989,088	0,14
989,509	0,15
989,929	0,16
990,35	0,17
990,77	0,18
991,19	0,19
991,61	0,21
992,031	0,22
992,451	0,22
992,871	0,23
993,291	0,24
993,711	0,25
994,131	0,25
994,551	0,26
994,971	0,27
995,391	0,27
995,811	0,28
996,231	0,29
996,651	0,29
997,071	0,3
997,491	0,3
997,911	0,31
998,331	0,32
998,75	0,32
999,17	0,33
999,59	0,33
1000,009	0,34
1000,429	0,34
1000,849	0,35
1001,268	0,36
1001,688	0,36
1002,107	0,36
1002,527	0,37
1002,946	0,37
1003,366	0,37
1003,785	0,38
1004,205	0,38
1004,624	0,38
1005,044	0,38
1005,463	0,38
1005,882	0,39
1006,301	0,39
1006,721	0,39
1007,14	0,39
1007,559	0,39
1007,978	0,39
1008,397	0,39
1008,816	0,39
1009,235	0,39
1009,655	0,39
1010,074	0,39
1010,492	0,39
1010,911	0,39
1011,33	0,39
1011,749	0,39
1012,168	0,39
1012,587	0,39
1013,006	0,39
1013,425	0,39
1013,843	0,38
1014,262	0,38
1014,681	0,38
1015,099	0,38
1015,518	0,38
1015,937	0,38
1016,355	0,38
1016,774	0,38
1017,192	0,38
1017,611	0,38
1018,029	0,38
1018,448	0,38
1018,866	0,38
1019,285	0,38
1019,703	0,38
1020,121	0,38
1020,54	0,38
1020,958	0,38
1021,376	0,38
1021,794	0,38
1022,213	0,38
1022,631	0,38
1023,049	0,38
1023,467	0,38
1023,885	0,37
1024,303	0,37
1024,721	0,37
1025,139	0,37
1025,557	0,37
1025,975	0,37
1026,393	0,37
1026,811	0,37
1027,229	0,37
1027,647	0,37
1028,065	0,37
1028,482	0,37
1028,9	0,37
1029,318	0,37
1029,735	0,37
1030,153	0,37
1030,571	0,37
1030,988	0,37
1031,406	0,37
1031,823	0,37
1032,241	0,37
1032,659	0,37
1033,076	0,37
1033,493	0,37
1033,911	0,37
1034,328	0,37
1034,746	0,37
1035,163	0,37
1035,58	0,37
1035,997	0,37
1036,415	0,37
1036,832	0,37
1037,249	0,37
1037,666	0,37
1038,083	0,37
1038,501	0,37
1038,918	0,37
1039,335	0,37
1039,752	0,37
1040,169	0,37
1040,586	0,37
1041,003	0,37
1041,419	0,37
1041,836	0,37
1042,253	0,37
1042,67	0,37
1043,087	0,37
1043,504	0,37
1043,92	0,37
1044,337	0,37
1044,754	0,37
1045,17	0,36
1045,587	0,36
1046,004	0,36
1046,42	0,36
1046,837	0,36
1047,253	0,36
1047,67	0,36
1048,086	0,37
1048,503	0,37
1048,919	0,37
1049,335	0,37
1049,752	0,37
1050,168	0,37
1050,584	0,37
1051,001	0,37
1051,417	0,37
1051,833	0,37
1052,249	0,37
1052,665	0,37
1053,081	0,37
1053,497	0,37
1053,914	0,37
1054,33	0,37
1054,746	0,37
1055,162	0,37
1055,578	0,38
1055,993	0,38
1056,409	0,38
1056,825	0,38
1057,241	0,38
1057,657	0,38
1058,073	0,38
1058,488	0,38
1058,904	0,38
1059,32	0,38
1059,736	0,38
1060,151	0,37
1060,567	0,37
1060,982	0,37
1061,398	0,37
1061,813	0,37
1062,229	0,37
1062,644	0,37
1063,06	0,37
1063,475	0,37
1063,891	0,37
1064,306	0,37
1064,721	0,37
1065,137	0,37
1065,552	0,37
1065,967	0,37
1066,382	0,37
1066,798	0,37
1067,213	0,37
1067,628	0,37
1068,043	0,37
1068,458	0,37
1068,873	0,37
1069,288	0,37
1069,703	0,37
1070,118	0,37
1070,533	0,37
1070,948	0,37
1071,363	0,37
1071,778	0,37
1072,193	0,37
1072,607	0,37
1073,022	0,37
1073,437	0,37
1073,852	0,37
1074,266	0,37
1074,681	0,37
1075,096	0,37
1075,51	0,37
1075,925	0,37
1076,339	0,37
1076,754	0,37
1077,168	0,37
1077,583	0,37
1077,997	0,37
1078,412	0,37
1078,826	0,37
1079,24	0,37
1079,655	0,37
1080,069	0,37
1080,483	0,37
1080,897	0,36
1081,312	0,36
1081,726	0,36
1082,14	0,36
1082,554	0,36
1082,968	0,36
1083,382	0,36
1083,796	0,36
1084,21	0,36
1084,624	0,36
1085,038	0,36
1085,452	0,35
1085,866	0,35
1086,28	0,35
1086,694	0,35
1087,108	0,35
1087,521	0,35
1087,935	0,35
1088,349	0,34
1088,763	0,34
1089,176	0,34
1089,59	0,34
1090,004	0,33
1090,417	0,33
1090,831	0,33
1091,244	0,33
1091,658	0,32
1092,071	0,32
1092,485	0,32
1092,898	0,32
1093,312	0,32
1093,725	0,32
1094,138	0,31
1094,552	0,31
1094,965	0,31
1095,378	0,31
1095,791	0,3
1096,205	0,3
1096,618	0,3
1097,031	0,29
1097,444	0,29
1097,857	0,29
1098,27	0,28
1098,683	0,28
1099,096	0,28
1099,509	0,27
1099,922	0,27
1100,335	0,27
1100,748	0,26
1101,161	0,26
1101,574	0,26
1101,986	0,25
1102,399	0,25
1102,812	0,25
1103,225	0,24
1103,637	0,24
1104,05	0,23
1104,463	0,23
1104,875	0,23
1105,288	0,23
1105,7	0,22
1106,113	0,22
1106,525	0,22
1106,938	0,21
1107,35	0,21
1107,763	0,2
1108,175	0,2
1108,588	0,2
1109	0,19
1109,412	0,19
1109,824	0,19
1110,237	0,19
1110,649	0,19
1111,061	0,18
