Data from 18C-808nm-8A-cont_Absorbance__178__01607.txt Node

Date: Mon Jul 17 17:24:00 CEST 2023
User: Laser008
Spectrometer: MAYP115816
Trigger mode: 0
Integration Time (sec): 2,500000E-1
Scans to average: 10
Electric dark correction enabled: true
Nonlinearity correction enabled: true
Boxcar width: 5
XAxis mode: Wavelengths
Number of Pixels in Spectrum: 2068
>>>>>Begin Spectral Data<<<<<
198,914	-0,7
199,384	-0,47
199,855	-0,35
200,325	-0,26
200,796	-0,23
201,266	-0,19
201,737	-0,18
202,207	-0,16
202,677	-0,16
203,147	-0,15
203,618	-0,11
204,088	-0,1
204,558	-0,08
205,028	-0,08
205,498	-0,09
205,968	-0,09
206,439	-0,1
206,909	-0,09
207,379	-0,09
207,849	-0,09
208,319	-0,09
208,789	-0,1
209,258	-0,1
209,728	-0,12
210,198	-0,12
210,668	-0,11
211,138	-0,11
211,608	-0,11
212,077	-0,11
212,547	-0,11
213,017	-0,11
213,486	-0,11
213,956	-0,11
214,426	-0,13
214,895	-0,12
215,365	-0,12
215,834	-0,12
216,304	-0,13
216,773	-0,12
217,243	-0,14
217,712	-0,16
218,181	-0,16
218,651	-0,16
219,12	-0,16
219,589	-0,16
220,058	-0,15
220,528	-0,17
220,997	-0,17
221,466	-0,18
221,935	-0,18
222,404	-0,18
222,873	-0,17
223,342	-0,17
223,812	-0,17
224,281	-0,18
224,749	-0,18
225,218	-0,2
225,687	-0,2
226,156	-0,2
226,625	-0,19
227,094	-0,19
227,563	-0,18
228,031	-0,2
228,5	-0,19
228,969	-0,2
229,438	-0,18
229,906	-0,17
230,375	-0,16
230,844	-0,15
231,312	-0,15
231,781	-0,16
232,249	-0,15
232,718	-0,15
233,186	-0,13
233,655	-0,13
234,123	-0,13
234,591	-0,13
235,06	-0,13
235,528	-0,14
235,996	-0,13
236,465	-0,12
236,933	-0,11
237,401	-0,12
237,869	-0,11
238,337	-0,12
238,805	-0,11
239,274	-0,11
239,742	-0,11
240,21	-0,11
240,678	-0,1
241,146	-0,1
241,614	-0,1
242,081	-0,1
242,549	-0,09
243,017	-0,1
243,485	-0,1
243,953	-0,1
244,421	-0,1
244,888	-0,1
245,356	-0,1
245,824	-0,09
246,291	-0,1
246,759	-0,1
247,227	-0,11
247,694	-0,1
248,162	-0,09
248,629	-0,08
249,097	-0,08
249,564	-0,09
250,032	-0,09
250,499	-0,09
250,967	-0,1
251,434	-0,1
251,901	-0,09
252,369	-0,1
252,836	-0,11
253,303	-0,13
253,77	-0,14
254,237	-0,14
254,705	-0,14
255,172	-0,14
255,639	-0,14
256,106	-0,16
256,573	-0,16
257,04	-0,17
257,507	-0,18
257,974	-0,18
258,441	-0,16
258,908	-0,17
259,375	-0,17
259,841	-0,17
260,308	-0,17
260,775	-0,17
261,242	-0,15
261,709	-0,15
262,175	-0,16
262,642	-0,15
263,109	-0,15
263,575	-0,16
264,042	-0,15
264,508	-0,15
264,975	-0,17
265,441	-0,18
265,908	-0,19
266,374	-0,19
266,841	-0,19
267,307	-0,19
267,773	-0,19
268,24	-0,19
268,706	-0,19
269,172	-0,2
269,639	-0,21
270,105	-0,19
270,571	-0,19
271,037	-0,19
271,503	-0,2
271,969	-0,19
272,435	-0,19
272,902	-0,2
273,368	-0,21
273,834	-0,21
274,3	-0,21
274,765	-0,2
275,231	-0,2
275,697	-0,19
276,163	-0,2
276,629	-0,19
277,095	-0,21
277,56	-0,2
278,026	-0,21
278,492	-0,19
278,958	-0,19
279,423	-0,19
279,889	-0,19
280,354	-0,2
280,82	-0,2
281,286	-0,21
281,751	-0,22
282,217	-0,21
282,682	-0,21
283,147	-0,21
283,613	-0,22
284,078	-0,22
284,544	-0,24
285,009	-0,25
285,474	-0,24
285,939	-0,25
286,405	-0,24
286,87	-0,23
287,335	-0,23
287,8	-0,23
288,265	-0,21
288,73	-0,22
289,195	-0,24
289,66	-0,23
290,125	-0,22
290,59	-0,23
291,055	-0,21
291,52	-0,22
291,985	-0,23
292,45	-0,24
292,915	-0,24
293,38	-0,24
293,844	-0,23
294,309	-0,21
294,774	-0,2
295,239	-0,21
295,703	-0,21
296,168	-0,21
296,632	-0,2
297,097	-0,18
297,562	-0,17
298,026	-0,17
298,491	-0,17
298,955	-0,17
299,419	-0,17
299,884	-0,17
300,348	-0,16
300,813	-0,16
301,277	-0,17
301,741	-0,16
302,205	-0,16
302,67	-0,15
303,134	-0,15
303,598	-0,15
304,062	-0,15
304,526	-0,14
304,99	-0,15
305,454	-0,14
305,919	-0,14
306,383	-0,14
306,847	-0,13
307,31	-0,14
307,774	-0,15
308,238	-0,14
308,702	-0,14
309,166	-0,15
309,63	-0,15
310,094	-0,11
310,557	-0,11
311,021	-0,11
311,485	-0,11
311,948	-0,11
312,412	-0,1
312,876	-0,09
313,339	-0,1
313,803	-0,1
314,266	-0,09
314,73	-0,09
315,193	-0,1
315,657	-0,09
316,12	-0,09
316,584	-0,08
317,047	-0,08
317,51	-0,07
317,973	-0,07
318,437	-0,05
318,9	-0,04
319,363	-0,03
319,826	-0,03
320,29	-0,03
320,753	-0,04
321,216	-0,04
321,679	-0,04
322,142	-0,03
322,605	-0,05
323,068	-0,05
323,531	-0,06
323,994	-0,06
324,457	-0,06
324,92	-0,05
325,382	-0,05
325,845	-0,05
326,308	-0,04
326,771	-0,03
327,233	-0,03
327,696	-0,01
328,159	0,01
328,622	0,03
329,084	0,02
329,547	0,03
330,009	0,04
330,472	0,05
330,934	0,05
331,397	0,05
331,859	0,06
332,322	0,06
332,784	0,06
333,246	0,06
333,709	0,06
334,171	0,06
334,633	0,06
335,096	0,06
335,558	0,05
336,02	0,06
336,482	0,06
336,944	0,06
337,406	0,06
337,868	0,07
338,331	0,06
338,793	0,08
339,255	0,09
339,717	0,09
340,178	0,11
340,64	0,12
341,102	0,13
341,564	0,14
342,026	0,15
342,488	0,16
342,949	0,17
343,411	0,2
343,873	0,22
344,335	0,25
344,796	0,28
345,258	0,32
345,719	0,36
346,181	0,4
346,643	0,44
347,104	0,47
347,566	0,5
348,027	0,52
348,488	0,54
348,95	0,56
349,411	0,58
349,873	0,6
350,334	0,62
350,795	0,63
351,256	0,64
351,718	0,65
352,179	0,65
352,64	0,66
353,101	0,66
353,562	0,66
354,023	0,66
354,484	0,67
354,945	0,67
355,406	0,67
355,867	0,67
356,328	0,67
356,789	0,68
357,25	0,68
357,711	0,68
358,172	0,68
358,633	0,68
359,093	0,68
359,554	0,69
360,015	0,69
360,476	0,69
360,936	0,69
361,397	0,69
361,858	0,69
362,318	0,69
362,779	0,69
363,239	0,69
363,7	0,69
364,16	0,69
364,621	0,69
365,081	0,69
365,541	0,69
366,002	0,69
366,462	0,69
366,922	0,69
367,383	0,69
367,843	0,69
368,303	0,69
368,763	0,69
369,223	0,69
369,684	0,69
370,144	0,69
370,604	0,69
371,064	0,69
371,524	0,69
371,984	0,69
372,444	0,69
372,904	0,69
373,363	0,69
373,823	0,69
374,283	0,69
374,743	0,69
375,203	0,69
375,663	0,69
376,122	0,69
376,582	0,69
377,042	0,69
377,501	0,69
377,961	0,69
378,42	0,69
378,88	0,69
379,34	0,69
379,799	0,69
380,259	0,69
380,718	0,69
381,177	0,69
381,637	0,69
382,096	0,69
382,555	0,69
383,015	0,69
383,474	0,69
383,933	0,69
384,393	0,69
384,852	0,69
385,311	0,69
385,77	0,68
386,229	0,68
386,688	0,68
387,147	0,68
387,606	0,68
388,065	0,68
388,524	0,68
388,983	0,68
389,442	0,68
389,901	0,68
390,36	0,68
390,819	0,68
391,277	0,68
391,736	0,68
392,195	0,68
392,654	0,68
393,112	0,68
393,571	0,68
394,03	0,68
394,488	0,68
394,947	0,68
395,405	0,68
395,864	0,68
396,322	0,68
396,781	0,68
397,239	0,68
397,698	0,68
398,156	0,68
398,614	0,68
399,073	0,68
399,531	0,68
399,989	0,68
400,447	0,68
400,905	0,68
401,364	0,67
401,822	0,67
402,28	0,67
402,738	0,67
403,196	0,67
403,654	0,67
404,112	0,67
404,57	0,67
405,028	0,67
405,486	0,67
405,944	0,67
406,402	0,67
406,859	0,67
407,317	0,67
407,775	0,67
408,233	0,67
408,691	0,67
409,148	0,67
409,606	0,67
410,064	0,67
410,521	0,67
410,979	0,67
411,436	0,67
411,894	0,67
412,351	0,67
412,809	0,67
413,266	0,67
413,724	0,67
414,181	0,67
414,638	0,67
415,096	0,67
415,553	0,67
416,01	0,67
416,467	0,67
416,925	0,67
417,382	0,67
417,839	0,67
418,296	0,67
418,753	0,67
419,21	0,67
419,667	0,67
420,124	0,67
420,581	0,67
421,038	0,67
421,495	0,67
421,952	0,67
422,409	0,67
422,866	0,67
423,322	0,67
423,779	0,67
424,236	0,67
424,693	0,67
425,149	0,67
425,606	0,67
426,063	0,67
426,519	0,67
426,976	0,67
427,433	0,67
427,889	0,67
428,346	0,67
428,802	0,67
429,258	0,66
429,715	0,66
430,171	0,66
430,628	0,66
431,084	0,66
431,54	0,66
431,997	0,66
432,453	0,66
432,909	0,66
433,365	0,66
433,821	0,66
434,277	0,66
434,734	0,66
435,19	0,66
435,646	0,66
436,102	0,66
436,558	0,66
437,014	0,66
437,47	0,66
437,925	0,66
438,381	0,66
438,837	0,66
439,293	0,66
439,749	0,66
440,205	0,66
440,66	0,66
441,116	0,66
441,572	0,66
442,027	0,66
442,483	0,66
442,939	0,66
443,394	0,66
443,85	0,66
444,305	0,66
444,761	0,66
445,216	0,66
445,672	0,67
446,127	0,67
446,582	0,67
447,038	0,67
447,493	0,67
447,948	0,67
448,403	0,67
448,859	0,67
449,314	0,67
449,769	0,67
450,224	0,67
450,679	0,67
451,134	0,67
451,589	0,67
452,044	0,67
452,499	0,67
452,954	0,67
453,409	0,67
453,864	0,67
454,319	0,67
454,774	0,67
455,229	0,67
455,684	0,67
456,138	0,67
456,593	0,67
457,048	0,67
457,503	0,67
457,957	0,67
458,412	0,67
458,866	0,67
459,321	0,67
459,776	0,67
460,23	0,67
460,685	0,67
461,139	0,67
461,593	0,67
462,048	0,67
462,502	0,67
462,957	0,68
463,411	0,68
463,865	0,68
464,319	0,68
464,774	0,68
465,228	0,68
465,682	0,68
466,136	0,68
466,59	0,68
467,044	0,68
467,499	0,68
467,953	0,68
468,407	0,68
468,861	0,68
469,315	0,69
469,768	0,69
470,222	0,69
470,676	0,69
471,13	0,69
471,584	0,69
472,038	0,69
472,491	0,69
472,945	0,69
473,399	0,69
473,852	0,69
474,306	0,69
474,76	0,69
475,213	0,7
475,667	0,7
476,12	0,7
476,574	0,7
477,027	0,7
477,481	0,7
477,934	0,7
478,388	0,7
478,841	0,7
479,294	0,71
479,748	0,71
480,201	0,71
480,654	0,71
481,107	0,71
481,561	0,71
482,014	0,72
482,467	0,72
482,92	0,72
483,373	0,72
483,826	0,72
484,279	0,72
484,732	0,72
485,185	0,73
485,638	0,73
486,091	0,73
486,544	0,73
486,997	0,73
487,449	0,74
487,902	0,74
488,355	0,74
488,808	0,74
489,26	0,74
489,713	0,75
490,166	0,75
490,618	0,75
491,071	0,75
491,523	0,75
491,976	0,76
492,429	0,76
492,881	0,76
493,333	0,76
493,786	0,77
494,238	0,77
494,691	0,77
495,143	0,78
495,595	0,78
496,048	0,78
496,5	0,78
496,952	0,79
497,404	0,79
497,856	0,79
498,309	0,8
498,761	0,8
499,213	0,8
499,665	0,81
500,117	0,81
500,569	0,81
501,021	0,82
501,473	0,82
501,925	0,82
502,377	0,83
502,828	0,83
503,28	0,83
503,732	0,84
504,184	0,84
504,636	0,84
505,087	0,85
505,539	0,85
505,991	0,85
506,442	0,86
506,894	0,86
507,345	0,86
507,797	0,87
508,249	0,87
508,7	0,87
509,151	0,88
509,603	0,88
510,054	0,88
510,506	0,89
510,957	0,89
511,408	0,89
511,86	0,9
512,311	0,9
512,762	0,9
513,213	0,91
513,665	0,91
514,116	0,91
514,567	0,91
515,018	0,92
515,469	0,92
515,92	0,92
516,371	0,92
516,822	0,93
517,273	0,93
517,724	0,93
518,175	0,93
518,626	0,94
519,076	0,94
519,527	0,94
519,978	0,94
520,429	0,94
520,88	0,95
521,33	0,95
521,781	0,95
522,232	0,95
522,682	0,95
523,133	0,96
523,583	0,96
524,034	0,96
524,484	0,96
524,935	0,96
525,385	0,96
525,836	0,96
526,286	0,96
526,736	0,96
527,187	0,96
527,637	0,96
528,087	0,96
528,538	0,96
528,988	0,96
529,438	0,96
529,888	0,96
530,338	0,96
530,788	0,96
531,238	0,96
531,688	0,95
532,139	0,95
532,589	0,95
533,038	0,95
533,488	0,95
533,938	0,95
534,388	0,94
534,838	0,94
535,288	0,94
535,738	0,94
536,187	0,93
536,637	0,93
537,087	0,93
537,537	0,92
537,986	0,92
538,436	0,92
538,885	0,92
539,335	0,91
539,785	0,91
540,234	0,9
540,684	0,9
541,133	0,9
541,582	0,89
542,032	0,89
542,481	0,88
542,931	0,88
543,38	0,88
543,829	0,87
544,278	0,87
544,728	0,86
545,177	0,86
545,626	0,86
546,075	0,85
546,524	0,85
546,973	0,85
547,422	0,84
547,871	0,84
548,32	0,84
548,769	0,84
549,218	0,83
549,667	0,83
550,116	0,83
550,565	0,82
551,014	0,82
551,463	0,82
551,911	0,81
552,36	0,81
552,809	0,81
553,258	0,8
553,706	0,8
554,155	0,8
554,603	0,79
555,052	0,79
555,501	0,79
555,949	0,78
556,398	0,78
556,846	0,77
557,294	0,77
557,743	0,77
558,191	0,76
558,64	0,76
559,088	0,75
559,536	0,75
559,985	0,75
560,433	0,74
560,881	0,74
561,329	0,74
561,777	0,73
562,225	0,73
562,674	0,73
563,122	0,72
563,57	0,72
564,018	0,72
564,466	0,71
564,914	0,71
565,362	0,71
565,809	0,7
566,257	0,7
566,705	0,7
567,153	0,69
567,601	0,69
568,048	0,69
568,496	0,68
568,944	0,68
569,392	0,68
569,839	0,67
570,287	0,67
570,734	0,67
571,182	0,67
571,63	0,66
572,077	0,66
572,525	0,66
572,972	0,65
573,419	0,65
573,867	0,65
574,314	0,65
574,761	0,64
575,209	0,64
575,656	0,64
576,103	0,63
576,551	0,63
576,998	0,63
577,445	0,63
577,892	0,63
578,339	0,62
578,786	0,62
579,233	0,62
579,68	0,61
580,127	0,61
580,574	0,61
581,021	0,61
581,468	0,6
581,915	0,6
582,362	0,6
582,809	0,6
583,255	0,6
583,702	0,6
584,149	0,59
584,596	0,59
585,042	0,59
585,489	0,59
585,936	0,59
586,382	0,58
586,829	0,58
587,275	0,58
587,722	0,58
588,168	0,58
588,615	0,58
589,061	0,57
589,508	0,57
589,954	0,57
590,4	0,57
590,847	0,57
591,293	0,57
591,739	0,56
592,185	0,56
592,632	0,56
593,078	0,56
593,524	0,56
593,97	0,56
594,416	0,56
594,862	0,56
595,308	0,56
595,754	0,56
596,2	0,55
596,646	0,55
597,092	0,55
597,538	0,55
597,984	0,55
598,43	0,55
598,876	0,55
599,321	0,55
599,767	0,54
600,213	0,54
600,659	0,54
601,104	0,54
601,55	0,54
601,995	0,54
602,441	0,54
602,887	0,54
603,332	0,53
603,778	0,53
604,223	0,53
604,668	0,53
605,114	0,53
605,559	0,53
606,005	0,53
606,45	0,53
606,895	0,53
607,341	0,53
607,786	0,53
608,231	0,52
608,676	0,52
609,121	0,52
609,566	0,51
610,012	0,51
610,457	0,5
610,902	0,5
611,347	0,5
611,792	0,49
612,237	0,49
612,682	0,49
613,127	0,49
613,571	0,49
614,016	0,5
614,461	0,5
614,906	0,5
615,351	0,5
615,795	0,5
616,24	0,5
616,685	0,5
617,129	0,5
617,574	0,5
618,019	0,5
618,463	0,5
618,908	0,5
619,352	0,5
619,797	0,5
620,241	0,5
620,686	0,5
621,13	0,5
621,574	0,5
622,019	0,5
622,463	0,5
622,907	0,5
623,352	0,49
623,796	0,49
624,24	0,49
624,684	0,49
625,128	0,49
625,572	0,49
626,016	0,49
626,461	0,49
626,905	0,49
627,349	0,49
627,793	0,49
628,236	0,49
628,68	0,49
629,124	0,49
629,568	0,49
630,012	0,49
630,456	0,49
630,9	0,49
631,343	0,49
631,787	0,49
632,231	0,49
632,674	0,49
633,118	0,49
633,562	0,49
634,005	0,49
634,449	0,49
634,892	0,49
635,336	0,49
635,779	0,49
636,223	0,49
636,666	0,49
637,109	0,49
637,553	0,49
637,996	0,49
638,439	0,49
638,883	0,49
639,326	0,49
639,769	0,49
640,212	0,48
640,655	0,48
641,099	0,48
641,542	0,48
641,985	0,48
642,428	0,48
642,871	0,48
643,314	0,48
643,757	0,48
644,2	0,48
644,643	0,48
645,085	0,48
645,528	0,48
645,971	0,48
646,414	0,47
646,857	0,47
647,299	0,47
647,742	0,47
648,185	0,47
648,627	0,47
649,07	0,47
649,513	0,47
649,955	0,47
650,398	0,47
650,84	0,47
651,283	0,47
651,725	0,47
652,168	0,48
652,61	0,48
653,052	0,48
653,495	0,47
653,937	0,39
654,379	0,33
654,821	0,34
655,264	0,34
655,706	0,34
656,148	0,34
656,59	0,34
657,032	0,34
657,474	0,34
657,916	0,34
658,358	0,33
658,8	0,39
659,242	0,47
659,684	0,47
660,126	0,47
660,568	0,47
661,01	0,47
661,452	0,47
661,894	0,47
662,335	0,47
662,777	0,47
663,219	0,47
663,661	0,47
664,102	0,47
664,544	0,47
664,985	0,47
665,427	0,47
665,869	0,47
666,31	0,47
666,752	0,47
667,193	0,47
667,634	0,47
668,076	0,47
668,517	0,47
668,959	0,47
669,4	0,47
669,841	0,47
670,282	0,47
670,724	0,47
671,165	0,47
671,606	0,47
672,047	0,47
672,488	0,47
672,929	0,47
673,37	0,47
673,811	0,47
674,252	0,46
674,693	0,46
675,134	0,46
675,575	0,46
676,016	0,46
676,457	0,46
676,898	0,46
677,339	0,46
677,78	0,46
678,22	0,46
678,661	0,46
679,102	0,46
679,542	0,46
679,983	0,46
680,424	0,46
680,864	0,46
681,305	0,46
681,745	0,46
682,186	0,46
682,626	0,46
683,067	0,46
683,507	0,46
683,948	0,46
684,388	0,46
684,828	0,46
685,269	0,46
685,709	0,46
686,149	0,45
686,589	0,45
687,029	0,45
687,47	0,45
687,91	0,45
688,35	0,45
688,79	0,45
689,23	0,45
689,67	0,45
690,11	0,45
690,55	0,45
690,99	0,45
691,43	0,45
691,87	0,45
692,31	0,45
692,749	0,45
693,189	0,45
693,629	0,44
694,069	0,44
694,508	0,44
694,948	0,44
695,388	0,44
695,827	0,44
696,267	0,44
696,706	0,44
697,146	0,45
697,586	0,45
698,025	0,45
698,464	0,45
698,904	0,45
699,343	0,45
699,783	0,45
700,222	0,45
700,661	0,45
701,101	0,45
701,54	0,45
701,979	0,45
702,418	0,45
702,857	0,45
703,297	0,45
703,736	0,45
704,175	0,45
704,614	0,45
705,053	0,45
705,492	0,45
705,931	0,45
706,37	0,45
706,809	0,45
707,248	0,45
707,687	0,44
708,125	0,44
708,564	0,44
709,003	0,44
709,442	0,44
709,88	0,44
710,319	0,44
710,758	0,44
711,196	0,44
711,635	0,44
712,074	0,44
712,512	0,44
712,951	0,44
713,389	0,44
713,828	0,43
714,266	0,43
714,705	0,43
715,143	0,43
715,581	0,43
716,02	0,43
716,458	0,43
716,896	0,43
717,334	0,43
717,773	0,43
718,211	0,43
718,649	0,43
719,087	0,43
719,525	0,44
719,963	0,44
720,401	0,44
720,839	0,44
721,277	0,44
721,715	0,44
722,153	0,44
722,591	0,44
723,029	0,44
723,467	0,44
723,905	0,44
724,342	0,44
724,78	0,44
725,218	0,44
725,656	0,44
726,093	0,44
726,531	0,44
726,969	0,44
727,406	0,44
727,844	0,44
728,281	0,44
728,719	0,44
729,156	0,43
729,594	0,43
730,031	0,43
730,469	0,43
730,906	0,43
731,343	0,43
731,781	0,43
732,218	0,43
732,655	0,43
733,092	0,43
733,53	0,43
733,967	0,43
734,404	0,43
734,841	0,43
735,278	0,42
735,715	0,42
736,152	0,42
736,589	0,42
737,026	0,42
737,463	0,42
737,9	0,42
738,337	0,42
738,774	0,42
739,211	0,42
739,647	0,42
740,084	0,42
740,521	0,42
740,958	0,42
741,394	0,42
741,831	0,42
742,268	0,42
742,704	0,42
743,141	0,42
743,577	0,42
744,014	0,42
744,45	0,42
744,887	0,42
745,323	0,41
745,76	0,41
746,196	0,41
746,632	0,41
747,069	0,41
747,505	0,41
747,941	0,41
748,378	0,41
748,814	0,41
749,25	0,41
749,686	0,41
750,122	0,41
750,558	0,41
750,994	0,42
751,43	0,42
751,866	0,42
752,302	0,42
752,738	0,42
753,174	0,42
753,61	0,42
754,046	0,42
754,482	0,42
754,918	0,42
755,354	0,42
755,789	0,42
756,225	0,42
756,661	0,42
757,096	0,41
757,532	0,41
757,968	0,41
758,403	0,41
758,839	0,41
759,274	0,4
759,71	0,4
760,145	0,39
760,581	0,39
761,016	0,38
761,452	0,38
761,887	0,38
762,322	0,37
762,758	0,37
763,193	0,36
763,628	0,36
764,063	0,35
764,499	0,35
764,934	0,34
765,369	0,33
765,804	0,33
766,239	0,32
766,674	0,31
767,109	0,3
767,544	0,3
767,979	0,29
768,414	0,28
768,849	0,27
769,284	0,26
769,719	0,26
770,154	0,25
770,588	0,24
771,023	0,23
771,458	0,22
771,893	0,21
772,327	0,19
772,762	0,18
773,197	0,17
773,631	0,16
774,066	0,15
774,5	0,14
774,935	0,12
775,369	0,11
775,804	0,1
776,238	0,1
776,673	0,08
777,107	0,07
777,541	0,07
777,976	0,06
778,41	0,06
778,844	0,05
779,279	0,04
779,713	0,03
780,147	0,02
780,581	0,02
781,015	0,01
781,449	-0,01
781,883	-0,01
782,317	-0,03
782,751	-0,04
783,185	-0,05
783,619	-0,05
784,053	-0,06
784,487	-0,07
784,921	-0,07
785,355	-0,08
785,789	-0,09
786,223	-0,1
786,656	-0,11
787,09	-0,12
787,524	-0,13
787,957	-0,14
788,391	-0,16
788,825	-0,18
789,258	-0,19
789,692	-0,21
790,125	-0,22
790,559	-0,24
790,992	-0,26
791,426	-0,28
791,859	-0,29
792,293	-0,33
792,726	-0,34
793,159	-0,36
793,593	-0,38
794,026	-0,4
794,459	-0,43
794,892	-0,46
795,326	-0,48
795,759	-0,52
796,192	-0,57
796,625	-0,62
797,058	-0,64
797,491	-0,69
797,924	-0,72
798,357	-0,78
798,79	-0,82
799,223	-0,86
799,656	-0,92
800,089	-0,96
800,522	-1,01
800,955	-1,05
801,387	-1,11
801,82	-1,16
802,253	-1,22
802,686	-1,3
803,118	-1,36
803,551	-1,41
803,984	-1,46
804,416	-1,49
804,849	-1,53
805,281	-1,63
805,714	-1,98
806,146	-2,45
806,579	-2,71
807,011	-2,87
807,444	-2,96
807,876	-3,05
808,308	-3,09
808,741	-3,12
809,173	-3,17
809,605	-3,19
810,037	-3,27
810,47	-3,19
810,902	-2,99
811,334	-2,84
811,766	-2,68
812,198	-2,45
812,63	-2,02
813,062	-1,81
813,494	-1,71
813,926	-1,62
814,358	-1,57
814,79	-1,49
815,222	-1,43
815,654	-1,38
816,086	-1,32
816,518	-1,26
816,949	-1,21
817,381	-1,16
817,813	-1,15
818,245	-1,1
818,676	-1,06
819,108	-1,03
819,54	-1,01
819,971	-0,99
820,403	-0,94
820,834	-0,93
821,266	-0,88
821,697	-0,86
822,129	-0,84
822,56	-0,81
822,991	-0,79
823,423	-0,77
823,854	-0,76
824,286	-0,73
824,717	-0,72
825,148	-0,7
825,579	-0,69
826,01	-0,67
826,442	-0,67
826,873	-0,65
827,304	-0,61
827,735	-0,6
828,166	-0,6
828,597	-0,6
829,028	-0,6
829,459	-0,6
829,89	-0,6
830,321	-0,56
830,752	-0,57
831,183	-0,56
831,613	-0,54
832,044	-0,55
832,475	-0,54
832,906	-0,55
833,336	-0,56
833,767	-0,56
834,198	-0,55
834,628	-0,52
835,059	-0,55
835,49	-0,56
835,92	-0,53
836,351	-0,53
836,781	-0,54
837,212	-0,54
837,642	-0,54
838,072	-0,51
838,503	-0,52
838,933	-0,49
839,364	-0,51
839,794	-0,48
840,224	-0,47
840,654	-0,52
841,085	-0,53
841,515	-0,51
841,945	-0,52
842,375	-0,48
842,805	-0,47
843,235	-0,47
843,665	-0,48
844,095	-0,47
844,525	-0,49
844,955	-0,49
845,385	-0,47
845,815	-0,44
846,245	-0,46
846,675	-0,47
847,105	-0,49
847,534	-0,49
847,964	-0,48
848,394	-0,46
848,824	-0,49
849,253	-0,5
849,683	-0,5
850,112	-0,51
850,542	-0,55
850,972	-0,55
851,401	-0,52
851,831	-0,5
852,26	-0,5
852,69	-0,53
853,119	-0,53
853,548	-0,52
853,978	-0,52
854,407	-0,5
854,836	-0,5
855,266	-0,49
855,695	-0,5
856,124	-0,51
856,553	-0,53
856,983	-0,55
857,412	-0,54
857,841	-0,55
858,27	-0,56
858,699	-0,56
859,128	-0,6
859,557	-0,6
859,986	-0,62
860,415	-0,6
860,844	-0,58
861,273	-0,58
861,702	-0,58
862,13	-0,55
862,559	-0,58
862,988	-0,55
863,417	-0,54
863,845	-0,53
864,274	-0,55
864,703	-0,53
865,131	-0,53
865,56	-0,54
865,989	-0,57
866,417	-0,54
866,846	-0,55
867,274	-0,54
867,703	-0,56
868,131	-0,58
868,559	-0,57
868,988	-0,59
869,416	-0,59
869,844	-0,61
870,273	-0,64
870,701	-0,62
871,129	-0,65
871,557	-0,67
871,986	-0,68
872,414	-0,69
872,842	-0,65
873,27	-0,63
873,698	-0,61
874,126	-0,63
874,554	-0,61
874,982	-0,6
875,41	-0,62
875,838	-0,58
876,266	-0,55
876,694	-0,56
877,122	-0,54
877,549	-0,6
877,977	-0,57
878,405	-0,59
878,833	-0,58
879,26	-0,56
879,688	-0,57
880,116	-0,55
880,543	-0,54
880,971	-0,54
881,399	-0,57
881,826	-0,58
882,254	-0,57
882,681	-0,6
883,109	-0,57
883,536	-0,57
883,963	-0,59
884,391	-0,57
884,818	-0,56
885,245	-0,6
885,673	-0,6
886,1	-0,57
886,527	-0,57
886,954	-0,53
887,381	-0,54
887,809	-0,55
888,236	-0,55
888,663	-0,56
889,09	-0,6
889,517	-0,62
889,944	-0,61
890,371	-0,6
890,798	-0,61
891,225	-0,6
891,652	-0,63
892,078	-0,61
892,505	-0,64
892,932	-0,6
893,359	-0,61
893,786	-0,62
894,212	-0,59
894,639	-0,6
895,066	-0,62
895,492	-0,56
895,919	-0,56
896,346	-0,56
896,772	-0,56
897,199	-0,52
897,625	-0,55
898,052	-0,51
898,478	-0,49
898,904	-0,51
899,331	-0,52
899,757	-0,54
900,183	-0,56
900,61	-0,54
901,036	-0,54
901,462	-0,55
901,888	-0,54
902,315	-0,54
902,741	-0,6
903,167	-0,57
903,593	-0,6
904,019	-0,58
904,445	-0,54
904,871	-0,58
905,297	-0,6
905,723	-0,6
906,149	-0,58
906,575	-0,59
907,001	-0,59
907,427	-0,57
907,852	-0,57
908,278	-0,57
908,704	-0,56
909,13	-0,55
909,555	-0,55
909,981	-0,54
910,407	-0,54
910,832	-0,53
911,258	-0,53
911,684	-0,54
912,109	-0,53
912,535	-0,55
912,96	-0,5
913,386	-0,54
913,811	-0,54
914,236	-0,55
914,662	-0,53
915,087	-0,56
915,512	-0,57
915,938	-0,59
916,363	-0,58
916,788	-0,59
917,213	-0,57
917,639	-0,62
918,064	-0,6
918,489	-0,6
918,914	-0,6
919,339	-0,62
919,764	-0,59
920,189	-0,59
920,614	-0,61
921,039	-0,62
921,464	-0,57
921,889	-0,6
922,314	-0,6
922,738	-0,63
923,163	-0,64
923,588	-0,64
924,013	-0,63
924,437	-0,64
924,862	-0,65
925,287	-0,6
925,711	-0,61
926,136	-0,62
926,561	-0,6
926,985	-0,6
927,41	-0,56
927,834	-0,53
928,259	-0,51
928,683	-0,49
929,108	-0,45
929,532	-0,46
929,956	-0,45
930,381	-0,44
930,805	-0,44
931,229	-0,44
931,653	-0,42
932,078	-0,43
932,502	-0,44
932,926	-0,45
933,35	-0,45
933,774	-0,44
934,198	-0,43
934,622	-0,42
935,046	-0,44
935,47	-0,44
935,894	-0,43
936,318	-0,43
936,742	-0,43
937,166	-0,43
937,59	-0,42
938,014	-0,45
938,437	-0,46
938,861	-0,47
939,285	-0,48
939,709	-0,47
940,132	-0,47
940,556	-0,48
940,98	-0,48
941,403	-0,47
941,827	-0,48
942,25	-0,49
942,674	-0,48
943,097	-0,47
943,521	-0,46
943,944	-0,47
944,368	-0,47
944,791	-0,46
945,214	-0,47
945,638	-0,48
946,061	-0,51
946,484	-0,51
946,907	-0,5
947,331	-0,48
947,754	-0,53
948,177	-0,51
948,6	-0,51
949,023	-0,51
949,446	-0,51
949,869	-0,49
950,292	-0,49
950,715	-0,46
951,138	-0,45
951,561	-0,43
951,984	-0,43
952,407	-0,41
952,83	-0,39
953,252	-0,35
953,675	-0,34
954,098	-0,35
954,521	-0,33
954,943	-0,32
955,366	-0,34
955,789	-0,32
956,211	-0,35
956,634	-0,34
957,056	-0,33
957,479	-0,34
957,902	-0,37
958,324	-0,38
958,746	-0,36
959,169	-0,37
959,591	-0,37
960,014	-0,38
960,436	-0,38
960,858	-0,37
961,281	-0,38
961,703	-0,38
962,125	-0,38
962,547	-0,36
962,969	-0,37
963,391	-0,37
963,814	-0,38
964,236	-0,37
964,658	-0,34
965,08	-0,35
965,502	-0,34
965,924	-0,32
966,346	-0,32
966,768	-0,31
967,189	-0,33
967,611	-0,32
968,033	-0,32
968,455	-0,31
968,877	-0,31
969,298	-0,33
969,72	-0,34
970,142	-0,33
970,563	-0,32
970,985	-0,31
971,407	-0,31
971,828	-0,29
972,25	-0,28
972,671	-0,26
973,093	-0,26
973,514	-0,25
973,936	-0,23
974,357	-0,21
974,778	-0,21
975,2	-0,21
975,621	-0,2
976,042	-0,18
976,464	-0,17
976,885	-0,17
977,306	-0,16
977,727	-0,15
978,148	-0,15
978,57	-0,13
978,991	-0,11
979,412	-0,1
979,833	-0,09
980,254	-0,08
980,675	-0,09
981,096	-0,08
981,517	-0,06
981,937	-0,06
982,358	-0,05
982,779	-0,04
983,2	-0,04
983,621	-0,03
984,042	-0,02
984,462	-0,01
984,883	0
985,304	0,02
985,724	0,04
986,145	0,05
986,565	0,06
986,986	0,07
987,407	0,09
987,827	0,1
988,248	0,12
988,668	0,13
989,088	0,14
989,509	0,16
989,929	0,17
990,35	0,18
990,77	0,19
991,19	0,2
991,61	0,21
992,031	0,22
992,451	0,23
992,871	0,23
993,291	0,24
993,711	0,25
994,131	0,26
994,551	0,27
994,971	0,28
995,391	0,28
995,811	0,29
996,231	0,29
996,651	0,3
997,071	0,31
997,491	0,31
997,911	0,32
998,331	0,33
998,75	0,33
999,17	0,34
999,59	0,34
1000,009	0,35
1000,429	0,35
1000,849	0,36
1001,268	0,36
1001,688	0,37
1002,107	0,37
1002,527	0,37
1002,946	0,38
1003,366	0,38
1003,785	0,38
1004,205	0,39
1004,624	0,39
1005,044	0,39
1005,463	0,39
1005,882	0,39
1006,301	0,4
1006,721	0,4
1007,14	0,4
1007,559	0,4
1007,978	0,4
1008,397	0,4
1008,816	0,4
1009,235	0,4
1009,655	0,4
1010,074	0,4
1010,492	0,4
1010,911	0,4
1011,33	0,4
1011,749	0,4
1012,168	0,4
1012,587	0,4
1013,006	0,4
1013,425	0,4
1013,843	0,39
1014,262	0,39
1014,681	0,39
1015,099	0,39
1015,518	0,39
1015,937	0,39
1016,355	0,39
1016,774	0,39
1017,192	0,39
1017,611	0,39
1018,029	0,39
1018,448	0,39
1018,866	0,39
1019,285	0,39
1019,703	0,39
1020,121	0,39
1020,54	0,39
1020,958	0,39
1021,376	0,39
1021,794	0,39
1022,213	0,39
1022,631	0,39
1023,049	0,38
1023,467	0,38
1023,885	0,38
1024,303	0,38
1024,721	0,38
1025,139	0,38
1025,557	0,38
1025,975	0,38
1026,393	0,38
1026,811	0,38
1027,229	0,38
1027,647	0,38
1028,065	0,38
1028,482	0,38
1028,9	0,38
1029,318	0,38
1029,735	0,38
1030,153	0,38
1030,571	0,37
1030,988	0,37
1031,406	0,38
1031,823	0,37
1032,241	0,38
1032,659	0,38
1033,076	0,38
1033,493	0,38
1033,911	0,38
1034,328	0,38
1034,746	0,38
1035,163	0,38
1035,58	0,38
1035,997	0,38
1036,415	0,38
1036,832	0,38
1037,249	0,38
1037,666	0,38
1038,083	0,38
1038,501	0,38
1038,918	0,38
1039,335	0,38
1039,752	0,38
1040,169	0,38
1040,586	0,38
1041,003	0,38
1041,419	0,38
1041,836	0,38
1042,253	0,38
1042,67	0,38
1043,087	0,38
1043,504	0,38
1043,92	0,38
1044,337	0,38
1044,754	0,38
1045,17	0,38
1045,587	0,37
1046,004	0,37
1046,42	0,37
1046,837	0,37
1047,253	0,37
1047,67	0,37
1048,086	0,37
1048,503	0,38
1048,919	0,38
1049,335	0,38
1049,752	0,38
1050,168	0,38
1050,584	0,38
1051,001	0,38
1051,417	0,38
1051,833	0,38
1052,249	0,38
1052,665	0,38
1053,081	0,38
1053,497	0,38
1053,914	0,38
1054,33	0,38
1054,746	0,38
1055,162	0,38
1055,578	0,38
1055,993	0,38
1056,409	0,38
1056,825	0,39
1057,241	0,39
1057,657	0,39
1058,073	0,38
1058,488	0,38
1058,904	0,38
1059,32	0,38
1059,736	0,38
1060,151	0,38
1060,567	0,38
1060,982	0,38
1061,398	0,38
1061,813	0,38
1062,229	0,38
1062,644	0,38
1063,06	0,38
1063,475	0,38
1063,891	0,38
1064,306	0,38
1064,721	0,38
1065,137	0,38
1065,552	0,38
1065,967	0,38
1066,382	0,38
1066,798	0,38
1067,213	0,38
1067,628	0,38
1068,043	0,38
1068,458	0,38
1068,873	0,38
1069,288	0,38
1069,703	0,38
1070,118	0,38
1070,533	0,38
1070,948	0,38
1071,363	0,38
1071,778	0,38
1072,193	0,38
1072,607	0,38
1073,022	0,38
1073,437	0,38
1073,852	0,38
1074,266	0,38
1074,681	0,38
1075,096	0,38
1075,51	0,38
1075,925	0,38
1076,339	0,38
1076,754	0,38
1077,168	0,38
1077,583	0,38
1077,997	0,38
1078,412	0,38
1078,826	0,38
1079,24	0,38
1079,655	0,37
1080,069	0,37
1080,483	0,37
1080,897	0,37
1081,312	0,37
1081,726	0,37
1082,14	0,37
1082,554	0,37
1082,968	0,37
1083,382	0,37
1083,796	0,37
1084,21	0,37
1084,624	0,37
1085,038	0,37
1085,452	0,37
1085,866	0,36
1086,28	0,36
1086,694	0,36
1087,108	0,36
1087,521	0,36
1087,935	0,36
1088,349	0,35
1088,763	0,35
1089,176	0,35
1089,59	0,35
1090,004	0,34
1090,417	0,34
1090,831	0,34
1091,244	0,33
1091,658	0,33
1092,071	0,33
1092,485	0,33
1092,898	0,32
1093,312	0,32
1093,725	0,32
1094,138	0,32
1094,552	0,32
1094,965	0,32
1095,378	0,32
1095,791	0,31
1096,205	0,31
1096,618	0,31
1097,031	0,31
1097,444	0,3
1097,857	0,3
1098,27	0,3
1098,683	0,29
1099,096	0,29
1099,509	0,29
1099,922	0,28
1100,335	0,28
1100,748	0,27
1101,161	0,27
1101,574	0,26
1101,986	0,26
1102,399	0,26
1102,812	0,26
1103,225	0,25
1103,637	0,25
1104,05	0,24
1104,463	0,24
1104,875	0,24
1105,288	0,24
1105,7	0,23
1106,113	0,23
1106,525	0,23
1106,938	0,22
1107,35	0,22
1107,763	0,22
1108,175	0,22
1108,588	0,21
1109	0,2
1109,412	0,2
1109,824	0,2
1110,237	0,2
1110,649	0,19
1111,061	0,19
