Data from 18C-808nm-8A-cont_Absorbance__244__01673.txt Node

Date: Mon Jul 17 17:26:45 CEST 2023
User: Laser008
Spectrometer: MAYP115816
Trigger mode: 0
Integration Time (sec): 2,500000E-1
Scans to average: 10
Electric dark correction enabled: true
Nonlinearity correction enabled: true
Boxcar width: 5
XAxis mode: Wavelengths
Number of Pixels in Spectrum: 2068
>>>>>Begin Spectral Data<<<<<
198,914	-0,67
199,384	-0,44
199,855	-0,31
200,325	-0,24
200,796	-0,22
201,266	-0,19
201,737	-0,18
202,207	-0,17
202,677	-0,16
203,147	-0,14
203,618	-0,12
204,088	-0,1
204,558	-0,09
205,028	-0,09
205,498	-0,09
205,968	-0,09
206,439	-0,1
206,909	-0,09
207,379	-0,09
207,849	-0,09
208,319	-0,1
208,789	-0,11
209,258	-0,11
209,728	-0,12
210,198	-0,12
210,668	-0,12
211,138	-0,11
211,608	-0,11
212,077	-0,12
212,547	-0,11
213,017	-0,13
213,486	-0,12
213,956	-0,13
214,426	-0,14
214,895	-0,13
215,365	-0,14
215,834	-0,13
216,304	-0,14
216,773	-0,14
217,243	-0,15
217,712	-0,17
218,181	-0,15
218,651	-0,16
219,12	-0,15
219,589	-0,15
220,058	-0,14
220,528	-0,15
220,997	-0,16
221,466	-0,17
221,935	-0,17
222,404	-0,17
222,873	-0,15
223,342	-0,15
223,812	-0,15
224,281	-0,15
224,749	-0,16
225,218	-0,18
225,687	-0,18
226,156	-0,17
226,625	-0,16
227,094	-0,15
227,563	-0,16
228,031	-0,18
228,5	-0,18
228,969	-0,19
229,438	-0,18
229,906	-0,16
230,375	-0,15
230,844	-0,16
231,312	-0,15
231,781	-0,16
232,249	-0,15
232,718	-0,16
233,186	-0,14
233,655	-0,15
234,123	-0,14
234,591	-0,14
235,06	-0,15
235,528	-0,15
235,996	-0,14
236,465	-0,13
236,933	-0,13
237,401	-0,13
237,869	-0,12
238,337	-0,12
238,805	-0,1
239,274	-0,1
239,742	-0,1
240,21	-0,1
240,678	-0,1
241,146	-0,09
241,614	-0,09
242,081	-0,08
242,549	-0,09
243,017	-0,09
243,485	-0,1
243,953	-0,1
244,421	-0,1
244,888	-0,1
245,356	-0,09
245,824	-0,09
246,291	-0,09
246,759	-0,11
247,227	-0,11
247,694	-0,1
248,162	-0,09
248,629	-0,08
249,097	-0,09
249,564	-0,1
250,032	-0,11
250,499	-0,11
250,967	-0,11
251,434	-0,11
251,901	-0,1
252,369	-0,1
252,836	-0,12
253,303	-0,13
253,77	-0,13
254,237	-0,12
254,705	-0,12
255,172	-0,11
255,639	-0,12
256,106	-0,14
256,573	-0,14
257,04	-0,14
257,507	-0,15
257,974	-0,15
258,441	-0,14
258,908	-0,15
259,375	-0,17
259,841	-0,17
260,308	-0,17
260,775	-0,17
261,242	-0,16
261,709	-0,16
262,175	-0,17
262,642	-0,17
263,109	-0,17
263,575	-0,18
264,042	-0,16
264,508	-0,15
264,975	-0,18
265,441	-0,19
265,908	-0,2
266,374	-0,18
266,841	-0,19
267,307	-0,19
267,773	-0,18
268,24	-0,17
268,706	-0,17
269,172	-0,18
269,639	-0,2
270,105	-0,18
270,571	-0,18
271,037	-0,17
271,503	-0,19
271,969	-0,18
272,435	-0,18
272,902	-0,19
273,368	-0,2
273,834	-0,19
274,3	-0,21
274,765	-0,21
275,231	-0,22
275,697	-0,21
276,163	-0,21
276,629	-0,2
277,095	-0,22
277,56	-0,21
278,026	-0,21
278,492	-0,2
278,958	-0,2
279,423	-0,21
279,889	-0,2
280,354	-0,19
280,82	-0,19
281,286	-0,21
281,751	-0,21
282,217	-0,21
282,682	-0,21
283,147	-0,21
283,613	-0,23
284,078	-0,22
284,544	-0,23
285,009	-0,23
285,474	-0,22
285,939	-0,24
286,405	-0,23
286,87	-0,21
287,335	-0,21
287,8	-0,2
288,265	-0,19
288,73	-0,2
289,195	-0,21
289,66	-0,21
290,125	-0,2
290,59	-0,21
291,055	-0,19
291,52	-0,19
291,985	-0,19
292,45	-0,21
292,915	-0,2
293,38	-0,2
293,844	-0,18
294,309	-0,17
294,774	-0,17
295,239	-0,18
295,703	-0,19
296,168	-0,18
296,632	-0,18
297,097	-0,17
297,562	-0,16
298,026	-0,16
298,491	-0,17
298,955	-0,17
299,419	-0,17
299,884	-0,17
300,348	-0,15
300,813	-0,14
301,277	-0,14
301,741	-0,14
302,205	-0,13
302,67	-0,12
303,134	-0,12
303,598	-0,12
304,062	-0,11
304,526	-0,09
304,99	-0,11
305,454	-0,11
305,919	-0,11
306,383	-0,11
306,847	-0,11
307,31	-0,13
307,774	-0,14
308,238	-0,14
308,702	-0,13
309,166	-0,15
309,63	-0,15
310,094	-0,12
310,557	-0,12
311,021	-0,11
311,485	-0,12
311,948	-0,12
312,412	-0,1
312,876	-0,09
313,339	-0,09
313,803	-0,1
314,266	-0,09
314,73	-0,09
315,193	-0,1
315,657	-0,08
316,12	-0,07
316,584	-0,06
317,047	-0,06
317,51	-0,05
317,973	-0,05
318,437	-0,04
318,9	-0,02
319,363	-0,01
319,826	-0,01
320,29	-0,01
320,753	-0,02
321,216	-0,02
321,679	-0,03
322,142	-0,02
322,605	-0,03
323,068	-0,03
323,531	-0,03
323,994	-0,03
324,457	-0,03
324,92	-0,02
325,382	-0,02
325,845	-0,01
326,308	-0,01
326,771	-0
327,233	0,01
327,696	0,01
328,159	0,02
328,622	0,03
329,084	0,02
329,547	0,03
330,009	0,03
330,472	0,04
330,934	0,05
331,397	0,05
331,859	0,06
332,322	0,06
332,784	0,07
333,246	0,07
333,709	0,07
334,171	0,08
334,633	0,08
335,096	0,08
335,558	0,08
336,02	0,07
336,482	0,07
336,944	0,08
337,406	0,08
337,868	0,08
338,331	0,09
338,793	0,1
339,255	0,11
339,717	0,11
340,178	0,13
340,64	0,13
341,102	0,14
341,564	0,15
342,026	0,16
342,488	0,17
342,949	0,19
343,411	0,21
343,873	0,23
344,335	0,26
344,796	0,29
345,258	0,34
345,719	0,38
346,181	0,42
346,643	0,46
347,104	0,49
347,566	0,52
348,027	0,55
348,488	0,57
348,95	0,59
349,411	0,61
349,873	0,63
350,334	0,65
350,795	0,66
351,256	0,67
351,718	0,68
352,179	0,69
352,64	0,69
353,101	0,69
353,562	0,7
354,023	0,7
354,484	0,7
354,945	0,71
355,406	0,71
355,867	0,71
356,328	0,71
356,789	0,71
357,25	0,71
357,711	0,72
358,172	0,72
358,633	0,72
359,093	0,72
359,554	0,72
360,015	0,72
360,476	0,72
360,936	0,73
361,397	0,73
361,858	0,73
362,318	0,73
362,779	0,73
363,239	0,73
363,7	0,73
364,16	0,73
364,621	0,73
365,081	0,73
365,541	0,73
366,002	0,73
366,462	0,73
366,922	0,73
367,383	0,73
367,843	0,73
368,303	0,73
368,763	0,73
369,223	0,73
369,684	0,73
370,144	0,73
370,604	0,73
371,064	0,73
371,524	0,73
371,984	0,73
372,444	0,73
372,904	0,73
373,363	0,73
373,823	0,73
374,283	0,73
374,743	0,73
375,203	0,73
375,663	0,73
376,122	0,73
376,582	0,73
377,042	0,73
377,501	0,73
377,961	0,73
378,42	0,73
378,88	0,73
379,34	0,73
379,799	0,73
380,259	0,73
380,718	0,72
381,177	0,72
381,637	0,72
382,096	0,72
382,555	0,72
383,015	0,72
383,474	0,72
383,933	0,72
384,393	0,72
384,852	0,72
385,311	0,72
385,77	0,72
386,229	0,72
386,688	0,72
387,147	0,72
387,606	0,72
388,065	0,72
388,524	0,72
388,983	0,72
389,442	0,72
389,901	0,72
390,36	0,72
390,819	0,72
391,277	0,72
391,736	0,72
392,195	0,72
392,654	0,72
393,112	0,72
393,571	0,72
394,03	0,72
394,488	0,72
394,947	0,71
395,405	0,71
395,864	0,71
396,322	0,71
396,781	0,71
397,239	0,71
397,698	0,71
398,156	0,71
398,614	0,71
399,073	0,71
399,531	0,71
399,989	0,71
400,447	0,71
400,905	0,71
401,364	0,71
401,822	0,71
402,28	0,71
402,738	0,71
403,196	0,71
403,654	0,71
404,112	0,71
404,57	0,71
405,028	0,71
405,486	0,71
405,944	0,71
406,402	0,71
406,859	0,71
407,317	0,71
407,775	0,71
408,233	0,71
408,691	0,71
409,148	0,71
409,606	0,71
410,064	0,71
410,521	0,71
410,979	0,71
411,436	0,71
411,894	0,71
412,351	0,71
412,809	0,71
413,266	0,7
413,724	0,7
414,181	0,7
414,638	0,7
415,096	0,7
415,553	0,7
416,01	0,7
416,467	0,7
416,925	0,7
417,382	0,7
417,839	0,7
418,296	0,7
418,753	0,7
419,21	0,7
419,667	0,7
420,124	0,7
420,581	0,7
421,038	0,7
421,495	0,7
421,952	0,7
422,409	0,7
422,866	0,7
423,322	0,7
423,779	0,7
424,236	0,7
424,693	0,7
425,149	0,7
425,606	0,7
426,063	0,7
426,519	0,7
426,976	0,7
427,433	0,7
427,889	0,7
428,346	0,7
428,802	0,7
429,258	0,7
429,715	0,7
430,171	0,7
430,628	0,7
431,084	0,7
431,54	0,7
431,997	0,7
432,453	0,7
432,909	0,7
433,365	0,7
433,821	0,7
434,277	0,7
434,734	0,7
435,19	0,7
435,646	0,7
436,102	0,7
436,558	0,7
437,014	0,7
437,47	0,7
437,925	0,7
438,381	0,7
438,837	0,7
439,293	0,7
439,749	0,7
440,205	0,7
440,66	0,7
441,116	0,7
441,572	0,7
442,027	0,7
442,483	0,7
442,939	0,7
443,394	0,7
443,85	0,7
444,305	0,7
444,761	0,7
445,216	0,7
445,672	0,7
446,127	0,7
446,582	0,7
447,038	0,7
447,493	0,7
447,948	0,7
448,403	0,7
448,859	0,7
449,314	0,7
449,769	0,7
450,224	0,7
450,679	0,7
451,134	0,7
451,589	0,7
452,044	0,7
452,499	0,71
452,954	0,71
453,409	0,71
453,864	0,71
454,319	0,71
454,774	0,71
455,229	0,71
455,684	0,71
456,138	0,71
456,593	0,71
457,048	0,71
457,503	0,71
457,957	0,71
458,412	0,71
458,866	0,71
459,321	0,71
459,776	0,71
460,23	0,71
460,685	0,71
461,139	0,71
461,593	0,71
462,048	0,71
462,502	0,71
462,957	0,71
463,411	0,71
463,865	0,72
464,319	0,72
464,774	0,72
465,228	0,72
465,682	0,72
466,136	0,72
466,59	0,72
467,044	0,72
467,499	0,72
467,953	0,72
468,407	0,72
468,861	0,72
469,315	0,72
469,768	0,72
470,222	0,72
470,676	0,72
471,13	0,73
471,584	0,73
472,038	0,73
472,491	0,73
472,945	0,73
473,399	0,73
473,852	0,73
474,306	0,73
474,76	0,73
475,213	0,74
475,667	0,74
476,12	0,74
476,574	0,74
477,027	0,74
477,481	0,74
477,934	0,74
478,388	0,74
478,841	0,75
479,294	0,75
479,748	0,75
480,201	0,75
480,654	0,75
481,107	0,75
481,561	0,75
482,014	0,76
482,467	0,76
482,92	0,76
483,373	0,76
483,826	0,76
484,279	0,76
484,732	0,77
485,185	0,77
485,638	0,77
486,091	0,77
486,544	0,77
486,997	0,77
487,449	0,78
487,902	0,78
488,355	0,78
488,808	0,78
489,26	0,79
489,713	0,79
490,166	0,79
490,618	0,79
491,071	0,8
491,523	0,8
491,976	0,8
492,429	0,8
492,881	0,81
493,333	0,81
493,786	0,81
494,238	0,81
494,691	0,82
495,143	0,82
495,595	0,82
496,048	0,83
496,5	0,83
496,952	0,83
497,404	0,84
497,856	0,84
498,309	0,84
498,761	0,85
499,213	0,85
499,665	0,85
500,117	0,86
500,569	0,86
501,021	0,87
501,473	0,87
501,925	0,87
502,377	0,88
502,828	0,88
503,28	0,88
503,732	0,89
504,184	0,89
504,636	0,89
505,087	0,9
505,539	0,9
505,991	0,9
506,442	0,91
506,894	0,91
507,345	0,91
507,797	0,92
508,249	0,92
508,7	0,93
509,151	0,93
509,603	0,93
510,054	0,94
510,506	0,94
510,957	0,94
511,408	0,95
511,86	0,95
512,311	0,95
512,762	0,96
513,213	0,96
513,665	0,96
514,116	0,97
514,567	0,97
515,018	0,97
515,469	0,97
515,92	0,98
516,371	0,98
516,822	0,98
517,273	0,99
517,724	0,99
518,175	0,99
518,626	0,99
519,076	1
519,527	1
519,978	1
520,429	1
520,88	1,01
521,33	1,01
521,781	1,01
522,232	1,01
522,682	1,01
523,133	1,01
523,583	1,02
524,034	1,02
524,484	1,02
524,935	1,02
525,385	1,02
525,836	1,02
526,286	1,02
526,736	1,02
527,187	1,02
527,637	1,02
528,087	1,02
528,538	1,02
528,988	1,02
529,438	1,02
529,888	1,02
530,338	1,01
530,788	1,01
531,238	1,01
531,688	1,01
532,139	1,01
532,589	1,01
533,038	1,01
533,488	1,01
533,938	1
534,388	1
534,838	1
535,288	1
535,738	0,99
536,187	0,99
536,637	0,99
537,087	0,98
537,537	0,98
537,986	0,98
538,436	0,97
538,885	0,97
539,335	0,96
539,785	0,96
540,234	0,96
540,684	0,95
541,133	0,95
541,582	0,94
542,032	0,94
542,481	0,93
542,931	0,93
543,38	0,92
543,829	0,92
544,278	0,92
544,728	0,91
545,177	0,91
545,626	0,91
546,075	0,9
546,524	0,9
546,973	0,89
547,422	0,89
547,871	0,89
548,32	0,89
548,769	0,88
549,218	0,88
549,667	0,88
550,116	0,87
550,565	0,87
551,014	0,87
551,463	0,86
551,911	0,86
552,36	0,85
552,809	0,85
553,258	0,84
553,706	0,84
554,155	0,84
554,603	0,83
555,052	0,83
555,501	0,83
555,949	0,82
556,398	0,82
556,846	0,81
557,294	0,81
557,743	0,81
558,191	0,8
558,64	0,8
559,088	0,79
559,536	0,79
559,985	0,78
560,433	0,78
560,881	0,77
561,329	0,77
561,777	0,77
562,225	0,76
562,674	0,76
563,122	0,76
563,57	0,75
564,018	0,75
564,466	0,75
564,914	0,74
565,362	0,74
565,809	0,74
566,257	0,73
566,705	0,73
567,153	0,72
567,601	0,72
568,048	0,72
568,496	0,71
568,944	0,71
569,392	0,71
569,839	0,7
570,287	0,7
570,734	0,7
571,182	0,7
571,63	0,69
572,077	0,69
572,525	0,69
572,972	0,68
573,419	0,68
573,867	0,68
574,314	0,67
574,761	0,67
575,209	0,67
575,656	0,66
576,103	0,66
576,551	0,66
576,998	0,66
577,445	0,65
577,892	0,65
578,339	0,65
578,786	0,65
579,233	0,64
579,68	0,64
580,127	0,64
580,574	0,63
581,021	0,63
581,468	0,63
581,915	0,63
582,362	0,62
582,809	0,62
583,255	0,62
583,702	0,62
584,149	0,62
584,596	0,62
585,042	0,61
585,489	0,61
585,936	0,61
586,382	0,61
586,829	0,6
587,275	0,6
587,722	0,6
588,168	0,6
588,615	0,6
589,061	0,59
589,508	0,59
589,954	0,59
590,4	0,59
590,847	0,59
591,293	0,59
591,739	0,58
592,185	0,58
592,632	0,58
593,078	0,58
593,524	0,58
593,97	0,58
594,416	0,58
594,862	0,58
595,308	0,57
595,754	0,57
596,2	0,57
596,646	0,57
597,092	0,57
597,538	0,57
597,984	0,57
598,43	0,56
598,876	0,56
599,321	0,56
599,767	0,56
600,213	0,56
600,659	0,56
601,104	0,56
601,55	0,56
601,995	0,56
602,441	0,55
602,887	0,55
603,332	0,55
603,778	0,55
604,223	0,55
604,668	0,55
605,114	0,55
605,559	0,55
606,005	0,55
606,45	0,54
606,895	0,54
607,341	0,54
607,786	0,54
608,231	0,54
608,676	0,54
609,121	0,53
609,566	0,52
610,012	0,52
610,457	0,52
610,902	0,51
611,347	0,51
611,792	0,51
612,237	0,51
612,682	0,51
613,127	0,51
613,571	0,51
614,016	0,51
614,461	0,51
614,906	0,52
615,351	0,52
615,795	0,52
616,24	0,52
616,685	0,52
617,129	0,52
617,574	0,52
618,019	0,52
618,463	0,52
618,908	0,52
619,352	0,52
619,797	0,52
620,241	0,52
620,686	0,51
621,13	0,51
621,574	0,51
622,019	0,51
622,463	0,51
622,907	0,51
623,352	0,51
623,796	0,51
624,24	0,51
624,684	0,51
625,128	0,51
625,572	0,51
626,016	0,51
626,461	0,51
626,905	0,51
627,349	0,51
627,793	0,5
628,236	0,5
628,68	0,5
629,124	0,5
629,568	0,5
630,012	0,5
630,456	0,5
630,9	0,5
631,343	0,5
631,787	0,5
632,231	0,5
632,674	0,5
633,118	0,5
633,562	0,5
634,005	0,5
634,449	0,5
634,892	0,5
635,336	0,5
635,779	0,5
636,223	0,5
636,666	0,5
637,109	0,5
637,553	0,5
637,996	0,5
638,439	0,5
638,883	0,5
639,326	0,5
639,769	0,5
640,212	0,5
640,655	0,5
641,099	0,49
641,542	0,49
641,985	0,49
642,428	0,49
642,871	0,49
643,314	0,49
643,757	0,49
644,2	0,49
644,643	0,49
645,085	0,49
645,528	0,49
645,971	0,49
646,414	0,49
646,857	0,49
647,299	0,49
647,742	0,49
648,185	0,49
648,627	0,48
649,07	0,48
649,513	0,48
649,955	0,48
650,398	0,48
650,84	0,48
651,283	0,49
651,725	0,49
652,168	0,49
652,61	0,49
653,052	0,49
653,495	0,49
653,937	0,4
654,379	0,34
654,821	0,35
655,264	0,35
655,706	0,35
656,148	0,35
656,59	0,35
657,032	0,35
657,474	0,35
657,916	0,35
658,358	0,34
658,8	0,4
659,242	0,48
659,684	0,48
660,126	0,48
660,568	0,48
661,01	0,48
661,452	0,48
661,894	0,48
662,335	0,48
662,777	0,48
663,219	0,48
663,661	0,48
664,102	0,48
664,544	0,48
664,985	0,48
665,427	0,48
665,869	0,48
666,31	0,48
666,752	0,48
667,193	0,48
667,634	0,48
668,076	0,48
668,517	0,48
668,959	0,48
669,4	0,48
669,841	0,48
670,282	0,48
670,724	0,48
671,165	0,48
671,606	0,48
672,047	0,48
672,488	0,48
672,929	0,48
673,37	0,48
673,811	0,48
674,252	0,47
674,693	0,47
675,134	0,47
675,575	0,47
676,016	0,47
676,457	0,47
676,898	0,47
677,339	0,47
677,78	0,47
678,22	0,47
678,661	0,47
679,102	0,47
679,542	0,47
679,983	0,47
680,424	0,47
680,864	0,47
681,305	0,47
681,745	0,47
682,186	0,47
682,626	0,47
683,067	0,47
683,507	0,47
683,948	0,47
684,388	0,47
684,828	0,47
685,269	0,47
685,709	0,47
686,149	0,47
686,589	0,46
687,029	0,46
687,47	0,46
687,91	0,46
688,35	0,46
688,79	0,46
689,23	0,46
689,67	0,46
690,11	0,46
690,55	0,46
690,99	0,46
691,43	0,46
691,87	0,46
692,31	0,46
692,749	0,46
693,189	0,45
693,629	0,45
694,069	0,45
694,508	0,45
694,948	0,45
695,388	0,45
695,827	0,45
696,267	0,45
696,706	0,45
697,146	0,45
697,586	0,46
698,025	0,46
698,464	0,46
698,904	0,46
699,343	0,46
699,783	0,46
700,222	0,46
700,661	0,46
701,101	0,46
701,54	0,46
701,979	0,46
702,418	0,46
702,857	0,46
703,297	0,46
703,736	0,46
704,175	0,46
704,614	0,46
705,053	0,46
705,492	0,46
705,931	0,46
706,37	0,46
706,809	0,46
707,248	0,45
707,687	0,45
708,125	0,45
708,564	0,45
709,003	0,45
709,442	0,45
709,88	0,45
710,319	0,45
710,758	0,45
711,196	0,45
711,635	0,45
712,074	0,45
712,512	0,45
712,951	0,45
713,389	0,44
713,828	0,44
714,266	0,44
714,705	0,44
715,143	0,44
715,581	0,44
716,02	0,44
716,458	0,44
716,896	0,44
717,334	0,44
717,773	0,44
718,211	0,44
718,649	0,45
719,087	0,45
719,525	0,45
719,963	0,45
720,401	0,45
720,839	0,45
721,277	0,45
721,715	0,45
722,153	0,45
722,591	0,45
723,029	0,45
723,467	0,45
723,905	0,45
724,342	0,45
724,78	0,45
725,218	0,45
725,656	0,45
726,093	0,45
726,531	0,45
726,969	0,45
727,406	0,45
727,844	0,45
728,281	0,45
728,719	0,45
729,156	0,45
729,594	0,44
730,031	0,44
730,469	0,44
730,906	0,44
731,343	0,44
731,781	0,44
732,218	0,44
732,655	0,44
733,092	0,44
733,53	0,44
733,967	0,44
734,404	0,44
734,841	0,43
735,278	0,43
735,715	0,43
736,152	0,43
736,589	0,43
737,026	0,43
737,463	0,43
737,9	0,43
738,337	0,43
738,774	0,43
739,211	0,43
739,647	0,43
740,084	0,43
740,521	0,43
740,958	0,43
741,394	0,43
741,831	0,43
742,268	0,43
742,704	0,43
743,141	0,43
743,577	0,43
744,014	0,43
744,45	0,43
744,887	0,43
745,323	0,42
745,76	0,42
746,196	0,42
746,632	0,42
747,069	0,42
747,505	0,42
747,941	0,42
748,378	0,42
748,814	0,42
749,25	0,42
749,686	0,42
750,122	0,42
750,558	0,42
750,994	0,43
751,43	0,43
751,866	0,43
752,302	0,43
752,738	0,43
753,174	0,43
753,61	0,43
754,046	0,43
754,482	0,43
754,918	0,43
755,354	0,43
755,789	0,43
756,225	0,43
756,661	0,43
757,096	0,43
757,532	0,42
757,968	0,42
758,403	0,42
758,839	0,42
759,274	0,41
759,71	0,41
760,145	0,4
760,581	0,4
761,016	0,39
761,452	0,39
761,887	0,39
762,322	0,38
762,758	0,38
763,193	0,37
763,628	0,36
764,063	0,36
764,499	0,35
764,934	0,35
765,369	0,34
765,804	0,33
766,239	0,33
766,674	0,32
767,109	0,31
767,544	0,3
767,979	0,29
768,414	0,28
768,849	0,27
769,284	0,27
769,719	0,26
770,154	0,25
770,588	0,24
771,023	0,23
771,458	0,22
771,893	0,21
772,327	0,19
772,762	0,18
773,197	0,18
773,631	0,17
774,066	0,16
774,5	0,15
774,935	0,14
775,369	0,13
775,804	0,12
776,238	0,11
776,673	0,11
777,107	0,1
777,541	0,09
777,976	0,08
778,41	0,07
778,844	0,06
779,279	0,05
779,713	0,05
780,147	0,03
780,581	0,03
781,015	0,02
781,449	0,01
781,883	0
782,317	-0,01
782,751	-0,02
783,185	-0,03
783,619	-0,03
784,053	-0,04
784,487	-0,05
784,921	-0,06
785,355	-0,07
785,789	-0,08
786,223	-0,09
786,656	-0,1
787,09	-0,11
787,524	-0,12
787,957	-0,13
788,391	-0,16
788,825	-0,17
789,258	-0,19
789,692	-0,2
790,125	-0,22
790,559	-0,23
790,992	-0,25
791,426	-0,27
791,859	-0,28
792,293	-0,32
792,726	-0,34
793,159	-0,35
793,593	-0,37
794,026	-0,4
794,459	-0,42
794,892	-0,45
795,326	-0,48
795,759	-0,52
796,192	-0,56
796,625	-0,61
797,058	-0,63
797,491	-0,68
797,924	-0,72
798,357	-0,77
798,79	-0,81
799,223	-0,85
799,656	-0,9
800,089	-0,95
800,522	-0,99
800,955	-1,04
801,387	-1,1
801,82	-1,15
802,253	-1,21
802,686	-1,29
803,118	-1,35
803,551	-1,4
803,984	-1,44
804,416	-1,48
804,849	-1,51
805,281	-1,62
805,714	-1,97
806,146	-2,44
806,579	-2,7
807,011	-2,87
807,444	-2,96
807,876	-3,05
808,308	-3,09
808,741	-3,12
809,173	-3,17
809,605	-3,19
810,037	-3,27
810,47	-3,19
810,902	-2,99
811,334	-2,85
811,766	-2,69
812,198	-2,47
812,63	-2,03
813,062	-1,8
813,494	-1,7
813,926	-1,61
814,358	-1,56
814,79	-1,48
815,222	-1,42
815,654	-1,37
816,086	-1,31
816,518	-1,25
816,949	-1,2
817,381	-1,15
817,813	-1,14
818,245	-1,1
818,676	-1,06
819,108	-1,02
819,54	-1,01
819,971	-0,98
820,403	-0,93
820,834	-0,92
821,266	-0,87
821,697	-0,85
822,129	-0,83
822,56	-0,8
822,991	-0,77
823,423	-0,75
823,854	-0,73
824,286	-0,71
824,717	-0,7
825,148	-0,69
825,579	-0,68
826,01	-0,66
826,442	-0,66
826,873	-0,63
827,304	-0,6
827,735	-0,6
828,166	-0,6
828,597	-0,6
829,028	-0,58
829,459	-0,59
829,89	-0,59
830,321	-0,55
830,752	-0,56
831,183	-0,55
831,613	-0,55
832,044	-0,54
832,475	-0,54
832,906	-0,55
833,336	-0,55
833,767	-0,56
834,198	-0,55
834,628	-0,53
835,059	-0,55
835,49	-0,55
835,92	-0,53
836,351	-0,53
836,781	-0,53
837,212	-0,54
837,642	-0,55
838,072	-0,53
838,503	-0,54
838,933	-0,51
839,364	-0,52
839,794	-0,51
840,224	-0,5
840,654	-0,54
841,085	-0,54
841,515	-0,52
841,945	-0,53
842,375	-0,48
842,805	-0,46
843,235	-0,45
843,665	-0,47
844,095	-0,45
844,525	-0,46
844,955	-0,47
845,385	-0,45
845,815	-0,43
846,245	-0,45
846,675	-0,45
847,105	-0,48
847,534	-0,48
847,964	-0,47
848,394	-0,46
848,824	-0,49
849,253	-0,48
849,683	-0,48
850,112	-0,5
850,542	-0,54
850,972	-0,53
851,401	-0,5
851,831	-0,48
852,26	-0,48
852,69	-0,51
853,119	-0,5
853,548	-0,51
853,978	-0,51
854,407	-0,49
854,836	-0,48
855,266	-0,46
855,695	-0,48
856,124	-0,51
856,553	-0,52
856,983	-0,53
857,412	-0,54
857,841	-0,55
858,27	-0,56
858,699	-0,57
859,128	-0,6
859,557	-0,62
859,986	-0,63
860,415	-0,6
860,844	-0,57
861,273	-0,58
861,702	-0,59
862,13	-0,57
862,559	-0,59
862,988	-0,56
863,417	-0,55
863,845	-0,53
864,274	-0,54
864,703	-0,54
865,131	-0,54
865,56	-0,55
865,989	-0,58
866,417	-0,55
866,846	-0,56
867,274	-0,54
867,703	-0,56
868,131	-0,57
868,559	-0,58
868,988	-0,6
869,416	-0,58
869,844	-0,61
870,273	-0,63
870,701	-0,61
871,129	-0,64
871,557	-0,67
871,986	-0,68
872,414	-0,69
872,842	-0,67
873,27	-0,65
873,698	-0,62
874,126	-0,66
874,554	-0,64
874,982	-0,63
875,41	-0,66
875,838	-0,61
876,266	-0,58
876,694	-0,58
877,122	-0,57
877,549	-0,62
877,977	-0,59
878,405	-0,62
878,833	-0,59
879,26	-0,57
879,688	-0,58
880,116	-0,57
880,543	-0,55
880,971	-0,55
881,399	-0,58
881,826	-0,59
882,254	-0,57
882,681	-0,6
883,109	-0,56
883,536	-0,56
883,963	-0,58
884,391	-0,56
884,818	-0,54
885,245	-0,58
885,673	-0,59
886,1	-0,56
886,527	-0,54
886,954	-0,51
887,381	-0,54
887,809	-0,55
888,236	-0,56
888,663	-0,58
889,09	-0,62
889,517	-0,64
889,944	-0,63
890,371	-0,61
890,798	-0,61
891,225	-0,62
891,652	-0,64
892,078	-0,61
892,505	-0,65
892,932	-0,6
893,359	-0,6
893,786	-0,59
894,212	-0,57
894,639	-0,59
895,066	-0,61
895,492	-0,56
895,919	-0,56
896,346	-0,56
896,772	-0,57
897,199	-0,54
897,625	-0,57
898,052	-0,53
898,478	-0,51
898,904	-0,53
899,331	-0,52
899,757	-0,54
900,183	-0,56
900,61	-0,55
901,036	-0,56
901,462	-0,55
901,888	-0,54
902,315	-0,53
902,741	-0,59
903,167	-0,57
903,593	-0,6
904,019	-0,58
904,445	-0,56
904,871	-0,59
905,297	-0,6
905,723	-0,59
906,149	-0,59
906,575	-0,59
907,001	-0,6
907,427	-0,56
907,852	-0,56
908,278	-0,57
908,704	-0,55
909,13	-0,54
909,555	-0,53
909,981	-0,52
910,407	-0,53
910,832	-0,52
911,258	-0,52
911,684	-0,52
912,109	-0,52
912,535	-0,54
912,96	-0,5
913,386	-0,54
913,811	-0,53
914,236	-0,55
914,662	-0,52
915,087	-0,56
915,512	-0,55
915,938	-0,57
916,363	-0,55
916,788	-0,57
917,213	-0,55
917,639	-0,59
918,064	-0,57
918,489	-0,56
918,914	-0,56
919,339	-0,58
919,764	-0,55
920,189	-0,55
920,614	-0,57
921,039	-0,57
921,464	-0,53
921,889	-0,56
922,314	-0,56
922,738	-0,59
923,163	-0,61
923,588	-0,61
924,013	-0,6
924,437	-0,6
924,862	-0,62
925,287	-0,58
925,711	-0,6
926,136	-0,61
926,561	-0,6
926,985	-0,59
927,41	-0,57
927,834	-0,55
928,259	-0,52
928,683	-0,5
929,108	-0,47
929,532	-0,48
929,956	-0,47
930,381	-0,46
930,805	-0,47
931,229	-0,46
931,653	-0,44
932,078	-0,43
932,502	-0,44
932,926	-0,45
933,35	-0,45
933,774	-0,45
934,198	-0,43
934,622	-0,42
935,046	-0,43
935,47	-0,42
935,894	-0,41
936,318	-0,42
936,742	-0,42
937,166	-0,43
937,59	-0,42
938,014	-0,45
938,437	-0,45
938,861	-0,47
939,285	-0,49
939,709	-0,48
940,132	-0,49
940,556	-0,5
940,98	-0,5
941,403	-0,49
941,827	-0,48
942,25	-0,5
942,674	-0,48
943,097	-0,47
943,521	-0,47
943,944	-0,48
944,368	-0,46
944,791	-0,44
945,214	-0,47
945,638	-0,47
946,061	-0,5
946,484	-0,52
946,907	-0,51
947,331	-0,51
947,754	-0,55
948,177	-0,53
948,6	-0,53
949,023	-0,53
949,446	-0,54
949,869	-0,51
950,292	-0,51
950,715	-0,47
951,138	-0,45
951,561	-0,43
951,984	-0,44
952,407	-0,42
952,83	-0,4
953,252	-0,36
953,675	-0,35
954,098	-0,36
954,521	-0,34
954,943	-0,33
955,366	-0,34
955,789	-0,33
956,211	-0,35
956,634	-0,35
957,056	-0,32
957,479	-0,33
957,902	-0,36
958,324	-0,36
958,746	-0,34
959,169	-0,35
959,591	-0,36
960,014	-0,38
960,436	-0,37
960,858	-0,36
961,281	-0,36
961,703	-0,38
962,125	-0,38
962,547	-0,36
962,969	-0,37
963,391	-0,37
963,814	-0,38
964,236	-0,37
964,658	-0,33
965,08	-0,34
965,502	-0,33
965,924	-0,3
966,346	-0,3
966,768	-0,3
967,189	-0,31
967,611	-0,31
968,033	-0,3
968,455	-0,28
968,877	-0,28
969,298	-0,3
969,72	-0,3
970,142	-0,3
970,563	-0,31
970,985	-0,29
971,407	-0,28
971,828	-0,26
972,25	-0,25
972,671	-0,24
973,093	-0,24
973,514	-0,23
973,936	-0,21
974,357	-0,2
974,778	-0,2
975,2	-0,19
975,621	-0,19
976,042	-0,17
976,464	-0,17
976,885	-0,16
977,306	-0,16
977,727	-0,15
978,148	-0,15
978,57	-0,14
978,991	-0,12
979,412	-0,1
979,833	-0,1
980,254	-0,09
980,675	-0,09
981,096	-0,08
981,517	-0,06
981,937	-0,06
982,358	-0,05
982,779	-0,03
983,2	-0,03
983,621	-0,02
984,042	-0,01
984,462	0,01
984,883	0,02
985,304	0,03
985,724	0,05
986,145	0,06
986,565	0,08
986,986	0,09
987,407	0,1
987,827	0,11
988,248	0,13
988,668	0,14
989,088	0,15
989,509	0,16
989,929	0,17
990,35	0,18
990,77	0,19
991,19	0,2
991,61	0,21
992,031	0,22
992,451	0,24
992,871	0,25
993,291	0,25
993,711	0,26
994,131	0,27
994,551	0,28
994,971	0,28
995,391	0,29
995,811	0,3
996,231	0,3
996,651	0,31
997,071	0,32
997,491	0,32
997,911	0,33
998,331	0,34
998,75	0,35
999,17	0,35
999,59	0,36
1000,009	0,36
1000,429	0,37
1000,849	0,37
1001,268	0,38
1001,688	0,38
1002,107	0,39
1002,527	0,39
1002,946	0,39
1003,366	0,39
1003,785	0,4
1004,205	0,4
1004,624	0,4
1005,044	0,41
1005,463	0,41
1005,882	0,41
1006,301	0,41
1006,721	0,41
1007,14	0,41
1007,559	0,42
1007,978	0,42
1008,397	0,42
1008,816	0,42
1009,235	0,42
1009,655	0,42
1010,074	0,42
1010,492	0,42
1010,911	0,42
1011,33	0,42
1011,749	0,41
1012,168	0,41
1012,587	0,41
1013,006	0,41
1013,425	0,41
1013,843	0,41
1014,262	0,41
1014,681	0,41
1015,099	0,41
1015,518	0,41
1015,937	0,41
1016,355	0,41
1016,774	0,4
1017,192	0,4
1017,611	0,4
1018,029	0,4
1018,448	0,4
1018,866	0,4
1019,285	0,4
1019,703	0,4
1020,121	0,4
1020,54	0,4
1020,958	0,4
1021,376	0,4
1021,794	0,4
1022,213	0,4
1022,631	0,4
1023,049	0,4
1023,467	0,4
1023,885	0,4
1024,303	0,4
1024,721	0,4
1025,139	0,4
1025,557	0,4
1025,975	0,39
1026,393	0,39
1026,811	0,39
1027,229	0,39
1027,647	0,39
1028,065	0,39
1028,482	0,39
1028,9	0,39
1029,318	0,39
1029,735	0,39
1030,153	0,39
1030,571	0,39
1030,988	0,39
1031,406	0,39
1031,823	0,39
1032,241	0,39
1032,659	0,39
1033,076	0,39
1033,493	0,39
1033,911	0,39
1034,328	0,39
1034,746	0,39
1035,163	0,39
1035,58	0,39
1035,997	0,39
1036,415	0,39
1036,832	0,39
1037,249	0,39
1037,666	0,39
1038,083	0,39
1038,501	0,39
1038,918	0,39
1039,335	0,39
1039,752	0,39
1040,169	0,39
1040,586	0,39
1041,003	0,39
1041,419	0,39
1041,836	0,39
1042,253	0,39
1042,67	0,39
1043,087	0,39
1043,504	0,39
1043,92	0,39
1044,337	0,39
1044,754	0,39
1045,17	0,39
1045,587	0,39
1046,004	0,39
1046,42	0,39
1046,837	0,39
1047,253	0,39
1047,67	0,39
1048,086	0,39
1048,503	0,39
1048,919	0,39
1049,335	0,39
1049,752	0,39
1050,168	0,39
1050,584	0,39
1051,001	0,39
1051,417	0,39
1051,833	0,39
1052,249	0,39
1052,665	0,39
1053,081	0,39
1053,497	0,4
1053,914	0,4
1054,33	0,4
1054,746	0,4
1055,162	0,4
1055,578	0,4
1055,993	0,4
1056,409	0,4
1056,825	0,4
1057,241	0,4
1057,657	0,4
1058,073	0,4
1058,488	0,4
1058,904	0,4
1059,32	0,4
1059,736	0,4
1060,151	0,4
1060,567	0,4
1060,982	0,4
1061,398	0,4
1061,813	0,4
1062,229	0,4
1062,644	0,4
1063,06	0,4
1063,475	0,4
1063,891	0,39
1064,306	0,39
1064,721	0,39
1065,137	0,39
1065,552	0,39
1065,967	0,39
1066,382	0,39
1066,798	0,39
1067,213	0,39
1067,628	0,39
1068,043	0,39
1068,458	0,39
1068,873	0,39
1069,288	0,39
1069,703	0,39
1070,118	0,39
1070,533	0,39
1070,948	0,39
1071,363	0,39
1071,778	0,39
1072,193	0,39
1072,607	0,39
1073,022	0,39
1073,437	0,39
1073,852	0,39
1074,266	0,39
1074,681	0,39
1075,096	0,39
1075,51	0,39
1075,925	0,39
1076,339	0,39
1076,754	0,39
1077,168	0,39
1077,583	0,39
1077,997	0,39
1078,412	0,39
1078,826	0,39
1079,24	0,39
1079,655	0,39
1080,069	0,39
1080,483	0,39
1080,897	0,39
1081,312	0,39
1081,726	0,39
1082,14	0,39
1082,554	0,39
1082,968	0,38
1083,382	0,38
1083,796	0,38
1084,21	0,38
1084,624	0,38
1085,038	0,38
1085,452	0,38
1085,866	0,38
1086,28	0,38
1086,694	0,37
1087,108	0,37
1087,521	0,37
1087,935	0,37
1088,349	0,37
1088,763	0,37
1089,176	0,36
1089,59	0,36
1090,004	0,36
1090,417	0,36
1090,831	0,35
1091,244	0,35
1091,658	0,35
1092,071	0,35
1092,485	0,34
1092,898	0,34
1093,312	0,34
1093,725	0,34
1094,138	0,33
1094,552	0,33
1094,965	0,33
1095,378	0,33
1095,791	0,32
1096,205	0,32
1096,618	0,32
1097,031	0,32
1097,444	0,31
1097,857	0,31
1098,27	0,31
1098,683	0,3
1099,096	0,3
1099,509	0,3
1099,922	0,29
1100,335	0,29
1100,748	0,28
1101,161	0,28
1101,574	0,27
1101,986	0,27
1102,399	0,27
1102,812	0,26
1103,225	0,26
1103,637	0,26
1104,05	0,26
1104,463	0,26
1104,875	0,26
1105,288	0,25
1105,7	0,25
1106,113	0,25
1106,525	0,24
1106,938	0,24
1107,35	0,23
1107,763	0,23
1108,175	0,23
1108,588	0,22
1109	0,21
1109,412	0,21
1109,824	0,21
1110,237	0,21
1110,649	0,21
1111,061	0,21
