Data from 18C-808nm-8A-cont_Absorbance__507__01936.txt Node

Date: Mon Jul 17 17:37:43 CEST 2023
User: Laser008
Spectrometer: MAYP115816
Trigger mode: 0
Integration Time (sec): 2,500000E-1
Scans to average: 10
Electric dark correction enabled: true
Nonlinearity correction enabled: true
Boxcar width: 5
XAxis mode: Wavelengths
Number of Pixels in Spectrum: 2068
>>>>>Begin Spectral Data<<<<<
198,914	-0,75
199,384	-0,51
199,855	-0,38
200,325	-0,28
200,796	-0,26
201,266	-0,21
201,737	-0,19
202,207	-0,17
202,677	-0,15
203,147	-0,14
203,618	-0,11
204,088	-0,09
204,558	-0,08
205,028	-0,07
205,498	-0,08
205,968	-0,08
206,439	-0,08
206,909	-0,08
207,379	-0,1
207,849	-0,1
208,319	-0,1
208,789	-0,11
209,258	-0,11
209,728	-0,11
210,198	-0,12
210,668	-0,12
211,138	-0,11
211,608	-0,12
212,077	-0,11
212,547	-0,11
213,017	-0,12
213,486	-0,12
213,956	-0,13
214,426	-0,13
214,895	-0,13
215,365	-0,14
215,834	-0,14
216,304	-0,16
216,773	-0,16
217,243	-0,17
217,712	-0,18
218,181	-0,18
218,651	-0,18
219,12	-0,18
219,589	-0,18
220,058	-0,18
220,528	-0,19
220,997	-0,19
221,466	-0,2
221,935	-0,21
222,404	-0,2
222,873	-0,19
223,342	-0,19
223,812	-0,18
224,281	-0,18
224,749	-0,19
225,218	-0,21
225,687	-0,2
226,156	-0,19
226,625	-0,17
227,094	-0,17
227,563	-0,18
228,031	-0,2
228,5	-0,19
228,969	-0,19
229,438	-0,18
229,906	-0,17
230,375	-0,16
230,844	-0,16
231,312	-0,16
231,781	-0,17
232,249	-0,16
232,718	-0,16
233,186	-0,13
233,655	-0,14
234,123	-0,14
234,591	-0,14
235,06	-0,15
235,528	-0,15
235,996	-0,14
236,465	-0,14
236,933	-0,14
237,401	-0,15
237,869	-0,15
238,337	-0,15
238,805	-0,14
239,274	-0,13
239,742	-0,13
240,21	-0,14
240,678	-0,13
241,146	-0,12
241,614	-0,12
242,081	-0,12
242,549	-0,12
243,017	-0,12
243,485	-0,12
243,953	-0,12
244,421	-0,13
244,888	-0,12
245,356	-0,12
245,824	-0,11
246,291	-0,11
246,759	-0,12
247,227	-0,13
247,694	-0,11
248,162	-0,11
248,629	-0,1
249,097	-0,11
249,564	-0,12
250,032	-0,13
250,499	-0,12
250,967	-0,13
251,434	-0,13
251,901	-0,13
252,369	-0,13
252,836	-0,15
253,303	-0,16
253,77	-0,17
254,237	-0,17
254,705	-0,17
255,172	-0,16
255,639	-0,17
256,106	-0,19
256,573	-0,19
257,04	-0,19
257,507	-0,2
257,974	-0,2
258,441	-0,18
258,908	-0,18
259,375	-0,2
259,841	-0,2
260,308	-0,21
260,775	-0,2
261,242	-0,18
261,709	-0,18
262,175	-0,2
262,642	-0,19
263,109	-0,17
263,575	-0,19
264,042	-0,18
264,508	-0,17
264,975	-0,18
265,441	-0,19
265,908	-0,19
266,374	-0,19
266,841	-0,19
267,307	-0,18
267,773	-0,18
268,24	-0,19
268,706	-0,19
269,172	-0,19
269,639	-0,21
270,105	-0,2
270,571	-0,2
271,037	-0,2
271,503	-0,22
271,969	-0,21
272,435	-0,21
272,902	-0,23
273,368	-0,24
273,834	-0,24
274,3	-0,24
274,765	-0,24
275,231	-0,24
275,697	-0,23
276,163	-0,23
276,629	-0,23
277,095	-0,24
277,56	-0,24
278,026	-0,25
278,492	-0,23
278,958	-0,22
279,423	-0,23
279,889	-0,22
280,354	-0,23
280,82	-0,22
281,286	-0,24
281,751	-0,24
282,217	-0,24
282,682	-0,23
283,147	-0,24
283,613	-0,25
284,078	-0,25
284,544	-0,26
285,009	-0,27
285,474	-0,26
285,939	-0,28
286,405	-0,26
286,87	-0,25
287,335	-0,24
287,8	-0,23
288,265	-0,22
288,73	-0,23
289,195	-0,26
289,66	-0,25
290,125	-0,23
290,59	-0,24
291,055	-0,22
291,52	-0,22
291,985	-0,23
292,45	-0,24
292,915	-0,24
293,38	-0,24
293,844	-0,22
294,309	-0,2
294,774	-0,19
295,239	-0,2
295,703	-0,2
296,168	-0,2
296,632	-0,19
297,097	-0,18
297,562	-0,17
298,026	-0,18
298,491	-0,18
298,955	-0,18
299,419	-0,18
299,884	-0,18
300,348	-0,17
300,813	-0,17
301,277	-0,17
301,741	-0,17
302,205	-0,17
302,67	-0,16
303,134	-0,16
303,598	-0,16
304,062	-0,15
304,526	-0,15
304,99	-0,16
305,454	-0,16
305,919	-0,15
306,383	-0,14
306,847	-0,14
307,31	-0,15
307,774	-0,17
308,238	-0,16
308,702	-0,16
309,166	-0,17
309,63	-0,17
310,094	-0,14
310,557	-0,13
311,021	-0,13
311,485	-0,12
311,948	-0,12
312,412	-0,11
312,876	-0,1
313,339	-0,11
313,803	-0,11
314,266	-0,11
314,73	-0,11
315,193	-0,11
315,657	-0,1
316,12	-0,11
316,584	-0,1
317,047	-0,1
317,51	-0,08
317,973	-0,08
318,437	-0,07
318,9	-0,05
319,363	-0,04
319,826	-0,04
320,29	-0,05
320,753	-0,05
321,216	-0,05
321,679	-0,06
322,142	-0,05
322,605	-0,07
323,068	-0,07
323,531	-0,07
323,994	-0,07
324,457	-0,07
324,92	-0,06
325,382	-0,05
325,845	-0,05
326,308	-0,04
326,771	-0,03
327,233	-0,02
327,696	-0,01
328,159	-0
328,622	0,01
329,084	0
329,547	0,02
330,009	0,01
330,472	0,02
330,934	0,03
331,397	0,04
331,859	0,04
332,322	0,04
332,784	0,05
333,246	0,06
333,709	0,06
334,171	0,07
334,633	0,08
335,096	0,08
335,558	0,08
336,02	0,08
336,482	0,07
336,944	0,09
337,406	0,09
337,868	0,09
338,331	0,09
338,793	0,11
339,255	0,11
339,717	0,11
340,178	0,12
340,64	0,12
341,102	0,13
341,564	0,14
342,026	0,16
342,488	0,17
342,949	0,18
343,411	0,22
343,873	0,24
344,335	0,28
344,796	0,32
345,258	0,37
345,719	0,42
346,181	0,47
346,643	0,52
347,104	0,56
347,566	0,6
348,027	0,63
348,488	0,65
348,95	0,68
349,411	0,71
349,873	0,73
350,334	0,76
350,795	0,78
351,256	0,79
351,718	0,8
352,179	0,81
352,64	0,81
353,101	0,82
353,562	0,82
354,023	0,83
354,484	0,83
354,945	0,83
355,406	0,84
355,867	0,84
356,328	0,84
356,789	0,86
357,25	0,86
357,711	0,86
358,172	0,86
358,633	0,86
359,093	0,86
359,554	0,87
360,015	0,87
360,476	0,87
360,936	0,87
361,397	0,87
361,858	0,87
362,318	0,87
362,779	0,87
363,239	0,87
363,7	0,87
364,16	0,87
364,621	0,87
365,081	0,87
365,541	0,87
366,002	0,87
366,462	0,87
366,922	0,87
367,383	0,87
367,843	0,87
368,303	0,87
368,763	0,87
369,223	0,87
369,684	0,87
370,144	0,87
370,604	0,87
371,064	0,87
371,524	0,87
371,984	0,87
372,444	0,87
372,904	0,87
373,363	0,87
373,823	0,87
374,283	0,87
374,743	0,87
375,203	0,87
375,663	0,87
376,122	0,87
376,582	0,87
377,042	0,87
377,501	0,87
377,961	0,87
378,42	0,87
378,88	0,87
379,34	0,87
379,799	0,87
380,259	0,87
380,718	0,87
381,177	0,86
381,637	0,86
382,096	0,86
382,555	0,86
383,015	0,86
383,474	0,86
383,933	0,86
384,393	0,86
384,852	0,86
385,311	0,86
385,77	0,86
386,229	0,86
386,688	0,86
387,147	0,86
387,606	0,86
388,065	0,86
388,524	0,86
388,983	0,86
389,442	0,86
389,901	0,86
390,36	0,86
390,819	0,86
391,277	0,86
391,736	0,86
392,195	0,86
392,654	0,85
393,112	0,85
393,571	0,85
394,03	0,85
394,488	0,85
394,947	0,85
395,405	0,85
395,864	0,85
396,322	0,85
396,781	0,85
397,239	0,85
397,698	0,85
398,156	0,85
398,614	0,85
399,073	0,85
399,531	0,85
399,989	0,85
400,447	0,85
400,905	0,85
401,364	0,85
401,822	0,85
402,28	0,85
402,738	0,85
403,196	0,85
403,654	0,85
404,112	0,85
404,57	0,85
405,028	0,85
405,486	0,85
405,944	0,85
406,402	0,85
406,859	0,85
407,317	0,85
407,775	0,85
408,233	0,84
408,691	0,84
409,148	0,84
409,606	0,84
410,064	0,84
410,521	0,84
410,979	0,84
411,436	0,84
411,894	0,84
412,351	0,84
412,809	0,84
413,266	0,84
413,724	0,84
414,181	0,84
414,638	0,84
415,096	0,84
415,553	0,84
416,01	0,84
416,467	0,84
416,925	0,84
417,382	0,84
417,839	0,84
418,296	0,84
418,753	0,84
419,21	0,84
419,667	0,84
420,124	0,84
420,581	0,84
421,038	0,84
421,495	0,84
421,952	0,84
422,409	0,84
422,866	0,84
423,322	0,84
423,779	0,84
424,236	0,84
424,693	0,84
425,149	0,84
425,606	0,84
426,063	0,84
426,519	0,84
426,976	0,84
427,433	0,84
427,889	0,84
428,346	0,84
428,802	0,84
429,258	0,84
429,715	0,84
430,171	0,84
430,628	0,84
431,084	0,84
431,54	0,84
431,997	0,84
432,453	0,84
432,909	0,84
433,365	0,84
433,821	0,83
434,277	0,83
434,734	0,83
435,19	0,83
435,646	0,83
436,102	0,83
436,558	0,83
437,014	0,83
437,47	0,83
437,925	0,83
438,381	0,84
438,837	0,84
439,293	0,84
439,749	0,84
440,205	0,84
440,66	0,84
441,116	0,84
441,572	0,84
442,027	0,84
442,483	0,84
442,939	0,84
443,394	0,84
443,85	0,84
444,305	0,84
444,761	0,84
445,216	0,84
445,672	0,84
446,127	0,84
446,582	0,84
447,038	0,84
447,493	0,84
447,948	0,84
448,403	0,84
448,859	0,84
449,314	0,84
449,769	0,84
450,224	0,84
450,679	0,84
451,134	0,84
451,589	0,84
452,044	0,84
452,499	0,85
452,954	0,85
453,409	0,85
453,864	0,85
454,319	0,85
454,774	0,85
455,229	0,85
455,684	0,85
456,138	0,85
456,593	0,85
457,048	0,85
457,503	0,85
457,957	0,85
458,412	0,85
458,866	0,85
459,321	0,85
459,776	0,85
460,23	0,85
460,685	0,85
461,139	0,85
461,593	0,85
462,048	0,85
462,502	0,86
462,957	0,86
463,411	0,86
463,865	0,86
464,319	0,86
464,774	0,86
465,228	0,86
465,682	0,86
466,136	0,86
466,59	0,86
467,044	0,86
467,499	0,87
467,953	0,87
468,407	0,87
468,861	0,87
469,315	0,87
469,768	0,87
470,222	0,87
470,676	0,87
471,13	0,87
471,584	0,87
472,038	0,87
472,491	0,88
472,945	0,88
473,399	0,88
473,852	0,88
474,306	0,88
474,76	0,88
475,213	0,88
475,667	0,88
476,12	0,89
476,574	0,89
477,027	0,89
477,481	0,89
477,934	0,89
478,388	0,89
478,841	0,9
479,294	0,9
479,748	0,9
480,201	0,9
480,654	0,9
481,107	0,91
481,561	0,91
482,014	0,91
482,467	0,91
482,92	0,91
483,373	0,92
483,826	0,92
484,279	0,92
484,732	0,92
485,185	0,92
485,638	0,93
486,091	0,93
486,544	0,93
486,997	0,93
487,449	0,94
487,902	0,94
488,355	0,94
488,808	0,95
489,26	0,95
489,713	0,95
490,166	0,95
490,618	0,96
491,071	0,96
491,523	0,96
491,976	0,96
492,429	0,97
492,881	0,97
493,333	0,97
493,786	0,98
494,238	0,98
494,691	0,98
495,143	0,99
495,595	0,99
496,048	1
496,5	1
496,952	1
497,404	1,01
497,856	1,01
498,309	1,02
498,761	1,02
499,213	1,02
499,665	1,03
500,117	1,03
500,569	1,04
501,021	1,04
501,473	1,05
501,925	1,05
502,377	1,06
502,828	1,06
503,28	1,06
503,732	1,07
504,184	1,07
504,636	1,08
505,087	1,08
505,539	1,08
505,991	1,09
506,442	1,09
506,894	1,1
507,345	1,1
507,797	1,11
508,249	1,11
508,7	1,11
509,151	1,12
509,603	1,12
510,054	1,13
510,506	1,13
510,957	1,14
511,408	1,14
511,86	1,14
512,311	1,15
512,762	1,15
513,213	1,16
513,665	1,16
514,116	1,16
514,567	1,17
515,018	1,17
515,469	1,17
515,92	1,17
516,371	1,18
516,822	1,18
517,273	1,18
517,724	1,19
518,175	1,19
518,626	1,19
519,076	1,2
519,527	1,2
519,978	1,2
520,429	1,2
520,88	1,21
521,33	1,21
521,781	1,21
522,232	1,21
522,682	1,21
523,133	1,22
523,583	1,22
524,034	1,22
524,484	1,22
524,935	1,22
525,385	1,22
525,836	1,22
526,286	1,22
526,736	1,22
527,187	1,22
527,637	1,22
528,087	1,22
528,538	1,22
528,988	1,22
529,438	1,22
529,888	1,22
530,338	1,22
530,788	1,21
531,238	1,21
531,688	1,21
532,139	1,21
532,589	1,21
533,038	1,21
533,488	1,21
533,938	1,2
534,388	1,2
534,838	1,2
535,288	1,19
535,738	1,19
536,187	1,18
536,637	1,18
537,087	1,18
537,537	1,17
537,986	1,17
538,436	1,16
538,885	1,16
539,335	1,15
539,785	1,15
540,234	1,14
540,684	1,14
541,133	1,13
541,582	1,13
542,032	1,12
542,481	1,12
542,931	1,11
543,38	1,1
543,829	1,1
544,278	1,09
544,728	1,09
545,177	1,08
545,626	1,08
546,075	1,07
546,524	1,07
546,973	1,06
547,422	1,06
547,871	1,05
548,32	1,05
548,769	1,05
549,218	1,04
549,667	1,04
550,116	1,04
550,565	1,03
551,014	1,03
551,463	1,02
551,911	1,02
552,36	1,01
552,809	1,01
553,258	1
553,706	1
554,155	0,99
554,603	0,99
555,052	0,98
555,501	0,98
555,949	0,97
556,398	0,97
556,846	0,96
557,294	0,96
557,743	0,95
558,191	0,94
558,64	0,94
559,088	0,93
559,536	0,93
559,985	0,92
560,433	0,92
560,881	0,91
561,329	0,91
561,777	0,9
562,225	0,9
562,674	0,89
563,122	0,89
563,57	0,88
564,018	0,88
564,466	0,87
564,914	0,87
565,362	0,86
565,809	0,86
566,257	0,85
566,705	0,85
567,153	0,84
567,601	0,84
568,048	0,84
568,496	0,83
568,944	0,83
569,392	0,82
569,839	0,82
570,287	0,82
570,734	0,81
571,182	0,81
571,63	0,8
572,077	0,8
572,525	0,8
572,972	0,79
573,419	0,79
573,867	0,79
574,314	0,78
574,761	0,78
575,209	0,77
575,656	0,77
576,103	0,76
576,551	0,76
576,998	0,76
577,445	0,76
577,892	0,75
578,339	0,75
578,786	0,74
579,233	0,74
579,68	0,74
580,127	0,73
580,574	0,73
581,021	0,73
581,468	0,72
581,915	0,72
582,362	0,72
582,809	0,71
583,255	0,71
583,702	0,71
584,149	0,71
584,596	0,7
585,042	0,7
585,489	0,7
585,936	0,69
586,382	0,69
586,829	0,69
587,275	0,69
587,722	0,69
588,168	0,68
588,615	0,68
589,061	0,68
589,508	0,68
589,954	0,67
590,4	0,67
590,847	0,67
591,293	0,67
591,739	0,66
592,185	0,66
592,632	0,66
593,078	0,66
593,524	0,66
593,97	0,66
594,416	0,65
594,862	0,65
595,308	0,65
595,754	0,65
596,2	0,65
596,646	0,65
597,092	0,64
597,538	0,64
597,984	0,64
598,43	0,64
598,876	0,64
599,321	0,64
599,767	0,63
600,213	0,63
600,659	0,63
601,104	0,63
601,55	0,63
601,995	0,63
602,441	0,62
602,887	0,62
603,332	0,62
603,778	0,62
604,223	0,62
604,668	0,62
605,114	0,62
605,559	0,62
606,005	0,62
606,45	0,61
606,895	0,61
607,341	0,61
607,786	0,61
608,231	0,61
608,676	0,6
609,121	0,59
609,566	0,59
610,012	0,58
610,457	0,58
610,902	0,57
611,347	0,57
611,792	0,57
612,237	0,57
612,682	0,56
613,127	0,56
613,571	0,57
614,016	0,57
614,461	0,57
614,906	0,58
615,351	0,58
615,795	0,58
616,24	0,58
616,685	0,58
617,129	0,58
617,574	0,58
618,019	0,58
618,463	0,58
618,908	0,58
619,352	0,58
619,797	0,58
620,241	0,57
620,686	0,57
621,13	0,57
621,574	0,57
622,019	0,57
622,463	0,57
622,907	0,57
623,352	0,57
623,796	0,57
624,24	0,56
624,684	0,56
625,128	0,56
625,572	0,56
626,016	0,56
626,461	0,56
626,905	0,56
627,349	0,56
627,793	0,56
628,236	0,56
628,68	0,56
629,124	0,56
629,568	0,56
630,012	0,56
630,456	0,56
630,9	0,56
631,343	0,56
631,787	0,56
632,231	0,56
632,674	0,56
633,118	0,56
633,562	0,56
634,005	0,56
634,449	0,56
634,892	0,56
635,336	0,56
635,779	0,56
636,223	0,56
636,666	0,55
637,109	0,55
637,553	0,55
637,996	0,55
638,439	0,55
638,883	0,55
639,326	0,55
639,769	0,55
640,212	0,55
640,655	0,55
641,099	0,55
641,542	0,55
641,985	0,55
642,428	0,55
642,871	0,54
643,314	0,54
643,757	0,54
644,2	0,54
644,643	0,54
645,085	0,54
645,528	0,54
645,971	0,54
646,414	0,54
646,857	0,54
647,299	0,54
647,742	0,54
648,185	0,54
648,627	0,54
649,07	0,54
649,513	0,54
649,955	0,54
650,398	0,54
650,84	0,54
651,283	0,54
651,725	0,54
652,168	0,54
652,61	0,54
653,052	0,54
653,495	0,53
653,937	0,45
654,379	0,39
654,821	0,4
655,264	0,4
655,706	0,4
656,148	0,4
656,59	0,4
657,032	0,4
657,474	0,4
657,916	0,4
658,358	0,39
658,8	0,45
659,242	0,53
659,684	0,53
660,126	0,53
660,568	0,53
661,01	0,53
661,452	0,53
661,894	0,53
662,335	0,53
662,777	0,53
663,219	0,53
663,661	0,53
664,102	0,53
664,544	0,53
664,985	0,53
665,427	0,53
665,869	0,53
666,31	0,53
666,752	0,53
667,193	0,53
667,634	0,53
668,076	0,53
668,517	0,53
668,959	0,53
669,4	0,53
669,841	0,53
670,282	0,53
670,724	0,53
671,165	0,53
671,606	0,53
672,047	0,53
672,488	0,53
672,929	0,53
673,37	0,53
673,811	0,53
674,252	0,52
674,693	0,52
675,134	0,52
675,575	0,52
676,016	0,52
676,457	0,52
676,898	0,52
677,339	0,52
677,78	0,52
678,22	0,52
678,661	0,52
679,102	0,52
679,542	0,52
679,983	0,52
680,424	0,52
680,864	0,52
681,305	0,52
681,745	0,52
682,186	0,52
682,626	0,52
683,067	0,52
683,507	0,52
683,948	0,52
684,388	0,52
684,828	0,52
685,269	0,52
685,709	0,52
686,149	0,52
686,589	0,52
687,029	0,52
687,47	0,51
687,91	0,51
688,35	0,51
688,79	0,51
689,23	0,51
689,67	0,51
690,11	0,51
690,55	0,51
690,99	0,51
691,43	0,51
691,87	0,51
692,31	0,51
692,749	0,51
693,189	0,5
693,629	0,5
694,069	0,5
694,508	0,5
694,948	0,5
695,388	0,5
695,827	0,5
696,267	0,5
696,706	0,5
697,146	0,51
697,586	0,51
698,025	0,51
698,464	0,51
698,904	0,51
699,343	0,51
699,783	0,51
700,222	0,51
700,661	0,51
701,101	0,51
701,54	0,51
701,979	0,51
702,418	0,51
702,857	0,51
703,297	0,51
703,736	0,51
704,175	0,51
704,614	0,51
705,053	0,51
705,492	0,51
705,931	0,51
706,37	0,51
706,809	0,51
707,248	0,5
707,687	0,5
708,125	0,5
708,564	0,5
709,003	0,5
709,442	0,5
709,88	0,5
710,319	0,5
710,758	0,5
711,196	0,5
711,635	0,5
712,074	0,5
712,512	0,5
712,951	0,5
713,389	0,5
713,828	0,5
714,266	0,5
714,705	0,5
715,143	0,49
715,581	0,5
716,02	0,5
716,458	0,5
716,896	0,5
717,334	0,5
717,773	0,5
718,211	0,5
718,649	0,5
719,087	0,5
719,525	0,5
719,963	0,5
720,401	0,5
720,839	0,5
721,277	0,5
721,715	0,5
722,153	0,5
722,591	0,5
723,029	0,5
723,467	0,5
723,905	0,5
724,342	0,5
724,78	0,5
725,218	0,5
725,656	0,5
726,093	0,5
726,531	0,5
726,969	0,5
727,406	0,5
727,844	0,5
728,281	0,5
728,719	0,5
729,156	0,5
729,594	0,49
730,031	0,49
730,469	0,49
730,906	0,49
731,343	0,49
731,781	0,49
732,218	0,49
732,655	0,49
733,092	0,49
733,53	0,49
733,967	0,49
734,404	0,49
734,841	0,48
735,278	0,48
735,715	0,48
736,152	0,48
736,589	0,48
737,026	0,48
737,463	0,48
737,9	0,48
738,337	0,48
738,774	0,48
739,211	0,48
739,647	0,48
740,084	0,48
740,521	0,48
740,958	0,49
741,394	0,49
741,831	0,49
742,268	0,49
742,704	0,49
743,141	0,48
743,577	0,48
744,014	0,48
744,45	0,48
744,887	0,48
745,323	0,48
745,76	0,48
746,196	0,48
746,632	0,48
747,069	0,48
747,505	0,48
747,941	0,48
748,378	0,48
748,814	0,48
749,25	0,48
749,686	0,48
750,122	0,48
750,558	0,48
750,994	0,48
751,43	0,48
751,866	0,48
752,302	0,48
752,738	0,48
753,174	0,48
753,61	0,48
754,046	0,48
754,482	0,48
754,918	0,48
755,354	0,48
755,789	0,48
756,225	0,48
756,661	0,48
757,096	0,47
757,532	0,47
757,968	0,47
758,403	0,47
758,839	0,46
759,274	0,46
759,71	0,46
760,145	0,45
760,581	0,44
761,016	0,44
761,452	0,43
761,887	0,43
762,322	0,42
762,758	0,41
763,193	0,41
763,628	0,4
764,063	0,4
764,499	0,39
764,934	0,38
765,369	0,38
765,804	0,37
766,239	0,36
766,674	0,35
767,109	0,35
767,544	0,34
767,979	0,33
768,414	0,32
768,849	0,31
769,284	0,3
769,719	0,28
770,154	0,27
770,588	0,26
771,023	0,25
771,458	0,23
771,893	0,22
772,327	0,2
772,762	0,19
773,197	0,18
773,631	0,17
774,066	0,16
774,5	0,15
774,935	0,14
775,369	0,13
775,804	0,11
776,238	0,11
776,673	0,1
777,107	0,09
777,541	0,08
777,976	0,08
778,41	0,07
778,844	0,06
779,279	0,05
779,713	0,04
780,147	0,03
780,581	0,03
781,015	0,01
781,449	0
781,883	-0,01
782,317	-0,02
782,751	-0,04
783,185	-0,05
783,619	-0,06
784,053	-0,07
784,487	-0,08
784,921	-0,08
785,355	-0,09
785,789	-0,1
786,223	-0,11
786,656	-0,13
787,09	-0,14
787,524	-0,14
787,957	-0,15
788,391	-0,17
788,825	-0,18
789,258	-0,2
789,692	-0,21
790,125	-0,23
790,559	-0,25
790,992	-0,26
791,426	-0,28
791,859	-0,3
792,293	-0,33
792,726	-0,34
793,159	-0,36
793,593	-0,38
794,026	-0,4
794,459	-0,43
794,892	-0,46
795,326	-0,49
795,759	-0,52
796,192	-0,56
796,625	-0,61
797,058	-0,63
797,491	-0,67
797,924	-0,71
798,357	-0,76
798,79	-0,8
799,223	-0,84
799,656	-0,9
800,089	-0,94
800,522	-0,98
800,955	-1,03
801,387	-1,09
801,82	-1,14
802,253	-1,2
802,686	-1,28
803,118	-1,34
803,551	-1,39
803,984	-1,43
804,416	-1,47
804,849	-1,49
805,281	-1,58
805,714	-1,94
806,146	-2,42
806,579	-2,69
807,011	-2,86
807,444	-2,96
807,876	-3,04
808,308	-3,08
808,741	-3,11
809,173	-3,16
809,605	-3,18
810,037	-3,26
810,47	-3,18
810,902	-2,98
811,334	-2,83
811,766	-2,68
812,198	-2,43
812,63	-2
813,062	-1,79
813,494	-1,69
813,926	-1,6
814,358	-1,55
814,79	-1,47
815,222	-1,41
815,654	-1,36
816,086	-1,3
816,518	-1,24
816,949	-1,19
817,381	-1,15
817,813	-1,13
818,245	-1,09
818,676	-1,05
819,108	-1,02
819,54	-1,01
819,971	-0,98
820,403	-0,93
820,834	-0,92
821,266	-0,88
821,697	-0,85
822,129	-0,84
822,56	-0,82
822,991	-0,8
823,423	-0,76
823,854	-0,75
824,286	-0,73
824,717	-0,72
825,148	-0,71
825,579	-0,7
826,01	-0,69
826,442	-0,68
826,873	-0,66
827,304	-0,62
827,735	-0,62
828,166	-0,63
828,597	-0,63
829,028	-0,62
829,459	-0,63
829,89	-0,63
830,321	-0,59
830,752	-0,59
831,183	-0,57
831,613	-0,57
832,044	-0,56
832,475	-0,56
832,906	-0,57
833,336	-0,57
833,767	-0,58
834,198	-0,58
834,628	-0,56
835,059	-0,58
835,49	-0,6
835,92	-0,58
836,351	-0,58
836,781	-0,59
837,212	-0,6
837,642	-0,6
838,072	-0,59
838,503	-0,59
838,933	-0,56
839,364	-0,57
839,794	-0,55
840,224	-0,53
840,654	-0,57
841,085	-0,57
841,515	-0,55
841,945	-0,55
842,375	-0,5
842,805	-0,49
843,235	-0,48
843,665	-0,5
844,095	-0,49
844,525	-0,51
844,955	-0,51
845,385	-0,49
845,815	-0,48
846,245	-0,5
846,675	-0,51
847,105	-0,54
847,534	-0,54
847,964	-0,53
848,394	-0,51
848,824	-0,54
849,253	-0,53
849,683	-0,53
850,112	-0,54
850,542	-0,56
850,972	-0,56
851,401	-0,54
851,831	-0,52
852,26	-0,52
852,69	-0,56
853,119	-0,55
853,548	-0,55
853,978	-0,56
854,407	-0,54
854,836	-0,54
855,266	-0,54
855,695	-0,55
856,124	-0,56
856,553	-0,57
856,983	-0,59
857,412	-0,58
857,841	-0,59
858,27	-0,59
858,699	-0,6
859,128	-0,63
859,557	-0,64
859,986	-0,65
860,415	-0,63
860,844	-0,6
861,273	-0,59
861,702	-0,61
862,13	-0,6
862,559	-0,61
862,988	-0,59
863,417	-0,59
863,845	-0,57
864,274	-0,58
864,703	-0,57
865,131	-0,58
865,56	-0,6
865,989	-0,63
866,417	-0,59
866,846	-0,6
867,274	-0,59
867,703	-0,62
868,131	-0,62
868,559	-0,63
868,988	-0,65
869,416	-0,63
869,844	-0,64
870,273	-0,67
870,701	-0,64
871,129	-0,68
871,557	-0,7
871,986	-0,7
872,414	-0,71
872,842	-0,68
873,27	-0,66
873,698	-0,63
874,126	-0,67
874,554	-0,65
874,982	-0,66
875,41	-0,68
875,838	-0,64
876,266	-0,61
876,694	-0,61
877,122	-0,61
877,549	-0,66
877,977	-0,63
878,405	-0,65
878,833	-0,61
879,26	-0,6
879,688	-0,59
880,116	-0,57
880,543	-0,56
880,971	-0,55
881,399	-0,58
881,826	-0,59
882,254	-0,57
882,681	-0,61
883,109	-0,57
883,536	-0,59
883,963	-0,61
884,391	-0,59
884,818	-0,58
885,245	-0,61
885,673	-0,63
886,1	-0,6
886,527	-0,59
886,954	-0,55
887,381	-0,57
887,809	-0,57
888,236	-0,58
888,663	-0,59
889,09	-0,63
889,517	-0,65
889,944	-0,65
890,371	-0,64
890,798	-0,64
891,225	-0,65
891,652	-0,68
892,078	-0,66
892,505	-0,69
892,932	-0,64
893,359	-0,65
893,786	-0,65
894,212	-0,61
894,639	-0,62
895,066	-0,65
895,492	-0,6
895,919	-0,6
896,346	-0,6
896,772	-0,6
897,199	-0,57
897,625	-0,59
898,052	-0,55
898,478	-0,53
898,904	-0,54
899,331	-0,53
899,757	-0,55
900,183	-0,56
900,61	-0,55
901,036	-0,55
901,462	-0,54
901,888	-0,54
902,315	-0,54
902,741	-0,59
903,167	-0,58
903,593	-0,62
904,019	-0,61
904,445	-0,57
904,871	-0,6
905,297	-0,62
905,723	-0,61
906,149	-0,61
906,575	-0,61
907,001	-0,62
907,427	-0,58
907,852	-0,58
908,278	-0,58
908,704	-0,56
909,13	-0,56
909,555	-0,55
909,981	-0,54
910,407	-0,55
910,832	-0,55
911,258	-0,57
911,684	-0,56
912,109	-0,57
912,535	-0,59
912,96	-0,54
913,386	-0,59
913,811	-0,58
914,236	-0,6
914,662	-0,57
915,087	-0,6
915,512	-0,61
915,938	-0,62
916,363	-0,61
916,788	-0,63
917,213	-0,6
917,639	-0,64
918,064	-0,61
918,489	-0,61
918,914	-0,62
919,339	-0,63
919,764	-0,6
920,189	-0,6
920,614	-0,62
921,039	-0,62
921,464	-0,57
921,889	-0,6
922,314	-0,61
922,738	-0,65
923,163	-0,67
923,588	-0,66
924,013	-0,66
924,437	-0,65
924,862	-0,66
925,287	-0,62
925,711	-0,63
926,136	-0,65
926,561	-0,63
926,985	-0,62
927,41	-0,58
927,834	-0,56
928,259	-0,53
928,683	-0,52
929,108	-0,5
929,532	-0,51
929,956	-0,51
930,381	-0,49
930,805	-0,5
931,229	-0,49
931,653	-0,48
932,078	-0,48
932,502	-0,49
932,926	-0,49
933,35	-0,49
933,774	-0,48
934,198	-0,45
934,622	-0,44
935,046	-0,44
935,47	-0,44
935,894	-0,44
936,318	-0,44
936,742	-0,44
937,166	-0,45
937,59	-0,44
938,014	-0,46
938,437	-0,47
938,861	-0,49
939,285	-0,51
939,709	-0,51
940,132	-0,52
940,556	-0,52
940,98	-0,52
941,403	-0,51
941,827	-0,51
942,25	-0,53
942,674	-0,51
943,097	-0,51
943,521	-0,51
943,944	-0,51
944,368	-0,51
944,791	-0,49
945,214	-0,5
945,638	-0,51
946,061	-0,54
946,484	-0,55
946,907	-0,53
947,331	-0,53
947,754	-0,56
948,177	-0,53
948,6	-0,53
949,023	-0,53
949,446	-0,54
949,869	-0,52
950,292	-0,51
950,715	-0,48
951,138	-0,47
951,561	-0,46
951,984	-0,46
952,407	-0,46
952,83	-0,45
953,252	-0,4
953,675	-0,4
954,098	-0,41
954,521	-0,4
954,943	-0,4
955,366	-0,4
955,789	-0,38
956,211	-0,39
956,634	-0,39
957,056	-0,36
957,479	-0,36
957,902	-0,39
958,324	-0,38
958,746	-0,37
959,169	-0,39
959,591	-0,39
960,014	-0,4
960,436	-0,4
960,858	-0,39
961,281	-0,39
961,703	-0,41
962,125	-0,41
962,547	-0,4
962,969	-0,4
963,391	-0,41
963,814	-0,42
964,236	-0,41
964,658	-0,38
965,08	-0,38
965,502	-0,38
965,924	-0,35
966,346	-0,35
966,768	-0,34
967,189	-0,36
967,611	-0,35
968,033	-0,34
968,455	-0,32
968,877	-0,33
969,298	-0,34
969,72	-0,35
970,142	-0,34
970,563	-0,34
970,985	-0,32
971,407	-0,32
971,828	-0,29
972,25	-0,29
972,671	-0,27
973,093	-0,27
973,514	-0,26
973,936	-0,23
974,357	-0,22
974,778	-0,23
975,2	-0,23
975,621	-0,21
976,042	-0,19
976,464	-0,18
976,885	-0,17
977,306	-0,17
977,727	-0,17
978,148	-0,16
978,57	-0,15
978,991	-0,14
979,412	-0,12
979,833	-0,11
980,254	-0,11
980,675	-0,11
981,096	-0,1
981,517	-0,08
981,937	-0,08
982,358	-0,06
982,779	-0,05
983,2	-0,05
983,621	-0,04
984,042	-0,03
984,462	-0,01
984,883	0,01
985,304	0,03
985,724	0,04
986,145	0,05
986,565	0,07
986,986	0,08
987,407	0,09
987,827	0,11
988,248	0,13
988,668	0,14
989,088	0,15
989,509	0,16
989,929	0,17
990,35	0,19
990,77	0,21
991,19	0,22
991,61	0,24
992,031	0,25
992,451	0,27
992,871	0,28
993,291	0,29
993,711	0,3
994,131	0,31
994,551	0,32
994,971	0,33
995,391	0,33
995,811	0,34
996,231	0,35
996,651	0,35
997,071	0,36
997,491	0,37
997,911	0,38
998,331	0,39
998,75	0,4
999,17	0,4
999,59	0,4
1000,009	0,41
1000,429	0,42
1000,849	0,42
1001,268	0,43
1001,688	0,43
1002,107	0,44
1002,527	0,44
1002,946	0,44
1003,366	0,45
1003,785	0,45
1004,205	0,46
1004,624	0,46
1005,044	0,46
1005,463	0,47
1005,882	0,47
1006,301	0,47
1006,721	0,47
1007,14	0,48
1007,559	0,48
1007,978	0,48
1008,397	0,48
1008,816	0,48
1009,235	0,48
1009,655	0,48
1010,074	0,48
1010,492	0,48
1010,911	0,48
1011,33	0,48
1011,749	0,48
1012,168	0,48
1012,587	0,48
1013,006	0,48
1013,425	0,47
1013,843	0,47
1014,262	0,47
1014,681	0,47
1015,099	0,47
1015,518	0,47
1015,937	0,47
1016,355	0,47
1016,774	0,47
1017,192	0,47
1017,611	0,47
1018,029	0,47
1018,448	0,47
1018,866	0,47
1019,285	0,47
1019,703	0,47
1020,121	0,47
1020,54	0,47
1020,958	0,47
1021,376	0,47
1021,794	0,47
1022,213	0,47
1022,631	0,47
1023,049	0,47
1023,467	0,46
1023,885	0,46
1024,303	0,46
1024,721	0,46
1025,139	0,46
1025,557	0,46
1025,975	0,46
1026,393	0,46
1026,811	0,46
1027,229	0,45
1027,647	0,45
1028,065	0,45
1028,482	0,45
1028,9	0,45
1029,318	0,45
1029,735	0,45
1030,153	0,45
1030,571	0,45
1030,988	0,45
1031,406	0,45
1031,823	0,45
1032,241	0,45
1032,659	0,45
1033,076	0,45
1033,493	0,46
1033,911	0,46
1034,328	0,46
1034,746	0,46
1035,163	0,46
1035,58	0,46
1035,997	0,46
1036,415	0,46
1036,832	0,46
1037,249	0,46
1037,666	0,46
1038,083	0,46
1038,501	0,46
1038,918	0,46
1039,335	0,46
1039,752	0,46
1040,169	0,46
1040,586	0,46
1041,003	0,46
1041,419	0,46
1041,836	0,46
1042,253	0,46
1042,67	0,46
1043,087	0,46
1043,504	0,46
1043,92	0,45
1044,337	0,45
1044,754	0,45
1045,17	0,45
1045,587	0,45
1046,004	0,45
1046,42	0,45
1046,837	0,45
1047,253	0,45
1047,67	0,45
1048,086	0,45
1048,503	0,45
1048,919	0,45
1049,335	0,45
1049,752	0,45
1050,168	0,45
1050,584	0,45
1051,001	0,45
1051,417	0,45
1051,833	0,45
1052,249	0,45
1052,665	0,45
1053,081	0,45
1053,497	0,45
1053,914	0,46
1054,33	0,46
1054,746	0,46
1055,162	0,46
1055,578	0,46
1055,993	0,46
1056,409	0,46
1056,825	0,46
1057,241	0,47
1057,657	0,47
1058,073	0,47
1058,488	0,47
1058,904	0,47
1059,32	0,47
1059,736	0,47
1060,151	0,47
1060,567	0,46
1060,982	0,46
1061,398	0,46
1061,813	0,46
1062,229	0,46
1062,644	0,46
1063,06	0,46
1063,475	0,46
1063,891	0,46
1064,306	0,46
1064,721	0,46
1065,137	0,46
1065,552	0,46
1065,967	0,46
1066,382	0,46
1066,798	0,46
1067,213	0,46
1067,628	0,46
1068,043	0,46
1068,458	0,46
1068,873	0,46
1069,288	0,46
1069,703	0,46
1070,118	0,46
1070,533	0,46
1070,948	0,46
1071,363	0,46
1071,778	0,46
1072,193	0,46
1072,607	0,46
1073,022	0,46
1073,437	0,46
1073,852	0,46
1074,266	0,46
1074,681	0,46
1075,096	0,46
1075,51	0,46
1075,925	0,46
1076,339	0,46
1076,754	0,46
1077,168	0,46
1077,583	0,46
1077,997	0,45
1078,412	0,45
1078,826	0,45
1079,24	0,45
1079,655	0,45
1080,069	0,45
1080,483	0,45
1080,897	0,45
1081,312	0,45
1081,726	0,45
1082,14	0,44
1082,554	0,44
1082,968	0,44
1083,382	0,44
1083,796	0,44
1084,21	0,44
1084,624	0,44
1085,038	0,44
1085,452	0,44
1085,866	0,43
1086,28	0,43
1086,694	0,43
1087,108	0,43
1087,521	0,43
1087,935	0,42
1088,349	0,42
1088,763	0,42
1089,176	0,42
1089,59	0,42
1090,004	0,41
1090,417	0,41
1090,831	0,41
1091,244	0,41
1091,658	0,4
1092,071	0,4
1092,485	0,4
1092,898	0,39
1093,312	0,39
1093,725	0,39
1094,138	0,39
1094,552	0,38
1094,965	0,38
1095,378	0,38
1095,791	0,38
1096,205	0,37
1096,618	0,37
1097,031	0,36
1097,444	0,36
1097,857	0,36
1098,27	0,35
1098,683	0,35
1099,096	0,35
1099,509	0,34
1099,922	0,34
1100,335	0,33
1100,748	0,32
1101,161	0,32
1101,574	0,32
1101,986	0,32
1102,399	0,31
1102,812	0,31
1103,225	0,3
1103,637	0,3
1104,05	0,3
1104,463	0,3
1104,875	0,3
1105,288	0,29
1105,7	0,28
1106,113	0,28
1106,525	0,28
1106,938	0,27
1107,35	0,26
1107,763	0,26
1108,175	0,26
1108,588	0,25
1109	0,25
1109,412	0,24
1109,824	0,24
1110,237	0,24
1110,649	0,23
1111,061	0,22
