Data from 18C-808nm-8A-cont_Absorbance__275__01704.txt Node

Date: Mon Jul 17 17:28:03 CEST 2023
User: Laser008
Spectrometer: MAYP115816
Trigger mode: 0
Integration Time (sec): 2,500000E-1
Scans to average: 10
Electric dark correction enabled: true
Nonlinearity correction enabled: true
Boxcar width: 5
XAxis mode: Wavelengths
Number of Pixels in Spectrum: 2068
>>>>>Begin Spectral Data<<<<<
198,914	-0,7
199,384	-0,49
199,855	-0,35
200,325	-0,27
200,796	-0,24
201,266	-0,2
201,737	-0,18
202,207	-0,17
202,677	-0,16
203,147	-0,15
203,618	-0,11
204,088	-0,1
204,558	-0,09
205,028	-0,07
205,498	-0,08
205,968	-0,07
206,439	-0,09
206,909	-0,07
207,379	-0,07
207,849	-0,07
208,319	-0,08
208,789	-0,09
209,258	-0,08
209,728	-0,1
210,198	-0,1
210,668	-0,1
211,138	-0,09
211,608	-0,1
212,077	-0,1
212,547	-0,1
213,017	-0,1
213,486	-0,1
213,956	-0,11
214,426	-0,12
214,895	-0,11
215,365	-0,12
215,834	-0,13
216,304	-0,14
216,773	-0,14
217,243	-0,15
217,712	-0,16
218,181	-0,16
218,651	-0,15
219,12	-0,14
219,589	-0,14
220,058	-0,14
220,528	-0,15
220,997	-0,15
221,466	-0,15
221,935	-0,16
222,404	-0,15
222,873	-0,14
223,342	-0,15
223,812	-0,15
224,281	-0,15
224,749	-0,17
225,218	-0,18
225,687	-0,18
226,156	-0,17
226,625	-0,16
227,094	-0,16
227,563	-0,16
228,031	-0,18
228,5	-0,18
228,969	-0,18
229,438	-0,18
229,906	-0,16
230,375	-0,15
230,844	-0,15
231,312	-0,15
231,781	-0,16
232,249	-0,16
232,718	-0,16
233,186	-0,15
233,655	-0,15
234,123	-0,14
234,591	-0,15
235,06	-0,15
235,528	-0,15
235,996	-0,14
236,465	-0,14
236,933	-0,13
237,401	-0,13
237,869	-0,12
238,337	-0,11
238,805	-0,11
239,274	-0,1
239,742	-0,09
240,21	-0,1
240,678	-0,1
241,146	-0,09
241,614	-0,1
242,081	-0,09
242,549	-0,1
243,017	-0,1
243,485	-0,1
243,953	-0,1
244,421	-0,1
244,888	-0,1
245,356	-0,1
245,824	-0,1
246,291	-0,1
246,759	-0,11
247,227	-0,11
247,694	-0,11
248,162	-0,1
248,629	-0,09
249,097	-0,1
249,564	-0,11
250,032	-0,11
250,499	-0,11
250,967	-0,12
251,434	-0,11
251,901	-0,11
252,369	-0,11
252,836	-0,12
253,303	-0,13
253,77	-0,15
254,237	-0,14
254,705	-0,15
255,172	-0,14
255,639	-0,14
256,106	-0,16
256,573	-0,17
257,04	-0,17
257,507	-0,18
257,974	-0,18
258,441	-0,16
258,908	-0,16
259,375	-0,16
259,841	-0,17
260,308	-0,18
260,775	-0,18
261,242	-0,16
261,709	-0,16
262,175	-0,18
262,642	-0,16
263,109	-0,15
263,575	-0,18
264,042	-0,17
264,508	-0,17
264,975	-0,19
265,441	-0,2
265,908	-0,2
266,374	-0,19
266,841	-0,2
267,307	-0,2
267,773	-0,2
268,24	-0,2
268,706	-0,21
269,172	-0,21
269,639	-0,22
270,105	-0,2
270,571	-0,2
271,037	-0,2
271,503	-0,22
271,969	-0,22
272,435	-0,21
272,902	-0,23
273,368	-0,23
273,834	-0,23
274,3	-0,23
274,765	-0,23
275,231	-0,23
275,697	-0,23
276,163	-0,22
276,629	-0,22
277,095	-0,22
277,56	-0,22
278,026	-0,22
278,492	-0,21
278,958	-0,2
279,423	-0,2
279,889	-0,2
280,354	-0,2
280,82	-0,2
281,286	-0,21
281,751	-0,21
282,217	-0,2
282,682	-0,19
283,147	-0,19
283,613	-0,2
284,078	-0,2
284,544	-0,21
285,009	-0,22
285,474	-0,21
285,939	-0,23
286,405	-0,21
286,87	-0,21
287,335	-0,21
287,8	-0,21
288,265	-0,2
288,73	-0,21
289,195	-0,23
289,66	-0,23
290,125	-0,21
290,59	-0,22
291,055	-0,21
291,52	-0,21
291,985	-0,22
292,45	-0,22
292,915	-0,22
293,38	-0,22
293,844	-0,21
294,309	-0,19
294,774	-0,19
295,239	-0,19
295,703	-0,19
296,168	-0,18
296,632	-0,18
297,097	-0,17
297,562	-0,17
298,026	-0,17
298,491	-0,17
298,955	-0,16
299,419	-0,16
299,884	-0,16
300,348	-0,15
300,813	-0,15
301,277	-0,16
301,741	-0,16
302,205	-0,15
302,67	-0,14
303,134	-0,14
303,598	-0,13
304,062	-0,13
304,526	-0,13
304,99	-0,14
305,454	-0,14
305,919	-0,13
306,383	-0,14
306,847	-0,13
307,31	-0,14
307,774	-0,15
308,238	-0,15
308,702	-0,15
309,166	-0,16
309,63	-0,15
310,094	-0,13
310,557	-0,11
311,021	-0,11
311,485	-0,11
311,948	-0,1
312,412	-0,09
312,876	-0,08
313,339	-0,09
313,803	-0,1
314,266	-0,1
314,73	-0,1
315,193	-0,11
315,657	-0,1
316,12	-0,1
316,584	-0,09
317,047	-0,09
317,51	-0,08
317,973	-0,08
318,437	-0,06
318,9	-0,05
319,363	-0,04
319,826	-0,04
320,29	-0,04
320,753	-0,04
321,216	-0,04
321,679	-0,04
322,142	-0,04
322,605	-0,05
323,068	-0,05
323,531	-0,05
323,994	-0,05
324,457	-0,05
324,92	-0,04
325,382	-0,04
325,845	-0,04
326,308	-0,03
326,771	-0,03
327,233	-0,02
327,696	-0,01
328,159	-0,01
328,622	0,01
329,084	0,01
329,547	0,03
330,009	0,02
330,472	0,03
330,934	0,04
331,397	0,04
331,859	0,05
332,322	0,05
332,784	0,05
333,246	0,05
333,709	0,05
334,171	0,05
334,633	0,05
335,096	0,05
335,558	0,06
336,02	0,06
336,482	0,06
336,944	0,07
337,406	0,07
337,868	0,08
338,331	0,08
338,793	0,09
339,255	0,1
339,717	0,1
340,178	0,11
340,64	0,12
341,102	0,13
341,564	0,15
342,026	0,16
342,488	0,17
342,949	0,19
343,411	0,22
343,873	0,24
344,335	0,27
344,796	0,3
345,258	0,35
345,719	0,38
346,181	0,43
346,643	0,47
347,104	0,5
347,566	0,53
348,027	0,56
348,488	0,58
348,95	0,6
349,411	0,62
349,873	0,65
350,334	0,66
350,795	0,68
351,256	0,69
351,718	0,7
352,179	0,7
352,64	0,71
353,101	0,71
353,562	0,71
354,023	0,72
354,484	0,72
354,945	0,72
355,406	0,73
355,867	0,73
356,328	0,73
356,789	0,73
357,25	0,73
357,711	0,74
358,172	0,74
358,633	0,74
359,093	0,74
359,554	0,74
360,015	0,74
360,476	0,74
360,936	0,75
361,397	0,75
361,858	0,75
362,318	0,75
362,779	0,75
363,239	0,75
363,7	0,75
364,16	0,75
364,621	0,75
365,081	0,75
365,541	0,75
366,002	0,75
366,462	0,75
366,922	0,75
367,383	0,75
367,843	0,75
368,303	0,75
368,763	0,75
369,223	0,75
369,684	0,75
370,144	0,75
370,604	0,75
371,064	0,75
371,524	0,75
371,984	0,75
372,444	0,75
372,904	0,75
373,363	0,75
373,823	0,75
374,283	0,75
374,743	0,75
375,203	0,75
375,663	0,75
376,122	0,75
376,582	0,75
377,042	0,75
377,501	0,75
377,961	0,75
378,42	0,75
378,88	0,75
379,34	0,75
379,799	0,75
380,259	0,74
380,718	0,74
381,177	0,74
381,637	0,74
382,096	0,74
382,555	0,74
383,015	0,74
383,474	0,74
383,933	0,74
384,393	0,74
384,852	0,74
385,311	0,74
385,77	0,74
386,229	0,74
386,688	0,74
387,147	0,74
387,606	0,74
388,065	0,74
388,524	0,74
388,983	0,74
389,442	0,74
389,901	0,74
390,36	0,74
390,819	0,74
391,277	0,74
391,736	0,74
392,195	0,74
392,654	0,74
393,112	0,74
393,571	0,74
394,03	0,73
394,488	0,73
394,947	0,73
395,405	0,73
395,864	0,73
396,322	0,73
396,781	0,73
397,239	0,73
397,698	0,73
398,156	0,73
398,614	0,73
399,073	0,73
399,531	0,73
399,989	0,73
400,447	0,73
400,905	0,73
401,364	0,73
401,822	0,73
402,28	0,73
402,738	0,73
403,196	0,73
403,654	0,73
404,112	0,73
404,57	0,73
405,028	0,73
405,486	0,73
405,944	0,73
406,402	0,73
406,859	0,73
407,317	0,73
407,775	0,73
408,233	0,73
408,691	0,73
409,148	0,73
409,606	0,73
410,064	0,73
410,521	0,73
410,979	0,73
411,436	0,73
411,894	0,73
412,351	0,73
412,809	0,72
413,266	0,72
413,724	0,72
414,181	0,72
414,638	0,72
415,096	0,72
415,553	0,72
416,01	0,72
416,467	0,72
416,925	0,72
417,382	0,72
417,839	0,72
418,296	0,72
418,753	0,72
419,21	0,72
419,667	0,72
420,124	0,72
420,581	0,72
421,038	0,72
421,495	0,72
421,952	0,72
422,409	0,72
422,866	0,72
423,322	0,72
423,779	0,72
424,236	0,72
424,693	0,72
425,149	0,72
425,606	0,72
426,063	0,72
426,519	0,72
426,976	0,72
427,433	0,72
427,889	0,72
428,346	0,72
428,802	0,72
429,258	0,72
429,715	0,72
430,171	0,72
430,628	0,72
431,084	0,72
431,54	0,72
431,997	0,72
432,453	0,72
432,909	0,72
433,365	0,72
433,821	0,72
434,277	0,72
434,734	0,72
435,19	0,72
435,646	0,72
436,102	0,72
436,558	0,72
437,014	0,72
437,47	0,72
437,925	0,72
438,381	0,72
438,837	0,72
439,293	0,72
439,749	0,72
440,205	0,72
440,66	0,72
441,116	0,72
441,572	0,72
442,027	0,72
442,483	0,72
442,939	0,72
443,394	0,72
443,85	0,72
444,305	0,72
444,761	0,72
445,216	0,72
445,672	0,72
446,127	0,72
446,582	0,72
447,038	0,72
447,493	0,72
447,948	0,72
448,403	0,72
448,859	0,72
449,314	0,72
449,769	0,72
450,224	0,72
450,679	0,72
451,134	0,72
451,589	0,72
452,044	0,73
452,499	0,73
452,954	0,73
453,409	0,73
453,864	0,73
454,319	0,73
454,774	0,73
455,229	0,73
455,684	0,73
456,138	0,73
456,593	0,73
457,048	0,73
457,503	0,73
457,957	0,73
458,412	0,73
458,866	0,73
459,321	0,73
459,776	0,73
460,23	0,73
460,685	0,73
461,139	0,73
461,593	0,73
462,048	0,73
462,502	0,73
462,957	0,73
463,411	0,73
463,865	0,74
464,319	0,74
464,774	0,74
465,228	0,74
465,682	0,74
466,136	0,74
466,59	0,74
467,044	0,74
467,499	0,74
467,953	0,74
468,407	0,74
468,861	0,74
469,315	0,74
469,768	0,74
470,222	0,75
470,676	0,75
471,13	0,75
471,584	0,75
472,038	0,75
472,491	0,75
472,945	0,75
473,399	0,75
473,852	0,75
474,306	0,75
474,76	0,76
475,213	0,76
475,667	0,76
476,12	0,76
476,574	0,76
477,027	0,76
477,481	0,76
477,934	0,76
478,388	0,77
478,841	0,77
479,294	0,77
479,748	0,77
480,201	0,77
480,654	0,77
481,107	0,78
481,561	0,78
482,014	0,78
482,467	0,78
482,92	0,78
483,373	0,78
483,826	0,78
484,279	0,79
484,732	0,79
485,185	0,79
485,638	0,79
486,091	0,79
486,544	0,79
486,997	0,8
487,449	0,8
487,902	0,8
488,355	0,8
488,808	0,81
489,26	0,81
489,713	0,81
490,166	0,81
490,618	0,82
491,071	0,82
491,523	0,82
491,976	0,83
492,429	0,83
492,881	0,83
493,333	0,83
493,786	0,84
494,238	0,84
494,691	0,84
495,143	0,85
495,595	0,85
496,048	0,85
496,5	0,85
496,952	0,86
497,404	0,86
497,856	0,86
498,309	0,87
498,761	0,87
499,213	0,88
499,665	0,88
500,117	0,88
500,569	0,89
501,021	0,89
501,473	0,89
501,925	0,9
502,377	0,9
502,828	0,91
503,28	0,91
503,732	0,91
504,184	0,92
504,636	0,92
505,087	0,92
505,539	0,93
505,991	0,93
506,442	0,93
506,894	0,94
507,345	0,94
507,797	0,95
508,249	0,95
508,7	0,95
509,151	0,96
509,603	0,96
510,054	0,97
510,506	0,97
510,957	0,97
511,408	0,98
511,86	0,98
512,311	0,98
512,762	0,99
513,213	0,99
513,665	0,99
514,116	1
514,567	1
515,018	1
515,469	1
515,92	1,01
516,371	1,01
516,822	1,01
517,273	1,02
517,724	1,02
518,175	1,02
518,626	1,02
519,076	1,02
519,527	1,03
519,978	1,03
520,429	1,03
520,88	1,03
521,33	1,04
521,781	1,04
522,232	1,04
522,682	1,04
523,133	1,04
523,583	1,05
524,034	1,05
524,484	1,05
524,935	1,05
525,385	1,05
525,836	1,05
526,286	1,05
526,736	1,05
527,187	1,05
527,637	1,05
528,087	1,05
528,538	1,05
528,988	1,05
529,438	1,05
529,888	1,05
530,338	1,04
530,788	1,04
531,238	1,04
531,688	1,04
532,139	1,04
532,589	1,04
533,038	1,04
533,488	1,03
533,938	1,03
534,388	1,03
534,838	1,03
535,288	1,02
535,738	1,02
536,187	1,02
536,637	1,01
537,087	1,01
537,537	1,01
537,986	1
538,436	1
538,885	1
539,335	0,99
539,785	0,99
540,234	0,98
540,684	0,98
541,133	0,97
541,582	0,97
542,032	0,96
542,481	0,96
542,931	0,95
543,38	0,95
543,829	0,95
544,278	0,94
544,728	0,94
545,177	0,93
545,626	0,93
546,075	0,93
546,524	0,92
546,973	0,92
547,422	0,92
547,871	0,91
548,32	0,91
548,769	0,91
549,218	0,9
549,667	0,9
550,116	0,9
550,565	0,89
551,014	0,89
551,463	0,88
551,911	0,88
552,36	0,88
552,809	0,87
553,258	0,87
553,706	0,86
554,155	0,86
554,603	0,86
555,052	0,85
555,501	0,85
555,949	0,84
556,398	0,84
556,846	0,84
557,294	0,83
557,743	0,83
558,191	0,82
558,64	0,82
559,088	0,81
559,536	0,81
559,985	0,8
560,433	0,8
560,881	0,79
561,329	0,79
561,777	0,79
562,225	0,78
562,674	0,78
563,122	0,78
563,57	0,77
564,018	0,77
564,466	0,76
564,914	0,76
565,362	0,76
565,809	0,75
566,257	0,75
566,705	0,75
567,153	0,74
567,601	0,74
568,048	0,73
568,496	0,73
568,944	0,73
569,392	0,72
569,839	0,72
570,287	0,72
570,734	0,71
571,182	0,71
571,63	0,71
572,077	0,7
572,525	0,7
572,972	0,7
573,419	0,69
573,867	0,69
574,314	0,69
574,761	0,68
575,209	0,68
575,656	0,68
576,103	0,67
576,551	0,67
576,998	0,67
577,445	0,67
577,892	0,66
578,339	0,66
578,786	0,66
579,233	0,65
579,68	0,65
580,127	0,65
580,574	0,65
581,021	0,64
581,468	0,64
581,915	0,64
582,362	0,64
582,809	0,63
583,255	0,63
583,702	0,63
584,149	0,63
584,596	0,63
585,042	0,62
585,489	0,62
585,936	0,62
586,382	0,62
586,829	0,62
587,275	0,61
587,722	0,61
588,168	0,61
588,615	0,61
589,061	0,61
589,508	0,6
589,954	0,6
590,4	0,6
590,847	0,6
591,293	0,6
591,739	0,59
592,185	0,59
592,632	0,59
593,078	0,59
593,524	0,59
593,97	0,59
594,416	0,59
594,862	0,59
595,308	0,58
595,754	0,58
596,2	0,58
596,646	0,58
597,092	0,58
597,538	0,58
597,984	0,57
598,43	0,57
598,876	0,57
599,321	0,57
599,767	0,57
600,213	0,57
600,659	0,57
601,104	0,57
601,55	0,57
601,995	0,56
602,441	0,56
602,887	0,56
603,332	0,56
603,778	0,56
604,223	0,56
604,668	0,56
605,114	0,56
605,559	0,55
606,005	0,55
606,45	0,55
606,895	0,55
607,341	0,55
607,786	0,55
608,231	0,55
608,676	0,54
609,121	0,54
609,566	0,53
610,012	0,53
610,457	0,52
610,902	0,52
611,347	0,52
611,792	0,52
612,237	0,52
612,682	0,51
613,127	0,51
613,571	0,52
614,016	0,52
614,461	0,52
614,906	0,52
615,351	0,52
615,795	0,52
616,24	0,52
616,685	0,53
617,129	0,53
617,574	0,53
618,019	0,53
618,463	0,53
618,908	0,52
619,352	0,52
619,797	0,52
620,241	0,52
620,686	0,52
621,13	0,52
621,574	0,52
622,019	0,52
622,463	0,52
622,907	0,52
623,352	0,51
623,796	0,51
624,24	0,51
624,684	0,51
625,128	0,51
625,572	0,51
626,016	0,51
626,461	0,51
626,905	0,51
627,349	0,51
627,793	0,51
628,236	0,51
628,68	0,51
629,124	0,51
629,568	0,51
630,012	0,51
630,456	0,51
630,9	0,51
631,343	0,51
631,787	0,51
632,231	0,51
632,674	0,51
633,118	0,51
633,562	0,51
634,005	0,51
634,449	0,51
634,892	0,51
635,336	0,51
635,779	0,51
636,223	0,51
636,666	0,51
637,109	0,51
637,553	0,51
637,996	0,51
638,439	0,51
638,883	0,51
639,326	0,5
639,769	0,5
640,212	0,5
640,655	0,5
641,099	0,5
641,542	0,5
641,985	0,5
642,428	0,5
642,871	0,5
643,314	0,5
643,757	0,49
644,2	0,49
644,643	0,49
645,085	0,49
645,528	0,49
645,971	0,49
646,414	0,49
646,857	0,49
647,299	0,49
647,742	0,49
648,185	0,49
648,627	0,49
649,07	0,49
649,513	0,49
649,955	0,49
650,398	0,49
650,84	0,49
651,283	0,49
651,725	0,49
652,168	0,49
652,61	0,49
653,052	0,49
653,495	0,49
653,937	0,41
654,379	0,35
654,821	0,36
655,264	0,36
655,706	0,36
656,148	0,36
656,59	0,36
657,032	0,36
657,474	0,36
657,916	0,36
658,358	0,35
658,8	0,41
659,242	0,49
659,684	0,49
660,126	0,49
660,568	0,49
661,01	0,49
661,452	0,49
661,894	0,49
662,335	0,49
662,777	0,48
663,219	0,48
663,661	0,48
664,102	0,48
664,544	0,48
664,985	0,48
665,427	0,48
665,869	0,48
666,31	0,48
666,752	0,48
667,193	0,48
667,634	0,48
668,076	0,48
668,517	0,48
668,959	0,48
669,4	0,48
669,841	0,48
670,282	0,48
670,724	0,48
671,165	0,48
671,606	0,48
672,047	0,48
672,488	0,48
672,929	0,48
673,37	0,48
673,811	0,48
674,252	0,48
674,693	0,48
675,134	0,48
675,575	0,47
676,016	0,47
676,457	0,47
676,898	0,47
677,339	0,47
677,78	0,47
678,22	0,47
678,661	0,47
679,102	0,47
679,542	0,47
679,983	0,47
680,424	0,47
680,864	0,47
681,305	0,47
681,745	0,47
682,186	0,47
682,626	0,47
683,067	0,47
683,507	0,47
683,948	0,47
684,388	0,47
684,828	0,47
685,269	0,47
685,709	0,47
686,149	0,47
686,589	0,47
687,029	0,47
687,47	0,47
687,91	0,47
688,35	0,47
688,79	0,47
689,23	0,47
689,67	0,47
690,11	0,47
690,55	0,47
690,99	0,47
691,43	0,47
691,87	0,46
692,31	0,46
692,749	0,46
693,189	0,46
693,629	0,46
694,069	0,46
694,508	0,46
694,948	0,46
695,388	0,46
695,827	0,46
696,267	0,46
696,706	0,46
697,146	0,46
697,586	0,46
698,025	0,46
698,464	0,46
698,904	0,46
699,343	0,46
699,783	0,46
700,222	0,46
700,661	0,46
701,101	0,46
701,54	0,46
701,979	0,46
702,418	0,46
702,857	0,47
703,297	0,47
703,736	0,47
704,175	0,46
704,614	0,46
705,053	0,46
705,492	0,46
705,931	0,46
706,37	0,46
706,809	0,46
707,248	0,46
707,687	0,46
708,125	0,46
708,564	0,46
709,003	0,46
709,442	0,46
709,88	0,46
710,319	0,46
710,758	0,46
711,196	0,45
711,635	0,45
712,074	0,45
712,512	0,45
712,951	0,45
713,389	0,45
713,828	0,45
714,266	0,45
714,705	0,45
715,143	0,45
715,581	0,45
716,02	0,45
716,458	0,45
716,896	0,45
717,334	0,45
717,773	0,45
718,211	0,45
718,649	0,45
719,087	0,45
719,525	0,45
719,963	0,45
720,401	0,45
720,839	0,45
721,277	0,45
721,715	0,45
722,153	0,45
722,591	0,45
723,029	0,45
723,467	0,45
723,905	0,45
724,342	0,45
724,78	0,45
725,218	0,45
725,656	0,45
726,093	0,45
726,531	0,45
726,969	0,45
727,406	0,45
727,844	0,45
728,281	0,45
728,719	0,45
729,156	0,45
729,594	0,45
730,031	0,45
730,469	0,45
730,906	0,45
731,343	0,45
731,781	0,45
732,218	0,45
732,655	0,44
733,092	0,44
733,53	0,44
733,967	0,44
734,404	0,44
734,841	0,44
735,278	0,44
735,715	0,44
736,152	0,44
736,589	0,43
737,026	0,43
737,463	0,43
737,9	0,43
738,337	0,43
738,774	0,43
739,211	0,43
739,647	0,43
740,084	0,43
740,521	0,44
740,958	0,44
741,394	0,44
741,831	0,44
742,268	0,44
742,704	0,44
743,141	0,43
743,577	0,43
744,014	0,43
744,45	0,43
744,887	0,43
745,323	0,43
745,76	0,43
746,196	0,43
746,632	0,43
747,069	0,43
747,505	0,43
747,941	0,43
748,378	0,42
748,814	0,42
749,25	0,43
749,686	0,43
750,122	0,43
750,558	0,43
750,994	0,43
751,43	0,43
751,866	0,43
752,302	0,43
752,738	0,44
753,174	0,44
753,61	0,44
754,046	0,44
754,482	0,44
754,918	0,44
755,354	0,44
755,789	0,44
756,225	0,43
756,661	0,43
757,096	0,43
757,532	0,43
757,968	0,43
758,403	0,43
758,839	0,42
759,274	0,42
759,71	0,42
760,145	0,41
760,581	0,4
761,016	0,4
761,452	0,39
761,887	0,39
762,322	0,38
762,758	0,38
763,193	0,37
763,628	0,37
764,063	0,36
764,499	0,36
764,934	0,35
765,369	0,34
765,804	0,34
766,239	0,33
766,674	0,32
767,109	0,31
767,544	0,31
767,979	0,3
768,414	0,29
768,849	0,28
769,284	0,27
769,719	0,26
770,154	0,25
770,588	0,24
771,023	0,23
771,458	0,22
771,893	0,21
772,327	0,2
772,762	0,19
773,197	0,18
773,631	0,17
774,066	0,15
774,5	0,15
774,935	0,14
775,369	0,12
775,804	0,11
776,238	0,1
776,673	0,09
777,107	0,08
777,541	0,08
777,976	0,06
778,41	0,06
778,844	0,05
779,279	0,05
779,713	0,04
780,147	0,03
780,581	0,02
781,015	0,01
781,449	0
781,883	-0
782,317	-0,02
782,751	-0,03
783,185	-0,04
783,619	-0,05
784,053	-0,06
784,487	-0,07
784,921	-0,07
785,355	-0,08
785,789	-0,09
786,223	-0,1
786,656	-0,11
787,09	-0,12
787,524	-0,13
787,957	-0,14
788,391	-0,16
788,825	-0,18
789,258	-0,19
789,692	-0,2
790,125	-0,22
790,559	-0,24
790,992	-0,26
791,426	-0,28
791,859	-0,3
792,293	-0,33
792,726	-0,35
793,159	-0,36
793,593	-0,38
794,026	-0,4
794,459	-0,44
794,892	-0,47
795,326	-0,49
795,759	-0,52
796,192	-0,57
796,625	-0,61
797,058	-0,63
797,491	-0,68
797,924	-0,72
798,357	-0,77
798,79	-0,81
799,223	-0,85
799,656	-0,9
800,089	-0,95
800,522	-1
800,955	-1,04
801,387	-1,1
801,82	-1,15
802,253	-1,22
802,686	-1,29
803,118	-1,35
803,551	-1,4
803,984	-1,44
804,416	-1,48
804,849	-1,52
805,281	-1,63
805,714	-1,98
806,146	-2,44
806,579	-2,7
807,011	-2,86
807,444	-2,96
807,876	-3,05
808,308	-3,09
808,741	-3,12
809,173	-3,17
809,605	-3,19
810,037	-3,27
810,47	-3,19
810,902	-2,99
811,334	-2,85
811,766	-2,7
812,198	-2,47
812,63	-2,04
813,062	-1,8
813,494	-1,7
813,926	-1,61
814,358	-1,56
814,79	-1,48
815,222	-1,42
815,654	-1,37
816,086	-1,31
816,518	-1,25
816,949	-1,2
817,381	-1,16
817,813	-1,14
818,245	-1,1
818,676	-1,06
819,108	-1,02
819,54	-1,01
819,971	-0,98
820,403	-0,93
820,834	-0,92
821,266	-0,88
821,697	-0,85
822,129	-0,84
822,56	-0,81
822,991	-0,79
823,423	-0,76
823,854	-0,75
824,286	-0,73
824,717	-0,72
825,148	-0,7
825,579	-0,69
826,01	-0,68
826,442	-0,67
826,873	-0,65
827,304	-0,62
827,735	-0,61
828,166	-0,62
828,597	-0,61
829,028	-0,61
829,459	-0,62
829,89	-0,62
830,321	-0,57
830,752	-0,58
831,183	-0,56
831,613	-0,56
832,044	-0,56
832,475	-0,54
832,906	-0,55
833,336	-0,56
833,767	-0,56
834,198	-0,54
834,628	-0,52
835,059	-0,55
835,49	-0,56
835,92	-0,53
836,351	-0,53
836,781	-0,53
837,212	-0,55
837,642	-0,56
838,072	-0,53
838,503	-0,54
838,933	-0,52
839,364	-0,53
839,794	-0,52
840,224	-0,51
840,654	-0,55
841,085	-0,56
841,515	-0,53
841,945	-0,53
842,375	-0,49
842,805	-0,48
843,235	-0,47
843,665	-0,48
844,095	-0,47
844,525	-0,48
844,955	-0,48
845,385	-0,45
845,815	-0,44
846,245	-0,46
846,675	-0,47
847,105	-0,49
847,534	-0,48
847,964	-0,47
848,394	-0,46
848,824	-0,49
849,253	-0,48
849,683	-0,49
850,112	-0,5
850,542	-0,53
850,972	-0,53
851,401	-0,5
851,831	-0,48
852,26	-0,49
852,69	-0,53
853,119	-0,52
853,548	-0,52
853,978	-0,54
854,407	-0,52
854,836	-0,52
855,266	-0,52
855,695	-0,54
856,124	-0,55
856,553	-0,57
856,983	-0,58
857,412	-0,57
857,841	-0,59
858,27	-0,59
858,699	-0,59
859,128	-0,62
859,557	-0,63
859,986	-0,63
860,415	-0,61
860,844	-0,59
861,273	-0,59
861,702	-0,59
862,13	-0,57
862,559	-0,59
862,988	-0,57
863,417	-0,56
863,845	-0,55
864,274	-0,55
864,703	-0,55
865,131	-0,55
865,56	-0,56
865,989	-0,6
866,417	-0,58
866,846	-0,58
867,274	-0,57
867,703	-0,59
868,131	-0,6
868,559	-0,6
868,988	-0,63
869,416	-0,62
869,844	-0,63
870,273	-0,66
870,701	-0,63
871,129	-0,66
871,557	-0,68
871,986	-0,69
872,414	-0,7
872,842	-0,67
873,27	-0,65
873,698	-0,62
874,126	-0,66
874,554	-0,64
874,982	-0,64
875,41	-0,67
875,838	-0,62
876,266	-0,6
876,694	-0,6
877,122	-0,59
877,549	-0,64
877,977	-0,61
878,405	-0,64
878,833	-0,61
879,26	-0,6
879,688	-0,6
880,116	-0,57
880,543	-0,56
880,971	-0,55
881,399	-0,58
881,826	-0,59
882,254	-0,57
882,681	-0,6
883,109	-0,55
883,536	-0,56
883,963	-0,58
884,391	-0,56
884,818	-0,55
885,245	-0,58
885,673	-0,6
886,1	-0,58
886,527	-0,58
886,954	-0,55
887,381	-0,57
887,809	-0,58
888,236	-0,59
888,663	-0,6
889,09	-0,63
889,517	-0,65
889,944	-0,65
890,371	-0,63
890,798	-0,63
891,225	-0,62
891,652	-0,65
892,078	-0,62
892,505	-0,65
892,932	-0,61
893,359	-0,62
893,786	-0,63
894,212	-0,59
894,639	-0,6
895,066	-0,63
895,492	-0,58
895,919	-0,59
896,346	-0,59
896,772	-0,6
897,199	-0,56
897,625	-0,59
898,052	-0,55
898,478	-0,53
898,904	-0,55
899,331	-0,54
899,757	-0,55
900,183	-0,57
900,61	-0,55
901,036	-0,55
901,462	-0,56
901,888	-0,55
902,315	-0,54
902,741	-0,59
903,167	-0,58
903,593	-0,6
904,019	-0,58
904,445	-0,56
904,871	-0,59
905,297	-0,61
905,723	-0,61
906,149	-0,59
906,575	-0,6
907,001	-0,6
907,427	-0,57
907,852	-0,56
908,278	-0,56
908,704	-0,55
909,13	-0,54
909,555	-0,53
909,981	-0,52
910,407	-0,52
910,832	-0,52
911,258	-0,52
911,684	-0,52
912,109	-0,52
912,535	-0,54
912,96	-0,5
913,386	-0,54
913,811	-0,54
914,236	-0,55
914,662	-0,54
915,087	-0,57
915,512	-0,56
915,938	-0,58
916,363	-0,58
916,788	-0,59
917,213	-0,57
917,639	-0,61
918,064	-0,58
918,489	-0,59
918,914	-0,59
919,339	-0,6
919,764	-0,57
920,189	-0,58
920,614	-0,59
921,039	-0,59
921,464	-0,54
921,889	-0,57
922,314	-0,58
922,738	-0,62
923,163	-0,63
923,588	-0,64
924,013	-0,62
924,437	-0,62
924,862	-0,62
925,287	-0,59
925,711	-0,61
926,136	-0,62
926,561	-0,6
926,985	-0,59
927,41	-0,56
927,834	-0,54
928,259	-0,51
928,683	-0,5
929,108	-0,48
929,532	-0,49
929,956	-0,48
930,381	-0,47
930,805	-0,47
931,229	-0,47
931,653	-0,45
932,078	-0,45
932,502	-0,46
932,926	-0,46
933,35	-0,47
933,774	-0,46
934,198	-0,44
934,622	-0,43
935,046	-0,44
935,47	-0,44
935,894	-0,44
936,318	-0,44
936,742	-0,43
937,166	-0,44
937,59	-0,44
938,014	-0,46
938,437	-0,47
938,861	-0,49
939,285	-0,5
939,709	-0,49
940,132	-0,5
940,556	-0,5
940,98	-0,5
941,403	-0,49
941,827	-0,49
942,25	-0,5
942,674	-0,48
943,097	-0,48
943,521	-0,47
943,944	-0,49
944,368	-0,48
944,791	-0,47
945,214	-0,49
945,638	-0,49
946,061	-0,52
946,484	-0,53
946,907	-0,5
947,331	-0,5
947,754	-0,54
948,177	-0,51
948,6	-0,51
949,023	-0,51
949,446	-0,52
949,869	-0,49
950,292	-0,49
950,715	-0,48
951,138	-0,46
951,561	-0,44
951,984	-0,44
952,407	-0,43
952,83	-0,42
953,252	-0,38
953,675	-0,37
954,098	-0,38
954,521	-0,37
954,943	-0,36
955,366	-0,37
955,789	-0,36
956,211	-0,37
956,634	-0,38
957,056	-0,36
957,479	-0,37
957,902	-0,39
958,324	-0,4
958,746	-0,37
959,169	-0,38
959,591	-0,39
960,014	-0,4
960,436	-0,39
960,858	-0,39
961,281	-0,38
961,703	-0,39
962,125	-0,38
962,547	-0,36
962,969	-0,37
963,391	-0,38
963,814	-0,38
964,236	-0,37
964,658	-0,34
965,08	-0,35
965,502	-0,34
965,924	-0,32
966,346	-0,32
966,768	-0,31
967,189	-0,34
967,611	-0,32
968,033	-0,33
968,455	-0,32
968,877	-0,33
969,298	-0,34
969,72	-0,34
970,142	-0,33
970,563	-0,34
970,985	-0,31
971,407	-0,31
971,828	-0,29
972,25	-0,28
972,671	-0,27
973,093	-0,26
973,514	-0,25
973,936	-0,22
974,357	-0,21
974,778	-0,21
975,2	-0,2
975,621	-0,21
976,042	-0,19
976,464	-0,18
976,885	-0,17
977,306	-0,16
977,727	-0,16
978,148	-0,15
978,57	-0,14
978,991	-0,12
979,412	-0,11
979,833	-0,1
980,254	-0,09
980,675	-0,09
981,096	-0,08
981,517	-0,07
981,937	-0,06
982,358	-0,04
982,779	-0,03
983,2	-0,04
983,621	-0,04
984,042	-0,02
984,462	-0
984,883	0,02
985,304	0,03
985,724	0,05
986,145	0,06
986,565	0,08
986,986	0,09
987,407	0,1
987,827	0,11
988,248	0,13
988,668	0,14
989,088	0,15
989,509	0,16
989,929	0,17
990,35	0,18
990,77	0,19
991,19	0,2
991,61	0,22
992,031	0,23
992,451	0,23
992,871	0,24
993,291	0,25
993,711	0,26
994,131	0,27
994,551	0,28
994,971	0,29
995,391	0,29
995,811	0,3
996,231	0,3
996,651	0,31
997,071	0,32
997,491	0,33
997,911	0,34
998,331	0,34
998,75	0,35
999,17	0,35
999,59	0,36
1000,009	0,36
1000,429	0,37
1000,849	0,37
1001,268	0,38
1001,688	0,38
1002,107	0,39
1002,527	0,39
1002,946	0,39
1003,366	0,4
1003,785	0,4
1004,205	0,4
1004,624	0,41
1005,044	0,41
1005,463	0,41
1005,882	0,42
1006,301	0,42
1006,721	0,42
1007,14	0,42
1007,559	0,42
1007,978	0,42
1008,397	0,42
1008,816	0,42
1009,235	0,42
1009,655	0,42
1010,074	0,42
1010,492	0,42
1010,911	0,42
1011,33	0,42
1011,749	0,42
1012,168	0,42
1012,587	0,42
1013,006	0,42
1013,425	0,42
1013,843	0,42
1014,262	0,42
1014,681	0,42
1015,099	0,41
1015,518	0,41
1015,937	0,41
1016,355	0,41
1016,774	0,41
1017,192	0,41
1017,611	0,41
1018,029	0,41
1018,448	0,41
1018,866	0,41
1019,285	0,41
1019,703	0,41
1020,121	0,41
1020,54	0,41
1020,958	0,41
1021,376	0,41
1021,794	0,41
1022,213	0,41
1022,631	0,41
1023,049	0,4
1023,467	0,4
1023,885	0,4
1024,303	0,4
1024,721	0,4
1025,139	0,4
1025,557	0,4
1025,975	0,4
1026,393	0,4
1026,811	0,4
1027,229	0,4
1027,647	0,4
1028,065	0,4
1028,482	0,4
1028,9	0,4
1029,318	0,4
1029,735	0,4
1030,153	0,4
1030,571	0,4
1030,988	0,4
1031,406	0,4
1031,823	0,4
1032,241	0,4
1032,659	0,4
1033,076	0,4
1033,493	0,4
1033,911	0,4
1034,328	0,4
1034,746	0,4
1035,163	0,4
1035,58	0,4
1035,997	0,4
1036,415	0,4
1036,832	0,4
1037,249	0,4
1037,666	0,4
1038,083	0,4
1038,501	0,4
1038,918	0,4
1039,335	0,4
1039,752	0,4
1040,169	0,4
1040,586	0,4
1041,003	0,4
1041,419	0,4
1041,836	0,4
1042,253	0,4
1042,67	0,4
1043,087	0,4
1043,504	0,4
1043,92	0,4
1044,337	0,4
1044,754	0,4
1045,17	0,4
1045,587	0,4
1046,004	0,4
1046,42	0,4
1046,837	0,4
1047,253	0,4
1047,67	0,4
1048,086	0,4
1048,503	0,4
1048,919	0,4
1049,335	0,4
1049,752	0,4
1050,168	0,4
1050,584	0,4
1051,001	0,4
1051,417	0,4
1051,833	0,4
1052,249	0,4
1052,665	0,4
1053,081	0,4
1053,497	0,4
1053,914	0,4
1054,33	0,4
1054,746	0,41
1055,162	0,41
1055,578	0,41
1055,993	0,41
1056,409	0,41
1056,825	0,41
1057,241	0,41
1057,657	0,41
1058,073	0,41
1058,488	0,41
1058,904	0,41
1059,32	0,41
1059,736	0,41
1060,151	0,41
1060,567	0,41
1060,982	0,41
1061,398	0,4
1061,813	0,4
1062,229	0,4
1062,644	0,4
1063,06	0,4
1063,475	0,4
1063,891	0,4
1064,306	0,4
1064,721	0,4
1065,137	0,4
1065,552	0,4
1065,967	0,4
1066,382	0,4
1066,798	0,4
1067,213	0,4
1067,628	0,4
1068,043	0,4
1068,458	0,4
1068,873	0,4
1069,288	0,4
1069,703	0,4
1070,118	0,4
1070,533	0,4
1070,948	0,4
1071,363	0,4
1071,778	0,4
1072,193	0,4
1072,607	0,4
1073,022	0,4
1073,437	0,4
1073,852	0,4
1074,266	0,4
1074,681	0,4
1075,096	0,4
1075,51	0,4
1075,925	0,4
1076,339	0,4
1076,754	0,4
1077,168	0,4
1077,583	0,4
1077,997	0,4
1078,412	0,4
1078,826	0,4
1079,24	0,4
1079,655	0,39
1080,069	0,39
1080,483	0,39
1080,897	0,39
1081,312	0,39
1081,726	0,39
1082,14	0,39
1082,554	0,39
1082,968	0,39
1083,382	0,39
1083,796	0,39
1084,21	0,39
1084,624	0,39
1085,038	0,39
1085,452	0,38
1085,866	0,38
1086,28	0,38
1086,694	0,38
1087,108	0,38
1087,521	0,38
1087,935	0,38
1088,349	0,37
1088,763	0,37
1089,176	0,37
1089,59	0,37
1090,004	0,37
1090,417	0,36
1090,831	0,36
1091,244	0,36
1091,658	0,35
1092,071	0,35
1092,485	0,35
1092,898	0,34
1093,312	0,34
1093,725	0,34
1094,138	0,34
1094,552	0,34
1094,965	0,33
1095,378	0,33
1095,791	0,33
1096,205	0,33
1096,618	0,32
1097,031	0,32
1097,444	0,31
1097,857	0,31
1098,27	0,31
1098,683	0,3
1099,096	0,3
1099,509	0,3
1099,922	0,29
1100,335	0,29
1100,748	0,28
1101,161	0,28
1101,574	0,28
1101,986	0,27
1102,399	0,27
1102,812	0,26
1103,225	0,26
1103,637	0,26
1104,05	0,25
1104,463	0,26
1104,875	0,25
1105,288	0,24
1105,7	0,24
1106,113	0,24
1106,525	0,24
1106,938	0,23
1107,35	0,22
1107,763	0,22
1108,175	0,22
1108,588	0,22
1109	0,21
1109,412	0,2
1109,824	0,2
1110,237	0,19
1110,649	0,19
1111,061	0,17
