Data from 18C-808nm-8A-cont_Absorbance__279__01708.txt Node

Date: Mon Jul 17 17:28:13 CEST 2023
User: Laser008
Spectrometer: MAYP115816
Trigger mode: 0
Integration Time (sec): 2,500000E-1
Scans to average: 10
Electric dark correction enabled: true
Nonlinearity correction enabled: true
Boxcar width: 5
XAxis mode: Wavelengths
Number of Pixels in Spectrum: 2068
>>>>>Begin Spectral Data<<<<<
198,914	-0,74
199,384	-0,49
199,855	-0,36
200,325	-0,26
200,796	-0,24
201,266	-0,18
201,737	-0,18
202,207	-0,17
202,677	-0,15
203,147	-0,13
203,618	-0,11
204,088	-0,08
204,558	-0,07
205,028	-0,06
205,498	-0,08
205,968	-0,07
206,439	-0,09
206,909	-0,08
207,379	-0,08
207,849	-0,08
208,319	-0,09
208,789	-0,09
209,258	-0,1
209,728	-0,11
210,198	-0,11
210,668	-0,1
211,138	-0,1
211,608	-0,11
212,077	-0,11
212,547	-0,11
213,017	-0,11
213,486	-0,12
213,956	-0,13
214,426	-0,13
214,895	-0,12
215,365	-0,13
215,834	-0,14
216,304	-0,15
216,773	-0,15
217,243	-0,16
217,712	-0,17
218,181	-0,17
218,651	-0,16
219,12	-0,16
219,589	-0,16
220,058	-0,15
220,528	-0,16
220,997	-0,16
221,466	-0,17
221,935	-0,17
222,404	-0,17
222,873	-0,15
223,342	-0,16
223,812	-0,17
224,281	-0,17
224,749	-0,17
225,218	-0,19
225,687	-0,19
226,156	-0,18
226,625	-0,16
227,094	-0,17
227,563	-0,16
228,031	-0,18
228,5	-0,18
228,969	-0,18
229,438	-0,17
229,906	-0,16
230,375	-0,15
230,844	-0,15
231,312	-0,15
231,781	-0,16
232,249	-0,15
232,718	-0,15
233,186	-0,14
233,655	-0,14
234,123	-0,14
234,591	-0,14
235,06	-0,14
235,528	-0,15
235,996	-0,14
236,465	-0,14
236,933	-0,13
237,401	-0,13
237,869	-0,11
238,337	-0,11
238,805	-0,1
239,274	-0,09
239,742	-0,08
240,21	-0,08
240,678	-0,07
241,146	-0,06
241,614	-0,07
242,081	-0,07
242,549	-0,07
243,017	-0,08
243,485	-0,08
243,953	-0,08
244,421	-0,08
244,888	-0,07
245,356	-0,08
245,824	-0,08
246,291	-0,09
246,759	-0,1
247,227	-0,1
247,694	-0,09
248,162	-0,08
248,629	-0,08
249,097	-0,09
249,564	-0,1
250,032	-0,11
250,499	-0,11
250,967	-0,12
251,434	-0,11
251,901	-0,11
252,369	-0,11
252,836	-0,12
253,303	-0,13
253,77	-0,15
254,237	-0,14
254,705	-0,14
255,172	-0,13
255,639	-0,13
256,106	-0,14
256,573	-0,14
257,04	-0,13
257,507	-0,14
257,974	-0,14
258,441	-0,13
258,908	-0,13
259,375	-0,14
259,841	-0,14
260,308	-0,14
260,775	-0,14
261,242	-0,14
261,709	-0,15
262,175	-0,16
262,642	-0,15
263,109	-0,15
263,575	-0,17
264,042	-0,14
264,508	-0,13
264,975	-0,15
265,441	-0,15
265,908	-0,16
266,374	-0,14
266,841	-0,15
267,307	-0,15
267,773	-0,15
268,24	-0,16
268,706	-0,16
269,172	-0,17
269,639	-0,19
270,105	-0,17
270,571	-0,18
271,037	-0,17
271,503	-0,19
271,969	-0,19
272,435	-0,19
272,902	-0,21
273,368	-0,21
273,834	-0,21
274,3	-0,21
274,765	-0,21
275,231	-0,21
275,697	-0,2
276,163	-0,2
276,629	-0,19
277,095	-0,19
277,56	-0,19
278,026	-0,2
278,492	-0,18
278,958	-0,18
279,423	-0,17
279,889	-0,17
280,354	-0,18
280,82	-0,19
281,286	-0,2
281,751	-0,21
282,217	-0,19
282,682	-0,19
283,147	-0,18
283,613	-0,19
284,078	-0,19
284,544	-0,2
285,009	-0,2
285,474	-0,19
285,939	-0,2
286,405	-0,18
286,87	-0,18
287,335	-0,18
287,8	-0,17
288,265	-0,17
288,73	-0,18
289,195	-0,21
289,66	-0,2
290,125	-0,19
290,59	-0,19
291,055	-0,19
291,52	-0,19
291,985	-0,19
292,45	-0,22
292,915	-0,22
293,38	-0,22
293,844	-0,21
294,309	-0,2
294,774	-0,19
295,239	-0,2
295,703	-0,21
296,168	-0,2
296,632	-0,19
297,097	-0,17
297,562	-0,15
298,026	-0,16
298,491	-0,16
298,955	-0,15
299,419	-0,15
299,884	-0,15
300,348	-0,14
300,813	-0,13
301,277	-0,14
301,741	-0,14
302,205	-0,14
302,67	-0,14
303,134	-0,13
303,598	-0,13
304,062	-0,12
304,526	-0,12
304,99	-0,14
305,454	-0,14
305,919	-0,14
306,383	-0,13
306,847	-0,13
307,31	-0,14
307,774	-0,14
308,238	-0,14
308,702	-0,14
309,166	-0,15
309,63	-0,16
310,094	-0,12
310,557	-0,12
311,021	-0,11
311,485	-0,12
311,948	-0,11
312,412	-0,1
312,876	-0,1
313,339	-0,1
313,803	-0,1
314,266	-0,1
314,73	-0,09
315,193	-0,1
315,657	-0,09
316,12	-0,09
316,584	-0,08
317,047	-0,07
317,51	-0,07
317,973	-0,07
318,437	-0,06
318,9	-0,05
319,363	-0,04
319,826	-0,03
320,29	-0,03
320,753	-0,03
321,216	-0,03
321,679	-0,04
322,142	-0,04
322,605	-0,04
323,068	-0,04
323,531	-0,04
323,994	-0,04
324,457	-0,03
324,92	-0,03
325,382	-0,03
325,845	-0,03
326,308	-0,02
326,771	-0,01
327,233	-0,01
327,696	0,01
328,159	0,01
328,622	0,02
329,084	0,02
329,547	0,03
330,009	0,03
330,472	0,05
330,934	0,06
331,397	0,07
331,859	0,07
332,322	0,07
332,784	0,08
333,246	0,08
333,709	0,08
334,171	0,08
334,633	0,09
335,096	0,09
335,558	0,08
336,02	0,08
336,482	0,08
336,944	0,08
337,406	0,08
337,868	0,08
338,331	0,08
338,793	0,09
339,255	0,1
339,717	0,1
340,178	0,1
340,64	0,12
341,102	0,12
341,564	0,13
342,026	0,15
342,488	0,16
342,949	0,17
343,411	0,2
343,873	0,23
344,335	0,27
344,796	0,3
345,258	0,35
345,719	0,39
346,181	0,44
346,643	0,48
347,104	0,52
347,566	0,55
348,027	0,58
348,488	0,6
348,95	0,62
349,411	0,65
349,873	0,67
350,334	0,69
350,795	0,7
351,256	0,71
351,718	0,72
352,179	0,73
352,64	0,73
353,101	0,74
353,562	0,74
354,023	0,74
354,484	0,74
354,945	0,75
355,406	0,75
355,867	0,75
356,328	0,76
356,789	0,76
357,25	0,76
357,711	0,76
358,172	0,76
358,633	0,76
359,093	0,77
359,554	0,77
360,015	0,77
360,476	0,77
360,936	0,77
361,397	0,77
361,858	0,78
362,318	0,78
362,779	0,78
363,239	0,78
363,7	0,78
364,16	0,78
364,621	0,78
365,081	0,78
365,541	0,78
366,002	0,78
366,462	0,78
366,922	0,78
367,383	0,78
367,843	0,78
368,303	0,78
368,763	0,78
369,223	0,78
369,684	0,78
370,144	0,78
370,604	0,78
371,064	0,78
371,524	0,78
371,984	0,78
372,444	0,78
372,904	0,78
373,363	0,78
373,823	0,78
374,283	0,77
374,743	0,77
375,203	0,77
375,663	0,78
376,122	0,78
376,582	0,77
377,042	0,77
377,501	0,78
377,961	0,77
378,42	0,77
378,88	0,77
379,34	0,77
379,799	0,77
380,259	0,77
380,718	0,77
381,177	0,77
381,637	0,77
382,096	0,77
382,555	0,77
383,015	0,77
383,474	0,77
383,933	0,77
384,393	0,77
384,852	0,77
385,311	0,77
385,77	0,77
386,229	0,77
386,688	0,77
387,147	0,77
387,606	0,77
388,065	0,77
388,524	0,77
388,983	0,77
389,442	0,77
389,901	0,76
390,36	0,76
390,819	0,76
391,277	0,76
391,736	0,76
392,195	0,76
392,654	0,76
393,112	0,76
393,571	0,76
394,03	0,76
394,488	0,76
394,947	0,76
395,405	0,76
395,864	0,76
396,322	0,76
396,781	0,76
397,239	0,76
397,698	0,76
398,156	0,76
398,614	0,76
399,073	0,76
399,531	0,76
399,989	0,76
400,447	0,76
400,905	0,76
401,364	0,76
401,822	0,76
402,28	0,76
402,738	0,76
403,196	0,76
403,654	0,76
404,112	0,76
404,57	0,76
405,028	0,75
405,486	0,75
405,944	0,75
406,402	0,75
406,859	0,75
407,317	0,75
407,775	0,76
408,233	0,76
408,691	0,76
409,148	0,75
409,606	0,75
410,064	0,75
410,521	0,75
410,979	0,75
411,436	0,75
411,894	0,75
412,351	0,75
412,809	0,75
413,266	0,75
413,724	0,75
414,181	0,75
414,638	0,75
415,096	0,75
415,553	0,75
416,01	0,75
416,467	0,75
416,925	0,75
417,382	0,75
417,839	0,75
418,296	0,75
418,753	0,75
419,21	0,75
419,667	0,75
420,124	0,75
420,581	0,75
421,038	0,75
421,495	0,75
421,952	0,75
422,409	0,75
422,866	0,75
423,322	0,75
423,779	0,75
424,236	0,75
424,693	0,75
425,149	0,75
425,606	0,75
426,063	0,75
426,519	0,75
426,976	0,75
427,433	0,75
427,889	0,75
428,346	0,75
428,802	0,75
429,258	0,75
429,715	0,75
430,171	0,75
430,628	0,75
431,084	0,75
431,54	0,75
431,997	0,75
432,453	0,75
432,909	0,75
433,365	0,75
433,821	0,75
434,277	0,74
434,734	0,74
435,19	0,74
435,646	0,74
436,102	0,74
436,558	0,74
437,014	0,74
437,47	0,74
437,925	0,74
438,381	0,75
438,837	0,75
439,293	0,75
439,749	0,75
440,205	0,75
440,66	0,75
441,116	0,75
441,572	0,75
442,027	0,75
442,483	0,75
442,939	0,75
443,394	0,75
443,85	0,75
444,305	0,75
444,761	0,75
445,216	0,75
445,672	0,75
446,127	0,75
446,582	0,75
447,038	0,75
447,493	0,75
447,948	0,75
448,403	0,75
448,859	0,75
449,314	0,75
449,769	0,75
450,224	0,75
450,679	0,75
451,134	0,75
451,589	0,75
452,044	0,75
452,499	0,75
452,954	0,75
453,409	0,75
453,864	0,75
454,319	0,75
454,774	0,75
455,229	0,75
455,684	0,75
456,138	0,75
456,593	0,75
457,048	0,75
457,503	0,75
457,957	0,75
458,412	0,75
458,866	0,75
459,321	0,76
459,776	0,76
460,23	0,76
460,685	0,76
461,139	0,76
461,593	0,76
462,048	0,76
462,502	0,76
462,957	0,76
463,411	0,76
463,865	0,77
464,319	0,77
464,774	0,77
465,228	0,77
465,682	0,77
466,136	0,77
466,59	0,77
467,044	0,77
467,499	0,77
467,953	0,77
468,407	0,77
468,861	0,77
469,315	0,77
469,768	0,77
470,222	0,78
470,676	0,78
471,13	0,78
471,584	0,78
472,038	0,78
472,491	0,78
472,945	0,78
473,399	0,78
473,852	0,78
474,306	0,78
474,76	0,78
475,213	0,78
475,667	0,79
476,12	0,79
476,574	0,79
477,027	0,79
477,481	0,79
477,934	0,79
478,388	0,79
478,841	0,8
479,294	0,8
479,748	0,8
480,201	0,8
480,654	0,8
481,107	0,8
481,561	0,81
482,014	0,81
482,467	0,81
482,92	0,81
483,373	0,81
483,826	0,81
484,279	0,82
484,732	0,82
485,185	0,82
485,638	0,82
486,091	0,82
486,544	0,83
486,997	0,83
487,449	0,83
487,902	0,83
488,355	0,83
488,808	0,84
489,26	0,84
489,713	0,84
490,166	0,84
490,618	0,85
491,071	0,85
491,523	0,85
491,976	0,85
492,429	0,86
492,881	0,86
493,333	0,86
493,786	0,87
494,238	0,87
494,691	0,87
495,143	0,88
495,595	0,88
496,048	0,88
496,5	0,89
496,952	0,89
497,404	0,89
497,856	0,89
498,309	0,9
498,761	0,9
499,213	0,91
499,665	0,91
500,117	0,91
500,569	0,92
501,021	0,92
501,473	0,92
501,925	0,93
502,377	0,93
502,828	0,94
503,28	0,94
503,732	0,94
504,184	0,95
504,636	0,95
505,087	0,95
505,539	0,96
505,991	0,96
506,442	0,97
506,894	0,97
507,345	0,97
507,797	0,98
508,249	0,98
508,7	0,98
509,151	0,99
509,603	0,99
510,054	0,99
510,506	1
510,957	1
511,408	1
511,86	1,01
512,311	1,01
512,762	1,01
513,213	1,02
513,665	1,02
514,116	1,02
514,567	1,03
515,018	1,03
515,469	1,03
515,92	1,04
516,371	1,04
516,822	1,04
517,273	1,05
517,724	1,05
518,175	1,05
518,626	1,05
519,076	1,06
519,527	1,06
519,978	1,06
520,429	1,06
520,88	1,06
521,33	1,07
521,781	1,07
522,232	1,07
522,682	1,07
523,133	1,07
523,583	1,08
524,034	1,08
524,484	1,08
524,935	1,08
525,385	1,08
525,836	1,08
526,286	1,08
526,736	1,08
527,187	1,08
527,637	1,08
528,087	1,08
528,538	1,08
528,988	1,08
529,438	1,08
529,888	1,07
530,338	1,07
530,788	1,07
531,238	1,07
531,688	1,07
532,139	1,07
532,589	1,07
533,038	1,06
533,488	1,06
533,938	1,06
534,388	1,06
534,838	1,06
535,288	1,05
535,738	1,05
536,187	1,05
536,637	1,04
537,087	1,04
537,537	1,04
537,986	1,03
538,436	1,03
538,885	1,03
539,335	1,02
539,785	1,02
540,234	1,01
540,684	1,01
541,133	1
541,582	1
542,032	0,99
542,481	0,99
542,931	0,99
543,38	0,98
543,829	0,97
544,278	0,97
544,728	0,97
545,177	0,96
545,626	0,96
546,075	0,96
546,524	0,95
546,973	0,95
547,422	0,94
547,871	0,94
548,32	0,94
548,769	0,94
549,218	0,93
549,667	0,93
550,116	0,93
550,565	0,92
551,014	0,92
551,463	0,91
551,911	0,91
552,36	0,91
552,809	0,9
553,258	0,9
553,706	0,89
554,155	0,89
554,603	0,89
555,052	0,88
555,501	0,88
555,949	0,87
556,398	0,87
556,846	0,87
557,294	0,86
557,743	0,86
558,191	0,85
558,64	0,85
559,088	0,84
559,536	0,84
559,985	0,83
560,433	0,83
560,881	0,82
561,329	0,82
561,777	0,82
562,225	0,81
562,674	0,81
563,122	0,81
563,57	0,8
564,018	0,8
564,466	0,79
564,914	0,79
565,362	0,79
565,809	0,78
566,257	0,78
566,705	0,77
567,153	0,77
567,601	0,77
568,048	0,76
568,496	0,76
568,944	0,76
569,392	0,75
569,839	0,75
570,287	0,75
570,734	0,74
571,182	0,74
571,63	0,74
572,077	0,73
572,525	0,73
572,972	0,73
573,419	0,72
573,867	0,72
574,314	0,72
574,761	0,71
575,209	0,71
575,656	0,71
576,103	0,7
576,551	0,7
576,998	0,7
577,445	0,7
577,892	0,69
578,339	0,69
578,786	0,69
579,233	0,68
579,68	0,68
580,127	0,68
580,574	0,68
581,021	0,67
581,468	0,67
581,915	0,67
582,362	0,67
582,809	0,66
583,255	0,66
583,702	0,66
584,149	0,66
584,596	0,66
585,042	0,65
585,489	0,65
585,936	0,65
586,382	0,65
586,829	0,65
587,275	0,64
587,722	0,64
588,168	0,64
588,615	0,64
589,061	0,63
589,508	0,63
589,954	0,63
590,4	0,63
590,847	0,63
591,293	0,62
591,739	0,62
592,185	0,62
592,632	0,62
593,078	0,62
593,524	0,62
593,97	0,62
594,416	0,62
594,862	0,61
595,308	0,61
595,754	0,61
596,2	0,61
596,646	0,61
597,092	0,61
597,538	0,6
597,984	0,6
598,43	0,6
598,876	0,6
599,321	0,6
599,767	0,6
600,213	0,6
600,659	0,6
601,104	0,6
601,55	0,59
601,995	0,59
602,441	0,59
602,887	0,59
603,332	0,59
603,778	0,59
604,223	0,59
604,668	0,59
605,114	0,58
605,559	0,58
606,005	0,58
606,45	0,58
606,895	0,58
607,341	0,58
607,786	0,58
608,231	0,58
608,676	0,57
609,121	0,57
609,566	0,56
610,012	0,55
610,457	0,55
610,902	0,55
611,347	0,55
611,792	0,54
612,237	0,54
612,682	0,54
613,127	0,54
613,571	0,54
614,016	0,55
614,461	0,55
614,906	0,55
615,351	0,55
615,795	0,55
616,24	0,55
616,685	0,55
617,129	0,55
617,574	0,55
618,019	0,55
618,463	0,55
618,908	0,55
619,352	0,55
619,797	0,55
620,241	0,55
620,686	0,55
621,13	0,55
621,574	0,55
622,019	0,55
622,463	0,55
622,907	0,54
623,352	0,54
623,796	0,54
624,24	0,54
624,684	0,54
625,128	0,54
625,572	0,54
626,016	0,54
626,461	0,54
626,905	0,54
627,349	0,54
627,793	0,54
628,236	0,54
628,68	0,54
629,124	0,54
629,568	0,54
630,012	0,54
630,456	0,54
630,9	0,54
631,343	0,54
631,787	0,54
632,231	0,54
632,674	0,54
633,118	0,54
633,562	0,54
634,005	0,54
634,449	0,54
634,892	0,54
635,336	0,54
635,779	0,54
636,223	0,54
636,666	0,54
637,109	0,54
637,553	0,54
637,996	0,54
638,439	0,53
638,883	0,53
639,326	0,53
639,769	0,53
640,212	0,53
640,655	0,53
641,099	0,53
641,542	0,53
641,985	0,53
642,428	0,53
642,871	0,53
643,314	0,53
643,757	0,52
644,2	0,52
644,643	0,52
645,085	0,52
645,528	0,52
645,971	0,52
646,414	0,52
646,857	0,52
647,299	0,52
647,742	0,52
648,185	0,52
648,627	0,52
649,07	0,52
649,513	0,52
649,955	0,52
650,398	0,52
650,84	0,52
651,283	0,52
651,725	0,52
652,168	0,52
652,61	0,52
653,052	0,52
653,495	0,52
653,937	0,44
654,379	0,38
654,821	0,39
655,264	0,39
655,706	0,39
656,148	0,39
656,59	0,39
657,032	0,39
657,474	0,39
657,916	0,39
658,358	0,38
658,8	0,44
659,242	0,52
659,684	0,52
660,126	0,52
660,568	0,52
661,01	0,52
661,452	0,52
661,894	0,52
662,335	0,52
662,777	0,51
663,219	0,51
663,661	0,51
664,102	0,51
664,544	0,51
664,985	0,51
665,427	0,51
665,869	0,51
666,31	0,51
666,752	0,51
667,193	0,51
667,634	0,51
668,076	0,51
668,517	0,51
668,959	0,51
669,4	0,51
669,841	0,51
670,282	0,51
670,724	0,52
671,165	0,51
671,606	0,51
672,047	0,51
672,488	0,51
672,929	0,51
673,37	0,51
673,811	0,51
674,252	0,51
674,693	0,51
675,134	0,51
675,575	0,5
676,016	0,5
676,457	0,5
676,898	0,5
677,339	0,5
677,78	0,5
678,22	0,5
678,661	0,5
679,102	0,5
679,542	0,5
679,983	0,5
680,424	0,5
680,864	0,5
681,305	0,5
681,745	0,5
682,186	0,5
682,626	0,5
683,067	0,5
683,507	0,5
683,948	0,5
684,388	0,5
684,828	0,5
685,269	0,5
685,709	0,5
686,149	0,5
686,589	0,5
687,029	0,5
687,47	0,5
687,91	0,5
688,35	0,5
688,79	0,5
689,23	0,5
689,67	0,5
690,11	0,5
690,55	0,5
690,99	0,5
691,43	0,5
691,87	0,49
692,31	0,49
692,749	0,49
693,189	0,49
693,629	0,49
694,069	0,49
694,508	0,49
694,948	0,49
695,388	0,49
695,827	0,49
696,267	0,49
696,706	0,49
697,146	0,49
697,586	0,49
698,025	0,49
698,464	0,49
698,904	0,49
699,343	0,49
699,783	0,49
700,222	0,49
700,661	0,49
701,101	0,49
701,54	0,49
701,979	0,5
702,418	0,5
702,857	0,5
703,297	0,5
703,736	0,5
704,175	0,49
704,614	0,49
705,053	0,49
705,492	0,49
705,931	0,49
706,37	0,49
706,809	0,49
707,248	0,49
707,687	0,49
708,125	0,49
708,564	0,49
709,003	0,49
709,442	0,49
709,88	0,49
710,319	0,49
710,758	0,49
711,196	0,48
711,635	0,48
712,074	0,48
712,512	0,48
712,951	0,48
713,389	0,48
713,828	0,48
714,266	0,48
714,705	0,48
715,143	0,48
715,581	0,48
716,02	0,48
716,458	0,48
716,896	0,48
717,334	0,48
717,773	0,48
718,211	0,48
718,649	0,48
719,087	0,48
719,525	0,48
719,963	0,48
720,401	0,48
720,839	0,48
721,277	0,48
721,715	0,48
722,153	0,48
722,591	0,48
723,029	0,48
723,467	0,48
723,905	0,48
724,342	0,48
724,78	0,48
725,218	0,48
725,656	0,48
726,093	0,48
726,531	0,48
726,969	0,48
727,406	0,48
727,844	0,48
728,281	0,48
728,719	0,48
729,156	0,48
729,594	0,48
730,031	0,48
730,469	0,48
730,906	0,48
731,343	0,48
731,781	0,48
732,218	0,47
732,655	0,47
733,092	0,47
733,53	0,47
733,967	0,47
734,404	0,47
734,841	0,47
735,278	0,47
735,715	0,47
736,152	0,47
736,589	0,46
737,026	0,46
737,463	0,46
737,9	0,46
738,337	0,46
738,774	0,46
739,211	0,46
739,647	0,46
740,084	0,46
740,521	0,46
740,958	0,46
741,394	0,46
741,831	0,46
742,268	0,46
742,704	0,46
743,141	0,46
743,577	0,46
744,014	0,46
744,45	0,46
744,887	0,46
745,323	0,46
745,76	0,46
746,196	0,46
746,632	0,46
747,069	0,45
747,505	0,45
747,941	0,45
748,378	0,45
748,814	0,45
749,25	0,45
749,686	0,45
750,122	0,46
750,558	0,46
750,994	0,46
751,43	0,46
751,866	0,46
752,302	0,46
752,738	0,46
753,174	0,46
753,61	0,46
754,046	0,46
754,482	0,46
754,918	0,46
755,354	0,46
755,789	0,46
756,225	0,46
756,661	0,46
757,096	0,46
757,532	0,46
757,968	0,45
758,403	0,45
758,839	0,45
759,274	0,45
759,71	0,44
760,145	0,44
760,581	0,43
761,016	0,42
761,452	0,42
761,887	0,42
762,322	0,41
762,758	0,41
763,193	0,4
763,628	0,4
764,063	0,39
764,499	0,38
764,934	0,37
765,369	0,37
765,804	0,36
766,239	0,35
766,674	0,34
767,109	0,33
767,544	0,33
767,979	0,32
768,414	0,3
768,849	0,3
769,284	0,29
769,719	0,28
770,154	0,27
770,588	0,26
771,023	0,25
771,458	0,24
771,893	0,23
772,327	0,21
772,762	0,2
773,197	0,19
773,631	0,18
774,066	0,18
774,5	0,16
774,935	0,15
775,369	0,14
775,804	0,13
776,238	0,12
776,673	0,11
777,107	0,1
777,541	0,09
777,976	0,08
778,41	0,07
778,844	0,05
779,279	0,05
779,713	0,04
780,147	0,03
780,581	0,02
781,015	0,01
781,449	0,01
781,883	-0
782,317	-0,02
782,751	-0,03
783,185	-0,03
783,619	-0,04
784,053	-0,05
784,487	-0,06
784,921	-0,06
785,355	-0,07
785,789	-0,08
786,223	-0,09
786,656	-0,1
787,09	-0,11
787,524	-0,12
787,957	-0,14
788,391	-0,15
788,825	-0,17
789,258	-0,18
789,692	-0,19
790,125	-0,21
790,559	-0,23
790,992	-0,25
791,426	-0,28
791,859	-0,29
792,293	-0,32
792,726	-0,33
793,159	-0,36
793,593	-0,37
794,026	-0,4
794,459	-0,42
794,892	-0,45
795,326	-0,48
795,759	-0,52
796,192	-0,56
796,625	-0,61
797,058	-0,63
797,491	-0,68
797,924	-0,72
798,357	-0,76
798,79	-0,81
799,223	-0,85
799,656	-0,9
800,089	-0,95
800,522	-1
800,955	-1,04
801,387	-1,1
801,82	-1,15
802,253	-1,22
802,686	-1,3
803,118	-1,35
803,551	-1,41
803,984	-1,45
804,416	-1,49
804,849	-1,52
805,281	-1,65
805,714	-2,01
806,146	-2,45
806,579	-2,71
807,011	-2,87
807,444	-2,97
807,876	-3,06
808,308	-3,09
808,741	-3,12
809,173	-3,18
809,605	-3,2
810,037	-3,27
810,47	-3,19
810,902	-3
811,334	-2,85
811,766	-2,7
812,198	-2,48
812,63	-2,05
813,062	-1,81
813,494	-1,71
813,926	-1,62
814,358	-1,57
814,79	-1,48
815,222	-1,42
815,654	-1,37
816,086	-1,31
816,518	-1,25
816,949	-1,2
817,381	-1,16
817,813	-1,14
818,245	-1,1
818,676	-1,06
819,108	-1,02
819,54	-1,01
819,971	-0,99
820,403	-0,94
820,834	-0,93
821,266	-0,88
821,697	-0,86
822,129	-0,85
822,56	-0,82
822,991	-0,79
823,423	-0,76
823,854	-0,75
824,286	-0,72
824,717	-0,71
825,148	-0,69
825,579	-0,68
826,01	-0,67
826,442	-0,65
826,873	-0,63
827,304	-0,6
827,735	-0,59
828,166	-0,59
828,597	-0,59
829,028	-0,59
829,459	-0,59
829,89	-0,6
830,321	-0,55
830,752	-0,56
831,183	-0,56
831,613	-0,55
832,044	-0,55
832,475	-0,55
832,906	-0,56
833,336	-0,56
833,767	-0,57
834,198	-0,56
834,628	-0,54
835,059	-0,57
835,49	-0,58
835,92	-0,54
836,351	-0,55
836,781	-0,55
837,212	-0,56
837,642	-0,56
838,072	-0,54
838,503	-0,55
838,933	-0,52
839,364	-0,53
839,794	-0,51
840,224	-0,5
840,654	-0,55
841,085	-0,54
841,515	-0,52
841,945	-0,52
842,375	-0,48
842,805	-0,47
843,235	-0,45
843,665	-0,46
844,095	-0,44
844,525	-0,46
844,955	-0,47
845,385	-0,45
845,815	-0,44
846,245	-0,46
846,675	-0,47
847,105	-0,49
847,534	-0,49
847,964	-0,48
848,394	-0,47
848,824	-0,5
849,253	-0,5
849,683	-0,5
850,112	-0,5
850,542	-0,53
850,972	-0,53
851,401	-0,5
851,831	-0,48
852,26	-0,49
852,69	-0,52
853,119	-0,51
853,548	-0,51
853,978	-0,51
854,407	-0,49
854,836	-0,49
855,266	-0,49
855,695	-0,51
856,124	-0,52
856,553	-0,53
856,983	-0,55
857,412	-0,55
857,841	-0,56
858,27	-0,57
858,699	-0,58
859,128	-0,62
859,557	-0,64
859,986	-0,65
860,415	-0,62
860,844	-0,6
861,273	-0,61
861,702	-0,61
862,13	-0,59
862,559	-0,62
862,988	-0,59
863,417	-0,57
863,845	-0,56
864,274	-0,56
864,703	-0,55
865,131	-0,56
865,56	-0,57
865,989	-0,59
866,417	-0,57
866,846	-0,57
867,274	-0,56
867,703	-0,58
868,131	-0,6
868,559	-0,59
868,988	-0,62
869,416	-0,6
869,844	-0,62
870,273	-0,64
870,701	-0,61
871,129	-0,64
871,557	-0,66
871,986	-0,66
872,414	-0,67
872,842	-0,64
873,27	-0,62
873,698	-0,59
874,126	-0,63
874,554	-0,61
874,982	-0,61
875,41	-0,64
875,838	-0,59
876,266	-0,57
876,694	-0,58
877,122	-0,57
877,549	-0,63
877,977	-0,6
878,405	-0,63
878,833	-0,61
879,26	-0,59
879,688	-0,59
880,116	-0,58
880,543	-0,57
880,971	-0,55
881,399	-0,58
881,826	-0,59
882,254	-0,57
882,681	-0,6
883,109	-0,56
883,536	-0,57
883,963	-0,58
884,391	-0,55
884,818	-0,53
885,245	-0,56
885,673	-0,58
886,1	-0,55
886,527	-0,54
886,954	-0,51
887,381	-0,52
887,809	-0,53
888,236	-0,54
888,663	-0,55
889,09	-0,6
889,517	-0,63
889,944	-0,62
890,371	-0,61
890,798	-0,63
891,225	-0,63
891,652	-0,65
892,078	-0,63
892,505	-0,66
892,932	-0,61
893,359	-0,62
893,786	-0,62
894,212	-0,58
894,639	-0,59
895,066	-0,61
895,492	-0,56
895,919	-0,55
896,346	-0,54
896,772	-0,54
897,199	-0,51
897,625	-0,54
898,052	-0,5
898,478	-0,49
898,904	-0,5
899,331	-0,5
899,757	-0,52
900,183	-0,54
900,61	-0,52
901,036	-0,53
901,462	-0,53
901,888	-0,53
902,315	-0,51
902,741	-0,57
903,167	-0,56
903,593	-0,59
904,019	-0,57
904,445	-0,54
904,871	-0,56
905,297	-0,58
905,723	-0,58
906,149	-0,57
906,575	-0,57
907,001	-0,57
907,427	-0,54
907,852	-0,54
908,278	-0,54
908,704	-0,52
909,13	-0,51
909,555	-0,51
909,981	-0,5
910,407	-0,5
910,832	-0,5
911,258	-0,51
911,684	-0,51
912,109	-0,51
912,535	-0,53
912,96	-0,49
913,386	-0,53
913,811	-0,53
914,236	-0,56
914,662	-0,54
915,087	-0,57
915,512	-0,57
915,938	-0,58
916,363	-0,57
916,788	-0,58
917,213	-0,56
917,639	-0,61
918,064	-0,58
918,489	-0,58
918,914	-0,58
919,339	-0,59
919,764	-0,56
920,189	-0,56
920,614	-0,59
921,039	-0,59
921,464	-0,56
921,889	-0,58
922,314	-0,59
922,738	-0,62
923,163	-0,63
923,588	-0,63
924,013	-0,62
924,437	-0,62
924,862	-0,63
925,287	-0,59
925,711	-0,61
926,136	-0,63
926,561	-0,61
926,985	-0,6
927,41	-0,57
927,834	-0,55
928,259	-0,52
928,683	-0,5
929,108	-0,48
929,532	-0,49
929,956	-0,48
930,381	-0,46
930,805	-0,46
931,229	-0,44
931,653	-0,43
932,078	-0,43
932,502	-0,44
932,926	-0,45
933,35	-0,45
933,774	-0,45
934,198	-0,43
934,622	-0,42
935,046	-0,43
935,47	-0,43
935,894	-0,42
936,318	-0,42
936,742	-0,43
937,166	-0,44
937,59	-0,44
938,014	-0,46
938,437	-0,47
938,861	-0,5
939,285	-0,5
939,709	-0,49
940,132	-0,5
940,556	-0,51
940,98	-0,51
941,403	-0,48
941,827	-0,49
942,25	-0,5
942,674	-0,48
943,097	-0,48
943,521	-0,47
943,944	-0,48
944,368	-0,47
944,791	-0,46
945,214	-0,49
945,638	-0,49
946,061	-0,52
946,484	-0,53
946,907	-0,51
947,331	-0,51
947,754	-0,55
948,177	-0,52
948,6	-0,52
949,023	-0,52
949,446	-0,52
949,869	-0,49
950,292	-0,48
950,715	-0,45
951,138	-0,44
951,561	-0,42
951,984	-0,42
952,407	-0,41
952,83	-0,4
953,252	-0,36
953,675	-0,35
954,098	-0,35
954,521	-0,34
954,943	-0,33
955,366	-0,32
955,789	-0,3
956,211	-0,32
956,634	-0,32
957,056	-0,3
957,479	-0,31
957,902	-0,33
958,324	-0,34
958,746	-0,32
959,169	-0,33
959,591	-0,34
960,014	-0,36
960,436	-0,35
960,858	-0,35
961,281	-0,35
961,703	-0,36
962,125	-0,36
962,547	-0,33
962,969	-0,34
963,391	-0,35
963,814	-0,36
964,236	-0,36
964,658	-0,33
965,08	-0,34
965,502	-0,33
965,924	-0,3
966,346	-0,31
966,768	-0,3
967,189	-0,32
967,611	-0,32
968,033	-0,32
968,455	-0,3
968,877	-0,31
969,298	-0,32
969,72	-0,33
970,142	-0,32
970,563	-0,33
970,985	-0,31
971,407	-0,3
971,828	-0,28
972,25	-0,27
972,671	-0,26
973,093	-0,25
973,514	-0,24
973,936	-0,21
974,357	-0,2
974,778	-0,2
975,2	-0,19
975,621	-0,19
976,042	-0,18
976,464	-0,18
976,885	-0,17
977,306	-0,16
977,727	-0,15
978,148	-0,14
978,57	-0,12
978,991	-0,11
979,412	-0,1
979,833	-0,1
980,254	-0,09
980,675	-0,09
981,096	-0,07
981,517	-0,06
981,937	-0,05
982,358	-0,03
982,779	-0,02
983,2	-0,02
983,621	-0,01
984,042	0,01
984,462	0,02
984,883	0,04
985,304	0,06
985,724	0,07
986,145	0,08
986,565	0,1
986,986	0,11
987,407	0,11
987,827	0,13
988,248	0,14
988,668	0,15
989,088	0,16
989,509	0,18
989,929	0,18
990,35	0,19
990,77	0,21
991,19	0,22
991,61	0,23
992,031	0,24
992,451	0,26
992,871	0,26
993,291	0,28
993,711	0,29
994,131	0,3
994,551	0,31
994,971	0,32
995,391	0,32
995,811	0,33
996,231	0,34
996,651	0,34
997,071	0,35
997,491	0,35
997,911	0,36
998,331	0,37
998,75	0,37
999,17	0,38
999,59	0,38
1000,009	0,39
1000,429	0,4
1000,849	0,4
1001,268	0,41
1001,688	0,41
1002,107	0,41
1002,527	0,42
1002,946	0,42
1003,366	0,43
1003,785	0,43
1004,205	0,43
1004,624	0,44
1005,044	0,44
1005,463	0,44
1005,882	0,44
1006,301	0,45
1006,721	0,45
1007,14	0,45
1007,559	0,45
1007,978	0,45
1008,397	0,45
1008,816	0,45
1009,235	0,45
1009,655	0,45
1010,074	0,45
1010,492	0,45
1010,911	0,45
1011,33	0,45
1011,749	0,45
1012,168	0,45
1012,587	0,45
1013,006	0,45
1013,425	0,45
1013,843	0,45
1014,262	0,45
1014,681	0,44
1015,099	0,44
1015,518	0,44
1015,937	0,44
1016,355	0,44
1016,774	0,44
1017,192	0,44
1017,611	0,44
1018,029	0,44
1018,448	0,44
1018,866	0,44
1019,285	0,44
1019,703	0,44
1020,121	0,44
1020,54	0,44
1020,958	0,44
1021,376	0,44
1021,794	0,44
1022,213	0,44
1022,631	0,44
1023,049	0,44
1023,467	0,44
1023,885	0,43
1024,303	0,43
1024,721	0,43
1025,139	0,43
1025,557	0,43
1025,975	0,43
1026,393	0,43
1026,811	0,43
1027,229	0,43
1027,647	0,43
1028,065	0,42
1028,482	0,42
1028,9	0,42
1029,318	0,42
1029,735	0,42
1030,153	0,42
1030,571	0,42
1030,988	0,42
1031,406	0,42
1031,823	0,42
1032,241	0,42
1032,659	0,43
1033,076	0,43
1033,493	0,43
1033,911	0,43
1034,328	0,43
1034,746	0,43
1035,163	0,43
1035,58	0,43
1035,997	0,43
1036,415	0,43
1036,832	0,43
1037,249	0,43
1037,666	0,43
1038,083	0,43
1038,501	0,43
1038,918	0,43
1039,335	0,43
1039,752	0,43
1040,169	0,43
1040,586	0,43
1041,003	0,43
1041,419	0,43
1041,836	0,43
1042,253	0,43
1042,67	0,43
1043,087	0,43
1043,504	0,43
1043,92	0,43
1044,337	0,43
1044,754	0,43
1045,17	0,43
1045,587	0,43
1046,004	0,43
1046,42	0,43
1046,837	0,43
1047,253	0,43
1047,67	0,43
1048,086	0,43
1048,503	0,43
1048,919	0,43
1049,335	0,43
1049,752	0,43
1050,168	0,43
1050,584	0,43
1051,001	0,43
1051,417	0,43
1051,833	0,43
1052,249	0,43
1052,665	0,43
1053,081	0,43
1053,497	0,43
1053,914	0,43
1054,33	0,43
1054,746	0,43
1055,162	0,44
1055,578	0,44
1055,993	0,44
1056,409	0,44
1056,825	0,44
1057,241	0,44
1057,657	0,44
1058,073	0,44
1058,488	0,44
1058,904	0,44
1059,32	0,44
1059,736	0,44
1060,151	0,44
1060,567	0,44
1060,982	0,44
1061,398	0,44
1061,813	0,43
1062,229	0,43
1062,644	0,43
1063,06	0,43
1063,475	0,43
1063,891	0,43
1064,306	0,43
1064,721	0,43
1065,137	0,43
1065,552	0,43
1065,967	0,43
1066,382	0,43
1066,798	0,43
1067,213	0,43
1067,628	0,43
1068,043	0,43
1068,458	0,43
1068,873	0,43
1069,288	0,43
1069,703	0,43
1070,118	0,43
1070,533	0,43
1070,948	0,43
1071,363	0,43
1071,778	0,43
1072,193	0,43
1072,607	0,43
1073,022	0,43
1073,437	0,43
1073,852	0,43
1074,266	0,43
1074,681	0,43
1075,096	0,43
1075,51	0,43
1075,925	0,43
1076,339	0,43
1076,754	0,43
1077,168	0,43
1077,583	0,43
1077,997	0,43
1078,412	0,43
1078,826	0,43
1079,24	0,43
1079,655	0,42
1080,069	0,42
1080,483	0,42
1080,897	0,42
1081,312	0,42
1081,726	0,42
1082,14	0,42
1082,554	0,42
1082,968	0,42
1083,382	0,42
1083,796	0,42
1084,21	0,42
1084,624	0,42
1085,038	0,41
1085,452	0,41
1085,866	0,41
1086,28	0,41
1086,694	0,41
1087,108	0,41
1087,521	0,4
1087,935	0,4
1088,349	0,4
1088,763	0,4
1089,176	0,39
1089,59	0,39
1090,004	0,39
1090,417	0,38
1090,831	0,38
1091,244	0,38
1091,658	0,38
1092,071	0,37
1092,485	0,37
1092,898	0,36
1093,312	0,36
1093,725	0,36
1094,138	0,36
1094,552	0,36
1094,965	0,36
1095,378	0,35
1095,791	0,35
1096,205	0,35
1096,618	0,35
1097,031	0,35
1097,444	0,34
1097,857	0,34
1098,27	0,34
1098,683	0,34
1099,096	0,33
1099,509	0,33
1099,922	0,32
1100,335	0,32
1100,748	0,31
1101,161	0,31
1101,574	0,3
1101,986	0,3
1102,399	0,3
1102,812	0,29
1103,225	0,29
1103,637	0,29
1104,05	0,28
1104,463	0,28
1104,875	0,28
1105,288	0,28
1105,7	0,27
1106,113	0,27
1106,525	0,27
1106,938	0,26
1107,35	0,26
1107,763	0,26
1108,175	0,26
1108,588	0,25
1109	0,25
1109,412	0,25
1109,824	0,25
1110,237	0,25
1110,649	0,25
1111,061	0,24
