Data from 18C-808nm-8A-cont_Absorbance__317__01746.txt Node

Date: Mon Jul 17 17:29:48 CEST 2023
User: Laser008
Spectrometer: MAYP115816
Trigger mode: 0
Integration Time (sec): 2,500000E-1
Scans to average: 10
Electric dark correction enabled: true
Nonlinearity correction enabled: true
Boxcar width: 5
XAxis mode: Wavelengths
Number of Pixels in Spectrum: 2068
>>>>>Begin Spectral Data<<<<<
198,914	-0,7
199,384	-0,49
199,855	-0,35
200,325	-0,27
200,796	-0,23
201,266	-0,17
201,737	-0,15
202,207	-0,14
202,677	-0,14
203,147	-0,11
203,618	-0,08
204,088	-0,06
204,558	-0,04
205,028	-0,04
205,498	-0,05
205,968	-0,04
206,439	-0,07
206,909	-0,07
207,379	-0,08
207,849	-0,08
208,319	-0,09
208,789	-0,1
209,258	-0,1
209,728	-0,12
210,198	-0,11
210,668	-0,11
211,138	-0,11
211,608	-0,11
212,077	-0,1
212,547	-0,1
213,017	-0,11
213,486	-0,1
213,956	-0,12
214,426	-0,12
214,895	-0,12
215,365	-0,13
215,834	-0,13
216,304	-0,15
216,773	-0,14
217,243	-0,15
217,712	-0,16
218,181	-0,16
218,651	-0,16
219,12	-0,15
219,589	-0,15
220,058	-0,14
220,528	-0,15
220,997	-0,15
221,466	-0,16
221,935	-0,17
222,404	-0,16
222,873	-0,14
223,342	-0,15
223,812	-0,15
224,281	-0,15
224,749	-0,16
225,218	-0,17
225,687	-0,18
226,156	-0,17
226,625	-0,14
227,094	-0,14
227,563	-0,14
228,031	-0,16
228,5	-0,16
228,969	-0,16
229,438	-0,16
229,906	-0,14
230,375	-0,14
230,844	-0,13
231,312	-0,13
231,781	-0,14
232,249	-0,13
232,718	-0,14
233,186	-0,12
233,655	-0,12
234,123	-0,12
234,591	-0,12
235,06	-0,13
235,528	-0,13
235,996	-0,13
236,465	-0,13
236,933	-0,13
237,401	-0,14
237,869	-0,13
238,337	-0,13
238,805	-0,12
239,274	-0,11
239,742	-0,11
240,21	-0,11
240,678	-0,1
241,146	-0,09
241,614	-0,1
242,081	-0,09
242,549	-0,09
243,017	-0,1
243,485	-0,1
243,953	-0,1
244,421	-0,09
244,888	-0,09
245,356	-0,08
245,824	-0,08
246,291	-0,08
246,759	-0,09
247,227	-0,09
247,694	-0,08
248,162	-0,07
248,629	-0,07
249,097	-0,08
249,564	-0,08
250,032	-0,1
250,499	-0,1
250,967	-0,1
251,434	-0,11
251,901	-0,1
252,369	-0,1
252,836	-0,1
253,303	-0,12
253,77	-0,14
254,237	-0,13
254,705	-0,13
255,172	-0,12
255,639	-0,13
256,106	-0,15
256,573	-0,14
257,04	-0,14
257,507	-0,15
257,974	-0,16
258,441	-0,14
258,908	-0,14
259,375	-0,15
259,841	-0,15
260,308	-0,15
260,775	-0,16
261,242	-0,14
261,709	-0,16
262,175	-0,17
262,642	-0,16
263,109	-0,16
263,575	-0,17
264,042	-0,16
264,508	-0,15
264,975	-0,17
265,441	-0,18
265,908	-0,18
266,374	-0,17
266,841	-0,18
267,307	-0,17
267,773	-0,16
268,24	-0,17
268,706	-0,17
269,172	-0,18
269,639	-0,19
270,105	-0,17
270,571	-0,17
271,037	-0,17
271,503	-0,18
271,969	-0,17
272,435	-0,17
272,902	-0,19
273,368	-0,2
273,834	-0,19
274,3	-0,19
274,765	-0,2
275,231	-0,2
275,697	-0,2
276,163	-0,2
276,629	-0,19
277,095	-0,21
277,56	-0,2
278,026	-0,2
278,492	-0,18
278,958	-0,19
279,423	-0,18
279,889	-0,18
280,354	-0,19
280,82	-0,18
281,286	-0,19
281,751	-0,19
282,217	-0,18
282,682	-0,18
283,147	-0,19
283,613	-0,2
284,078	-0,19
284,544	-0,21
285,009	-0,22
285,474	-0,21
285,939	-0,22
286,405	-0,21
286,87	-0,21
287,335	-0,21
287,8	-0,2
288,265	-0,19
288,73	-0,2
289,195	-0,22
289,66	-0,21
290,125	-0,2
290,59	-0,2
291,055	-0,19
291,52	-0,19
291,985	-0,2
292,45	-0,22
292,915	-0,21
293,38	-0,21
293,844	-0,19
294,309	-0,18
294,774	-0,17
295,239	-0,19
295,703	-0,2
296,168	-0,19
296,632	-0,19
297,097	-0,17
297,562	-0,16
298,026	-0,17
298,491	-0,17
298,955	-0,17
299,419	-0,16
299,884	-0,17
300,348	-0,15
300,813	-0,14
301,277	-0,15
301,741	-0,15
302,205	-0,15
302,67	-0,14
303,134	-0,13
303,598	-0,14
304,062	-0,13
304,526	-0,12
304,99	-0,13
305,454	-0,12
305,919	-0,12
306,383	-0,11
306,847	-0,1
307,31	-0,11
307,774	-0,12
308,238	-0,12
308,702	-0,12
309,166	-0,14
309,63	-0,14
310,094	-0,12
310,557	-0,11
311,021	-0,11
311,485	-0,12
311,948	-0,11
312,412	-0,11
312,876	-0,11
313,339	-0,11
313,803	-0,11
314,266	-0,1
314,73	-0,11
315,193	-0,11
315,657	-0,11
316,12	-0,1
316,584	-0,09
317,047	-0,09
317,51	-0,07
317,973	-0,07
318,437	-0,06
318,9	-0,04
319,363	-0,04
319,826	-0,03
320,29	-0,03
320,753	-0,03
321,216	-0,03
321,679	-0,03
322,142	-0,02
322,605	-0,04
323,068	-0,03
323,531	-0,04
323,994	-0,02
324,457	-0,02
324,92	-0,01
325,382	-0,01
325,845	-0,01
326,308	-0
326,771	0
327,233	0,01
327,696	0,03
328,159	0,03
328,622	0,05
329,084	0,03
329,547	0,03
330,009	0,03
330,472	0,05
330,934	0,05
331,397	0,06
331,859	0,06
332,322	0,07
332,784	0,07
333,246	0,07
333,709	0,06
334,171	0,07
334,633	0,08
335,096	0,08
335,558	0,08
336,02	0,08
336,482	0,08
336,944	0,09
337,406	0,1
337,868	0,1
338,331	0,11
338,793	0,12
339,255	0,13
339,717	0,13
340,178	0,13
340,64	0,14
341,102	0,14
341,564	0,16
342,026	0,17
342,488	0,18
342,949	0,2
343,411	0,22
343,873	0,25
344,335	0,28
344,796	0,32
345,258	0,36
345,719	0,4
346,181	0,45
346,643	0,5
347,104	0,53
347,566	0,56
348,027	0,59
348,488	0,61
348,95	0,63
349,411	0,65
349,873	0,68
350,334	0,7
350,795	0,72
351,256	0,73
351,718	0,74
352,179	0,74
352,64	0,75
353,101	0,75
353,562	0,75
354,023	0,76
354,484	0,76
354,945	0,76
355,406	0,77
355,867	0,77
356,328	0,77
356,789	0,77
357,25	0,77
357,711	0,78
358,172	0,78
358,633	0,78
359,093	0,78
359,554	0,78
360,015	0,78
360,476	0,79
360,936	0,79
361,397	0,79
361,858	0,79
362,318	0,79
362,779	0,79
363,239	0,79
363,7	0,79
364,16	0,79
364,621	0,79
365,081	0,79
365,541	0,79
366,002	0,79
366,462	0,79
366,922	0,79
367,383	0,79
367,843	0,79
368,303	0,79
368,763	0,79
369,223	0,79
369,684	0,79
370,144	0,79
370,604	0,79
371,064	0,79
371,524	0,79
371,984	0,79
372,444	0,79
372,904	0,79
373,363	0,79
373,823	0,79
374,283	0,79
374,743	0,79
375,203	0,79
375,663	0,79
376,122	0,79
376,582	0,79
377,042	0,79
377,501	0,79
377,961	0,79
378,42	0,79
378,88	0,79
379,34	0,79
379,799	0,79
380,259	0,79
380,718	0,79
381,177	0,79
381,637	0,78
382,096	0,78
382,555	0,78
383,015	0,78
383,474	0,78
383,933	0,78
384,393	0,78
384,852	0,78
385,311	0,78
385,77	0,78
386,229	0,78
386,688	0,78
387,147	0,78
387,606	0,78
388,065	0,78
388,524	0,78
388,983	0,78
389,442	0,78
389,901	0,78
390,36	0,78
390,819	0,78
391,277	0,78
391,736	0,78
392,195	0,78
392,654	0,78
393,112	0,78
393,571	0,78
394,03	0,78
394,488	0,78
394,947	0,78
395,405	0,78
395,864	0,78
396,322	0,78
396,781	0,78
397,239	0,77
397,698	0,77
398,156	0,77
398,614	0,77
399,073	0,77
399,531	0,77
399,989	0,77
400,447	0,77
400,905	0,77
401,364	0,77
401,822	0,77
402,28	0,77
402,738	0,77
403,196	0,77
403,654	0,77
404,112	0,77
404,57	0,77
405,028	0,77
405,486	0,77
405,944	0,77
406,402	0,77
406,859	0,77
407,317	0,77
407,775	0,77
408,233	0,77
408,691	0,77
409,148	0,77
409,606	0,77
410,064	0,77
410,521	0,77
410,979	0,77
411,436	0,77
411,894	0,77
412,351	0,77
412,809	0,77
413,266	0,77
413,724	0,76
414,181	0,76
414,638	0,76
415,096	0,76
415,553	0,76
416,01	0,76
416,467	0,76
416,925	0,76
417,382	0,76
417,839	0,76
418,296	0,76
418,753	0,76
419,21	0,76
419,667	0,76
420,124	0,76
420,581	0,76
421,038	0,76
421,495	0,76
421,952	0,76
422,409	0,76
422,866	0,76
423,322	0,76
423,779	0,76
424,236	0,76
424,693	0,76
425,149	0,76
425,606	0,76
426,063	0,76
426,519	0,76
426,976	0,76
427,433	0,76
427,889	0,76
428,346	0,76
428,802	0,76
429,258	0,76
429,715	0,76
430,171	0,76
430,628	0,76
431,084	0,76
431,54	0,76
431,997	0,76
432,453	0,76
432,909	0,76
433,365	0,76
433,821	0,76
434,277	0,76
434,734	0,76
435,19	0,76
435,646	0,76
436,102	0,76
436,558	0,76
437,014	0,76
437,47	0,76
437,925	0,76
438,381	0,76
438,837	0,76
439,293	0,76
439,749	0,76
440,205	0,76
440,66	0,76
441,116	0,76
441,572	0,76
442,027	0,76
442,483	0,76
442,939	0,76
443,394	0,76
443,85	0,76
444,305	0,76
444,761	0,76
445,216	0,76
445,672	0,76
446,127	0,76
446,582	0,76
447,038	0,76
447,493	0,76
447,948	0,76
448,403	0,76
448,859	0,76
449,314	0,76
449,769	0,76
450,224	0,76
450,679	0,76
451,134	0,76
451,589	0,77
452,044	0,77
452,499	0,77
452,954	0,77
453,409	0,77
453,864	0,77
454,319	0,77
454,774	0,77
455,229	0,77
455,684	0,77
456,138	0,77
456,593	0,77
457,048	0,77
457,503	0,77
457,957	0,77
458,412	0,77
458,866	0,77
459,321	0,77
459,776	0,77
460,23	0,77
460,685	0,77
461,139	0,77
461,593	0,77
462,048	0,77
462,502	0,77
462,957	0,78
463,411	0,78
463,865	0,78
464,319	0,78
464,774	0,78
465,228	0,78
465,682	0,78
466,136	0,78
466,59	0,78
467,044	0,78
467,499	0,78
467,953	0,79
468,407	0,79
468,861	0,79
469,315	0,79
469,768	0,79
470,222	0,79
470,676	0,79
471,13	0,79
471,584	0,79
472,038	0,79
472,491	0,79
472,945	0,79
473,399	0,79
473,852	0,8
474,306	0,8
474,76	0,8
475,213	0,8
475,667	0,8
476,12	0,8
476,574	0,8
477,027	0,8
477,481	0,81
477,934	0,81
478,388	0,81
478,841	0,81
479,294	0,81
479,748	0,81
480,201	0,82
480,654	0,82
481,107	0,82
481,561	0,82
482,014	0,82
482,467	0,82
482,92	0,83
483,373	0,83
483,826	0,83
484,279	0,83
484,732	0,83
485,185	0,84
485,638	0,84
486,091	0,84
486,544	0,84
486,997	0,84
487,449	0,85
487,902	0,85
488,355	0,85
488,808	0,85
489,26	0,86
489,713	0,86
490,166	0,86
490,618	0,86
491,071	0,87
491,523	0,87
491,976	0,87
492,429	0,88
492,881	0,88
493,333	0,88
493,786	0,88
494,238	0,89
494,691	0,89
495,143	0,89
495,595	0,9
496,048	0,9
496,5	0,9
496,952	0,91
497,404	0,91
497,856	0,91
498,309	0,92
498,761	0,92
499,213	0,93
499,665	0,93
500,117	0,93
500,569	0,94
501,021	0,94
501,473	0,94
501,925	0,95
502,377	0,95
502,828	0,96
503,28	0,96
503,732	0,96
504,184	0,97
504,636	0,97
505,087	0,98
505,539	0,98
505,991	0,98
506,442	0,99
506,894	0,99
507,345	0,99
507,797	1
508,249	1
508,7	1,01
509,151	1,01
509,603	1,01
510,054	1,02
510,506	1,02
510,957	1,02
511,408	1,03
511,86	1,03
512,311	1,04
512,762	1,04
513,213	1,04
513,665	1,04
514,116	1,05
514,567	1,05
515,018	1,05
515,469	1,06
515,92	1,06
516,371	1,06
516,822	1,07
517,273	1,07
517,724	1,07
518,175	1,08
518,626	1,08
519,076	1,08
519,527	1,08
519,978	1,09
520,429	1,09
520,88	1,09
521,33	1,09
521,781	1,09
522,232	1,1
522,682	1,1
523,133	1,1
523,583	1,1
524,034	1,1
524,484	1,1
524,935	1,1
525,385	1,1
525,836	1,11
526,286	1,1
526,736	1,11
527,187	1,1
527,637	1,1
528,087	1,1
528,538	1,1
528,988	1,1
529,438	1,1
529,888	1,1
530,338	1,1
530,788	1,1
531,238	1,1
531,688	1,1
532,139	1,09
532,589	1,09
533,038	1,09
533,488	1,09
533,938	1,09
534,388	1,08
534,838	1,08
535,288	1,08
535,738	1,08
536,187	1,07
536,637	1,07
537,087	1,06
537,537	1,06
537,986	1,06
538,436	1,05
538,885	1,05
539,335	1,04
539,785	1,04
540,234	1,03
540,684	1,03
541,133	1,03
541,582	1,02
542,032	1,02
542,481	1,01
542,931	1,01
543,38	1
543,829	1
544,278	0,99
544,728	0,99
545,177	0,98
545,626	0,98
546,075	0,98
546,524	0,97
546,973	0,97
547,422	0,96
547,871	0,96
548,32	0,96
548,769	0,95
549,218	0,95
549,667	0,95
550,116	0,94
550,565	0,94
551,014	0,93
551,463	0,93
551,911	0,93
552,36	0,92
552,809	0,92
553,258	0,91
553,706	0,91
554,155	0,9
554,603	0,9
555,052	0,9
555,501	0,89
555,949	0,89
556,398	0,88
556,846	0,88
557,294	0,87
557,743	0,87
558,191	0,87
558,64	0,86
559,088	0,85
559,536	0,85
559,985	0,84
560,433	0,84
560,881	0,84
561,329	0,83
561,777	0,83
562,225	0,82
562,674	0,82
563,122	0,82
563,57	0,81
564,018	0,81
564,466	0,8
564,914	0,8
565,362	0,8
565,809	0,79
566,257	0,79
566,705	0,78
567,153	0,78
567,601	0,77
568,048	0,77
568,496	0,77
568,944	0,76
569,392	0,76
569,839	0,76
570,287	0,75
570,734	0,75
571,182	0,75
571,63	0,74
572,077	0,74
572,525	0,74
572,972	0,73
573,419	0,73
573,867	0,73
574,314	0,72
574,761	0,72
575,209	0,71
575,656	0,71
576,103	0,71
576,551	0,7
576,998	0,7
577,445	0,7
577,892	0,7
578,339	0,69
578,786	0,69
579,233	0,69
579,68	0,68
580,127	0,68
580,574	0,68
581,021	0,68
581,468	0,67
581,915	0,67
582,362	0,67
582,809	0,67
583,255	0,66
583,702	0,66
584,149	0,66
584,596	0,66
585,042	0,65
585,489	0,65
585,936	0,65
586,382	0,65
586,829	0,65
587,275	0,64
587,722	0,64
588,168	0,64
588,615	0,64
589,061	0,63
589,508	0,63
589,954	0,63
590,4	0,63
590,847	0,63
591,293	0,62
591,739	0,62
592,185	0,62
592,632	0,62
593,078	0,62
593,524	0,62
593,97	0,62
594,416	0,61
594,862	0,61
595,308	0,61
595,754	0,61
596,2	0,61
596,646	0,61
597,092	0,61
597,538	0,6
597,984	0,6
598,43	0,6
598,876	0,6
599,321	0,6
599,767	0,6
600,213	0,6
600,659	0,6
601,104	0,59
601,55	0,59
601,995	0,59
602,441	0,59
602,887	0,59
603,332	0,59
603,778	0,58
604,223	0,58
604,668	0,58
605,114	0,58
605,559	0,58
606,005	0,58
606,45	0,58
606,895	0,58
607,341	0,58
607,786	0,57
608,231	0,57
608,676	0,57
609,121	0,56
609,566	0,56
610,012	0,55
610,457	0,55
610,902	0,55
611,347	0,54
611,792	0,54
612,237	0,54
612,682	0,54
613,127	0,54
613,571	0,54
614,016	0,54
614,461	0,55
614,906	0,55
615,351	0,55
615,795	0,55
616,24	0,55
616,685	0,55
617,129	0,55
617,574	0,55
618,019	0,55
618,463	0,55
618,908	0,55
619,352	0,55
619,797	0,55
620,241	0,55
620,686	0,55
621,13	0,54
621,574	0,54
622,019	0,54
622,463	0,54
622,907	0,54
623,352	0,54
623,796	0,54
624,24	0,54
624,684	0,54
625,128	0,54
625,572	0,54
626,016	0,54
626,461	0,54
626,905	0,54
627,349	0,53
627,793	0,53
628,236	0,53
628,68	0,53
629,124	0,53
629,568	0,53
630,012	0,53
630,456	0,53
630,9	0,53
631,343	0,53
631,787	0,53
632,231	0,53
632,674	0,53
633,118	0,53
633,562	0,53
634,005	0,53
634,449	0,53
634,892	0,53
635,336	0,53
635,779	0,53
636,223	0,53
636,666	0,53
637,109	0,53
637,553	0,53
637,996	0,53
638,439	0,53
638,883	0,53
639,326	0,53
639,769	0,53
640,212	0,53
640,655	0,52
641,099	0,52
641,542	0,52
641,985	0,52
642,428	0,52
642,871	0,52
643,314	0,52
643,757	0,52
644,2	0,52
644,643	0,52
645,085	0,52
645,528	0,52
645,971	0,52
646,414	0,52
646,857	0,52
647,299	0,51
647,742	0,51
648,185	0,51
648,627	0,51
649,07	0,51
649,513	0,51
649,955	0,51
650,398	0,51
650,84	0,51
651,283	0,51
651,725	0,51
652,168	0,52
652,61	0,52
653,052	0,52
653,495	0,51
653,937	0,43
654,379	0,37
654,821	0,38
655,264	0,38
655,706	0,38
656,148	0,38
656,59	0,38
657,032	0,38
657,474	0,38
657,916	0,38
658,358	0,37
658,8	0,43
659,242	0,51
659,684	0,51
660,126	0,51
660,568	0,51
661,01	0,51
661,452	0,51
661,894	0,51
662,335	0,51
662,777	0,51
663,219	0,51
663,661	0,51
664,102	0,51
664,544	0,5
664,985	0,5
665,427	0,5
665,869	0,5
666,31	0,5
666,752	0,5
667,193	0,5
667,634	0,5
668,076	0,5
668,517	0,5
668,959	0,5
669,4	0,51
669,841	0,51
670,282	0,51
670,724	0,51
671,165	0,51
671,606	0,51
672,047	0,51
672,488	0,51
672,929	0,5
673,37	0,5
673,811	0,5
674,252	0,5
674,693	0,5
675,134	0,5
675,575	0,5
676,016	0,5
676,457	0,49
676,898	0,49
677,339	0,49
677,78	0,49
678,22	0,49
678,661	0,49
679,102	0,49
679,542	0,49
679,983	0,49
680,424	0,49
680,864	0,49
681,305	0,49
681,745	0,49
682,186	0,49
682,626	0,5
683,067	0,5
683,507	0,5
683,948	0,5
684,388	0,5
684,828	0,5
685,269	0,5
685,709	0,49
686,149	0,49
686,589	0,49
687,029	0,49
687,47	0,49
687,91	0,49
688,35	0,49
688,79	0,49
689,23	0,49
689,67	0,49
690,11	0,49
690,55	0,49
690,99	0,49
691,43	0,49
691,87	0,49
692,31	0,48
692,749	0,48
693,189	0,48
693,629	0,48
694,069	0,48
694,508	0,48
694,948	0,48
695,388	0,48
695,827	0,48
696,267	0,48
696,706	0,48
697,146	0,48
697,586	0,48
698,025	0,48
698,464	0,48
698,904	0,48
699,343	0,48
699,783	0,48
700,222	0,49
700,661	0,49
701,101	0,49
701,54	0,49
701,979	0,49
702,418	0,49
702,857	0,49
703,297	0,49
703,736	0,49
704,175	0,49
704,614	0,49
705,053	0,48
705,492	0,48
705,931	0,48
706,37	0,48
706,809	0,48
707,248	0,48
707,687	0,48
708,125	0,48
708,564	0,48
709,003	0,48
709,442	0,48
709,88	0,48
710,319	0,48
710,758	0,48
711,196	0,48
711,635	0,47
712,074	0,47
712,512	0,47
712,951	0,47
713,389	0,47
713,828	0,47
714,266	0,47
714,705	0,47
715,143	0,47
715,581	0,47
716,02	0,47
716,458	0,47
716,896	0,47
717,334	0,47
717,773	0,47
718,211	0,47
718,649	0,47
719,087	0,47
719,525	0,47
719,963	0,47
720,401	0,47
720,839	0,47
721,277	0,47
721,715	0,47
722,153	0,47
722,591	0,47
723,029	0,47
723,467	0,47
723,905	0,47
724,342	0,47
724,78	0,47
725,218	0,47
725,656	0,47
726,093	0,47
726,531	0,47
726,969	0,47
727,406	0,47
727,844	0,47
728,281	0,47
728,719	0,47
729,156	0,47
729,594	0,47
730,031	0,47
730,469	0,47
730,906	0,47
731,343	0,47
731,781	0,47
732,218	0,47
732,655	0,47
733,092	0,46
733,53	0,46
733,967	0,46
734,404	0,46
734,841	0,46
735,278	0,46
735,715	0,46
736,152	0,46
736,589	0,46
737,026	0,45
737,463	0,45
737,9	0,45
738,337	0,45
738,774	0,45
739,211	0,45
739,647	0,46
740,084	0,46
740,521	0,46
740,958	0,46
741,394	0,46
741,831	0,46
742,268	0,46
742,704	0,46
743,141	0,46
743,577	0,46
744,014	0,45
744,45	0,45
744,887	0,45
745,323	0,45
745,76	0,45
746,196	0,45
746,632	0,45
747,069	0,45
747,505	0,45
747,941	0,45
748,378	0,45
748,814	0,45
749,25	0,45
749,686	0,45
750,122	0,45
750,558	0,45
750,994	0,45
751,43	0,45
751,866	0,45
752,302	0,46
752,738	0,46
753,174	0,46
753,61	0,46
754,046	0,46
754,482	0,46
754,918	0,46
755,354	0,46
755,789	0,46
756,225	0,45
756,661	0,45
757,096	0,45
757,532	0,45
757,968	0,45
758,403	0,44
758,839	0,44
759,274	0,44
759,71	0,43
760,145	0,43
760,581	0,42
761,016	0,42
761,452	0,41
761,887	0,41
762,322	0,41
762,758	0,4
763,193	0,4
763,628	0,39
764,063	0,38
764,499	0,38
764,934	0,37
765,369	0,36
765,804	0,35
766,239	0,35
766,674	0,34
767,109	0,33
767,544	0,32
767,979	0,31
768,414	0,3
768,849	0,29
769,284	0,28
769,719	0,27
770,154	0,27
770,588	0,26
771,023	0,25
771,458	0,24
771,893	0,23
772,327	0,21
772,762	0,2
773,197	0,19
773,631	0,18
774,066	0,18
774,5	0,17
774,935	0,16
775,369	0,14
775,804	0,13
776,238	0,12
776,673	0,11
777,107	0,1
777,541	0,09
777,976	0,08
778,41	0,08
778,844	0,06
779,279	0,06
779,713	0,05
780,147	0,04
780,581	0,04
781,015	0,03
781,449	0,02
781,883	0,02
782,317	-0
782,751	-0,01
783,185	-0,02
783,619	-0,03
784,053	-0,04
784,487	-0,06
784,921	-0,05
785,355	-0,07
785,789	-0,08
786,223	-0,09
786,656	-0,1
787,09	-0,11
787,524	-0,12
787,957	-0,13
788,391	-0,16
788,825	-0,17
789,258	-0,18
789,692	-0,2
790,125	-0,21
790,559	-0,23
790,992	-0,25
791,426	-0,28
791,859	-0,29
792,293	-0,32
792,726	-0,34
793,159	-0,35
793,593	-0,37
794,026	-0,4
794,459	-0,43
794,892	-0,45
795,326	-0,48
795,759	-0,52
796,192	-0,57
796,625	-0,61
797,058	-0,64
797,491	-0,68
797,924	-0,72
798,357	-0,77
798,79	-0,82
799,223	-0,86
799,656	-0,92
800,089	-0,97
800,522	-1,01
800,955	-1,05
801,387	-1,11
801,82	-1,16
802,253	-1,22
802,686	-1,3
803,118	-1,36
803,551	-1,41
803,984	-1,46
804,416	-1,5
804,849	-1,54
805,281	-1,69
805,714	-2,08
806,146	-2,49
806,579	-2,74
807,011	-2,89
807,444	-2,98
807,876	-3,06
808,308	-3,09
808,741	-3,12
809,173	-3,17
809,605	-3,19
810,037	-3,27
810,47	-3,18
810,902	-2,98
811,334	-2,83
811,766	-2,67
812,198	-2,42
812,63	-2
813,062	-1,79
813,494	-1,7
813,926	-1,61
814,358	-1,56
814,79	-1,48
815,222	-1,42
815,654	-1,37
816,086	-1,3
816,518	-1,25
816,949	-1,2
817,381	-1,15
817,813	-1,13
818,245	-1,09
818,676	-1,05
819,108	-1,01
819,54	-1
819,971	-0,98
820,403	-0,93
820,834	-0,92
821,266	-0,87
821,697	-0,84
822,129	-0,83
822,56	-0,8
822,991	-0,78
823,423	-0,75
823,854	-0,74
824,286	-0,71
824,717	-0,7
825,148	-0,68
825,579	-0,67
826,01	-0,66
826,442	-0,66
826,873	-0,64
827,304	-0,61
827,735	-0,6
828,166	-0,61
828,597	-0,6
829,028	-0,6
829,459	-0,61
829,89	-0,62
830,321	-0,57
830,752	-0,58
831,183	-0,57
831,613	-0,55
832,044	-0,55
832,475	-0,54
832,906	-0,55
833,336	-0,56
833,767	-0,57
834,198	-0,55
834,628	-0,53
835,059	-0,56
835,49	-0,57
835,92	-0,54
836,351	-0,54
836,781	-0,54
837,212	-0,55
837,642	-0,54
838,072	-0,52
838,503	-0,53
838,933	-0,51
839,364	-0,52
839,794	-0,5
840,224	-0,49
840,654	-0,54
841,085	-0,55
841,515	-0,52
841,945	-0,53
842,375	-0,48
842,805	-0,47
843,235	-0,45
843,665	-0,46
844,095	-0,45
844,525	-0,47
844,955	-0,47
845,385	-0,45
845,815	-0,43
846,245	-0,46
846,675	-0,46
847,105	-0,49
847,534	-0,49
847,964	-0,47
848,394	-0,46
848,824	-0,49
849,253	-0,49
849,683	-0,49
850,112	-0,5
850,542	-0,52
850,972	-0,52
851,401	-0,5
851,831	-0,48
852,26	-0,49
852,69	-0,52
853,119	-0,51
853,548	-0,51
853,978	-0,51
854,407	-0,49
854,836	-0,49
855,266	-0,48
855,695	-0,5
856,124	-0,51
856,553	-0,53
856,983	-0,55
857,412	-0,54
857,841	-0,56
858,27	-0,56
858,699	-0,57
859,128	-0,6
859,557	-0,61
859,986	-0,63
860,415	-0,61
860,844	-0,58
861,273	-0,58
861,702	-0,58
862,13	-0,57
862,559	-0,59
862,988	-0,56
863,417	-0,55
863,845	-0,54
864,274	-0,55
864,703	-0,54
865,131	-0,55
865,56	-0,55
865,989	-0,58
866,417	-0,55
866,846	-0,56
867,274	-0,54
867,703	-0,57
868,131	-0,58
868,559	-0,59
868,988	-0,61
869,416	-0,6
869,844	-0,6
870,273	-0,63
870,701	-0,6
871,129	-0,64
871,557	-0,66
871,986	-0,66
872,414	-0,67
872,842	-0,64
873,27	-0,62
873,698	-0,58
874,126	-0,63
874,554	-0,62
874,982	-0,62
875,41	-0,65
875,838	-0,6
876,266	-0,59
876,694	-0,59
877,122	-0,57
877,549	-0,62
877,977	-0,6
878,405	-0,63
878,833	-0,59
879,26	-0,58
879,688	-0,58
880,116	-0,56
880,543	-0,54
880,971	-0,53
881,399	-0,57
881,826	-0,57
882,254	-0,55
882,681	-0,59
883,109	-0,55
883,536	-0,57
883,963	-0,59
884,391	-0,56
884,818	-0,54
885,245	-0,58
885,673	-0,6
886,1	-0,56
886,527	-0,56
886,954	-0,54
887,381	-0,55
887,809	-0,56
888,236	-0,57
888,663	-0,57
889,09	-0,62
889,517	-0,64
889,944	-0,63
890,371	-0,62
890,798	-0,63
891,225	-0,63
891,652	-0,66
892,078	-0,63
892,505	-0,66
892,932	-0,61
893,359	-0,63
893,786	-0,62
894,212	-0,59
894,639	-0,6
895,066	-0,62
895,492	-0,56
895,919	-0,56
896,346	-0,56
896,772	-0,56
897,199	-0,52
897,625	-0,54
898,052	-0,5
898,478	-0,48
898,904	-0,49
899,331	-0,49
899,757	-0,51
900,183	-0,53
900,61	-0,51
901,036	-0,51
901,462	-0,51
901,888	-0,51
902,315	-0,51
902,741	-0,56
903,167	-0,54
903,593	-0,57
904,019	-0,55
904,445	-0,53
904,871	-0,57
905,297	-0,59
905,723	-0,58
906,149	-0,58
906,575	-0,58
907,001	-0,58
907,427	-0,54
907,852	-0,54
908,278	-0,54
908,704	-0,52
909,13	-0,51
909,555	-0,49
909,981	-0,48
910,407	-0,5
910,832	-0,49
911,258	-0,49
911,684	-0,49
912,109	-0,5
912,535	-0,52
912,96	-0,49
913,386	-0,53
913,811	-0,52
914,236	-0,53
914,662	-0,51
915,087	-0,54
915,512	-0,55
915,938	-0,56
916,363	-0,56
916,788	-0,57
917,213	-0,55
917,639	-0,6
918,064	-0,58
918,489	-0,59
918,914	-0,59
919,339	-0,61
919,764	-0,58
920,189	-0,57
920,614	-0,6
921,039	-0,6
921,464	-0,56
921,889	-0,59
922,314	-0,6
922,738	-0,63
923,163	-0,64
923,588	-0,64
924,013	-0,63
924,437	-0,63
924,862	-0,64
925,287	-0,6
925,711	-0,61
926,136	-0,62
926,561	-0,61
926,985	-0,6
927,41	-0,57
927,834	-0,55
928,259	-0,52
928,683	-0,5
929,108	-0,47
929,532	-0,48
929,956	-0,48
930,381	-0,47
930,805	-0,47
931,229	-0,46
931,653	-0,44
932,078	-0,43
932,502	-0,45
932,926	-0,46
933,35	-0,46
933,774	-0,46
934,198	-0,43
934,622	-0,41
935,046	-0,41
935,47	-0,41
935,894	-0,4
936,318	-0,4
936,742	-0,41
937,166	-0,4
937,59	-0,4
938,014	-0,43
938,437	-0,44
938,861	-0,46
939,285	-0,48
939,709	-0,47
940,132	-0,48
940,556	-0,48
940,98	-0,48
941,403	-0,47
941,827	-0,48
942,25	-0,48
942,674	-0,47
943,097	-0,45
943,521	-0,45
943,944	-0,46
944,368	-0,44
944,791	-0,42
945,214	-0,45
945,638	-0,45
946,061	-0,49
946,484	-0,49
946,907	-0,48
947,331	-0,48
947,754	-0,53
948,177	-0,5
948,6	-0,5
949,023	-0,5
949,446	-0,5
949,869	-0,48
950,292	-0,48
950,715	-0,44
951,138	-0,42
951,561	-0,4
951,984	-0,4
952,407	-0,39
952,83	-0,37
953,252	-0,33
953,675	-0,32
954,098	-0,34
954,521	-0,33
954,943	-0,32
955,366	-0,33
955,789	-0,32
956,211	-0,34
956,634	-0,35
957,056	-0,33
957,479	-0,34
957,902	-0,36
958,324	-0,37
958,746	-0,35
959,169	-0,37
959,591	-0,37
960,014	-0,38
960,436	-0,37
960,858	-0,36
961,281	-0,36
961,703	-0,36
962,125	-0,37
962,547	-0,34
962,969	-0,35
963,391	-0,35
963,814	-0,37
964,236	-0,36
964,658	-0,33
965,08	-0,34
965,502	-0,34
965,924	-0,31
966,346	-0,32
966,768	-0,3
967,189	-0,33
967,611	-0,32
968,033	-0,32
968,455	-0,3
968,877	-0,31
969,298	-0,33
969,72	-0,34
970,142	-0,33
970,563	-0,33
970,985	-0,31
971,407	-0,3
971,828	-0,28
972,25	-0,28
972,671	-0,26
973,093	-0,26
973,514	-0,24
973,936	-0,22
974,357	-0,2
974,778	-0,2
975,2	-0,19
975,621	-0,19
976,042	-0,17
976,464	-0,16
976,885	-0,15
977,306	-0,15
977,727	-0,14
978,148	-0,13
978,57	-0,11
978,991	-0,1
979,412	-0,09
979,833	-0,08
980,254	-0,07
980,675	-0,08
981,096	-0,07
981,517	-0,05
981,937	-0,04
982,358	-0,03
982,779	-0,02
983,2	-0,02
983,621	-0,01
984,042	0,01
984,462	0,01
984,883	0,03
985,304	0,05
985,724	0,06
986,145	0,07
986,565	0,09
986,986	0,1
987,407	0,11
987,827	0,13
988,248	0,15
988,668	0,15
989,088	0,17
989,509	0,18
989,929	0,19
990,35	0,2
990,77	0,21
991,19	0,22
991,61	0,23
992,031	0,24
992,451	0,25
992,871	0,26
993,291	0,27
993,711	0,28
994,131	0,29
994,551	0,29
994,971	0,3
995,391	0,31
995,811	0,32
996,231	0,33
996,651	0,33
997,071	0,34
997,491	0,35
997,911	0,36
998,331	0,37
998,75	0,37
999,17	0,38
999,59	0,38
1000,009	0,39
1000,429	0,39
1000,849	0,4
1001,268	0,4
1001,688	0,41
1002,107	0,41
1002,527	0,41
1002,946	0,42
1003,366	0,42
1003,785	0,42
1004,205	0,43
1004,624	0,43
1005,044	0,43
1005,463	0,43
1005,882	0,44
1006,301	0,44
1006,721	0,44
1007,14	0,44
1007,559	0,44
1007,978	0,45
1008,397	0,45
1008,816	0,45
1009,235	0,45
1009,655	0,45
1010,074	0,45
1010,492	0,45
1010,911	0,45
1011,33	0,45
1011,749	0,45
1012,168	0,44
1012,587	0,44
1013,006	0,44
1013,425	0,44
1013,843	0,44
1014,262	0,44
1014,681	0,44
1015,099	0,44
1015,518	0,44
1015,937	0,44
1016,355	0,44
1016,774	0,44
1017,192	0,44
1017,611	0,44
1018,029	0,44
1018,448	0,44
1018,866	0,44
1019,285	0,44
1019,703	0,43
1020,121	0,43
1020,54	0,43
1020,958	0,43
1021,376	0,43
1021,794	0,43
1022,213	0,43
1022,631	0,43
1023,049	0,43
1023,467	0,43
1023,885	0,43
1024,303	0,43
1024,721	0,43
1025,139	0,43
1025,557	0,42
1025,975	0,42
1026,393	0,42
1026,811	0,42
1027,229	0,42
1027,647	0,42
1028,065	0,42
1028,482	0,42
1028,9	0,42
1029,318	0,42
1029,735	0,42
1030,153	0,42
1030,571	0,42
1030,988	0,42
1031,406	0,42
1031,823	0,42
1032,241	0,42
1032,659	0,42
1033,076	0,42
1033,493	0,42
1033,911	0,42
1034,328	0,42
1034,746	0,42
1035,163	0,43
1035,58	0,42
1035,997	0,43
1036,415	0,43
1036,832	0,43
1037,249	0,43
1037,666	0,43
1038,083	0,43
1038,501	0,43
1038,918	0,43
1039,335	0,43
1039,752	0,42
1040,169	0,43
1040,586	0,43
1041,003	0,43
1041,419	0,43
1041,836	0,43
1042,253	0,43
1042,67	0,43
1043,087	0,43
1043,504	0,42
1043,92	0,42
1044,337	0,42
1044,754	0,42
1045,17	0,42
1045,587	0,42
1046,004	0,42
1046,42	0,42
1046,837	0,42
1047,253	0,42
1047,67	0,42
1048,086	0,42
1048,503	0,42
1048,919	0,42
1049,335	0,42
1049,752	0,42
1050,168	0,42
1050,584	0,42
1051,001	0,42
1051,417	0,42
1051,833	0,42
1052,249	0,42
1052,665	0,43
1053,081	0,43
1053,497	0,43
1053,914	0,43
1054,33	0,43
1054,746	0,43
1055,162	0,43
1055,578	0,43
1055,993	0,43
1056,409	0,43
1056,825	0,43
1057,241	0,43
1057,657	0,43
1058,073	0,43
1058,488	0,43
1058,904	0,43
1059,32	0,43
1059,736	0,43
1060,151	0,43
1060,567	0,43
1060,982	0,43
1061,398	0,43
1061,813	0,43
1062,229	0,43
1062,644	0,43
1063,06	0,43
1063,475	0,43
1063,891	0,43
1064,306	0,43
1064,721	0,43
1065,137	0,42
1065,552	0,42
1065,967	0,42
1066,382	0,42
1066,798	0,42
1067,213	0,42
1067,628	0,42
1068,043	0,42
1068,458	0,42
1068,873	0,42
1069,288	0,42
1069,703	0,42
1070,118	0,42
1070,533	0,42
1070,948	0,42
1071,363	0,42
1071,778	0,42
1072,193	0,42
1072,607	0,42
1073,022	0,42
1073,437	0,42
1073,852	0,42
1074,266	0,42
1074,681	0,42
1075,096	0,42
1075,51	0,42
1075,925	0,42
1076,339	0,42
1076,754	0,42
1077,168	0,42
1077,583	0,42
1077,997	0,42
1078,412	0,42
1078,826	0,42
1079,24	0,42
1079,655	0,42
1080,069	0,42
1080,483	0,42
1080,897	0,42
1081,312	0,42
1081,726	0,42
1082,14	0,42
1082,554	0,42
1082,968	0,42
1083,382	0,42
1083,796	0,41
1084,21	0,41
1084,624	0,41
1085,038	0,41
1085,452	0,41
1085,866	0,41
1086,28	0,41
1086,694	0,41
1087,108	0,41
1087,521	0,4
1087,935	0,4
1088,349	0,4
1088,763	0,4
1089,176	0,39
1089,59	0,39
1090,004	0,39
1090,417	0,38
1090,831	0,38
1091,244	0,37
1091,658	0,37
1092,071	0,37
1092,485	0,36
1092,898	0,36
1093,312	0,36
1093,725	0,36
1094,138	0,36
1094,552	0,35
1094,965	0,35
1095,378	0,35
1095,791	0,35
1096,205	0,34
1096,618	0,34
1097,031	0,34
1097,444	0,34
1097,857	0,33
1098,27	0,33
1098,683	0,32
1099,096	0,32
1099,509	0,32
1099,922	0,31
1100,335	0,31
1100,748	0,3
1101,161	0,3
1101,574	0,29
1101,986	0,29
1102,399	0,29
1102,812	0,28
1103,225	0,28
1103,637	0,28
1104,05	0,27
1104,463	0,28
1104,875	0,27
1105,288	0,27
1105,7	0,27
1106,113	0,26
1106,525	0,26
1106,938	0,26
1107,35	0,25
1107,763	0,25
1108,175	0,25
1108,588	0,25
1109	0,25
1109,412	0,25
1109,824	0,25
1110,237	0,26
1110,649	0,26
1111,061	0,26
