Data from 18C-808nm-8A-cont_Absorbance__543__01972.txt Node

Date: Mon Jul 17 17:39:13 CEST 2023
User: Laser008
Spectrometer: MAYP115816
Trigger mode: 0
Integration Time (sec): 2,500000E-1
Scans to average: 10
Electric dark correction enabled: true
Nonlinearity correction enabled: true
Boxcar width: 5
XAxis mode: Wavelengths
Number of Pixels in Spectrum: 2068
>>>>>Begin Spectral Data<<<<<
198,914	-0,71
199,384	-0,51
199,855	-0,37
200,325	-0,3
200,796	-0,27
201,266	-0,23
201,737	-0,21
202,207	-0,2
202,677	-0,19
203,147	-0,17
203,618	-0,14
204,088	-0,13
204,558	-0,12
205,028	-0,11
205,498	-0,12
205,968	-0,11
206,439	-0,13
206,909	-0,12
207,379	-0,11
207,849	-0,12
208,319	-0,13
208,789	-0,14
209,258	-0,13
209,728	-0,14
210,198	-0,14
210,668	-0,13
211,138	-0,13
211,608	-0,12
212,077	-0,12
212,547	-0,13
213,017	-0,14
213,486	-0,14
213,956	-0,15
214,426	-0,15
214,895	-0,15
215,365	-0,15
215,834	-0,15
216,304	-0,16
216,773	-0,17
217,243	-0,19
217,712	-0,19
218,181	-0,19
218,651	-0,18
219,12	-0,17
219,589	-0,17
220,058	-0,16
220,528	-0,17
220,997	-0,18
221,466	-0,19
221,935	-0,2
222,404	-0,19
222,873	-0,18
223,342	-0,19
223,812	-0,18
224,281	-0,19
224,749	-0,19
225,218	-0,21
225,687	-0,21
226,156	-0,19
226,625	-0,18
227,094	-0,18
227,563	-0,17
228,031	-0,19
228,5	-0,18
228,969	-0,2
229,438	-0,19
229,906	-0,18
230,375	-0,17
230,844	-0,17
231,312	-0,17
231,781	-0,18
232,249	-0,17
232,718	-0,17
233,186	-0,15
233,655	-0,16
234,123	-0,16
234,591	-0,16
235,06	-0,16
235,528	-0,18
235,996	-0,17
236,465	-0,17
236,933	-0,17
237,401	-0,16
237,869	-0,16
238,337	-0,16
238,805	-0,15
239,274	-0,15
239,742	-0,14
240,21	-0,14
240,678	-0,13
241,146	-0,12
241,614	-0,12
242,081	-0,11
242,549	-0,12
243,017	-0,12
243,485	-0,13
243,953	-0,13
244,421	-0,13
244,888	-0,13
245,356	-0,12
245,824	-0,12
246,291	-0,12
246,759	-0,13
247,227	-0,14
247,694	-0,13
248,162	-0,12
248,629	-0,11
249,097	-0,12
249,564	-0,13
250,032	-0,15
250,499	-0,15
250,967	-0,15
251,434	-0,16
251,901	-0,15
252,369	-0,16
252,836	-0,17
253,303	-0,18
253,77	-0,2
254,237	-0,19
254,705	-0,18
255,172	-0,17
255,639	-0,17
256,106	-0,18
256,573	-0,18
257,04	-0,19
257,507	-0,19
257,974	-0,2
258,441	-0,17
258,908	-0,17
259,375	-0,18
259,841	-0,19
260,308	-0,2
260,775	-0,19
261,242	-0,19
261,709	-0,19
262,175	-0,2
262,642	-0,19
263,109	-0,19
263,575	-0,21
264,042	-0,19
264,508	-0,19
264,975	-0,21
265,441	-0,22
265,908	-0,23
266,374	-0,23
266,841	-0,23
267,307	-0,22
267,773	-0,22
268,24	-0,21
268,706	-0,22
269,172	-0,23
269,639	-0,24
270,105	-0,22
270,571	-0,22
271,037	-0,21
271,503	-0,22
271,969	-0,22
272,435	-0,22
272,902	-0,24
273,368	-0,25
273,834	-0,24
274,3	-0,25
274,765	-0,25
275,231	-0,25
275,697	-0,24
276,163	-0,23
276,629	-0,23
277,095	-0,23
277,56	-0,23
278,026	-0,23
278,492	-0,21
278,958	-0,21
279,423	-0,21
279,889	-0,2
280,354	-0,2
280,82	-0,21
281,286	-0,22
281,751	-0,22
282,217	-0,21
282,682	-0,21
283,147	-0,22
283,613	-0,22
284,078	-0,22
284,544	-0,24
285,009	-0,25
285,474	-0,24
285,939	-0,25
286,405	-0,24
286,87	-0,24
287,335	-0,24
287,8	-0,23
288,265	-0,21
288,73	-0,22
289,195	-0,24
289,66	-0,23
290,125	-0,21
290,59	-0,22
291,055	-0,21
291,52	-0,21
291,985	-0,22
292,45	-0,24
292,915	-0,24
293,38	-0,24
293,844	-0,22
294,309	-0,21
294,774	-0,2
295,239	-0,22
295,703	-0,22
296,168	-0,21
296,632	-0,21
297,097	-0,19
297,562	-0,17
298,026	-0,17
298,491	-0,17
298,955	-0,17
299,419	-0,17
299,884	-0,16
300,348	-0,15
300,813	-0,14
301,277	-0,14
301,741	-0,14
302,205	-0,14
302,67	-0,14
303,134	-0,14
303,598	-0,14
304,062	-0,14
304,526	-0,14
304,99	-0,15
305,454	-0,15
305,919	-0,15
306,383	-0,15
306,847	-0,15
307,31	-0,17
307,774	-0,18
308,238	-0,18
308,702	-0,17
309,166	-0,19
309,63	-0,18
310,094	-0,16
310,557	-0,15
311,021	-0,15
311,485	-0,15
311,948	-0,14
312,412	-0,12
312,876	-0,11
313,339	-0,12
313,803	-0,12
314,266	-0,12
314,73	-0,12
315,193	-0,12
315,657	-0,11
316,12	-0,11
316,584	-0,09
317,047	-0,09
317,51	-0,08
317,973	-0,08
318,437	-0,07
318,9	-0,07
319,363	-0,06
319,826	-0,05
320,29	-0,06
320,753	-0,06
321,216	-0,06
321,679	-0,07
322,142	-0,06
322,605	-0,07
323,068	-0,07
323,531	-0,08
323,994	-0,07
324,457	-0,07
324,92	-0,07
325,382	-0,06
325,845	-0,06
326,308	-0,05
326,771	-0,05
327,233	-0,04
327,696	-0,04
328,159	-0,02
328,622	-0,01
329,084	-0,01
329,547	-0,01
330,009	-0
330,472	0,02
330,934	0,03
331,397	0,04
331,859	0,05
332,322	0,05
332,784	0,05
333,246	0,05
333,709	0,05
334,171	0,05
334,633	0,05
335,096	0,04
335,558	0,04
336,02	0,04
336,482	0,04
336,944	0,05
337,406	0,05
337,868	0,06
338,331	0,06
338,793	0,08
339,255	0,09
339,717	0,1
340,178	0,11
340,64	0,12
341,102	0,12
341,564	0,14
342,026	0,15
342,488	0,16
342,949	0,17
343,411	0,2
343,873	0,22
344,335	0,25
344,796	0,29
345,258	0,33
345,719	0,38
346,181	0,43
346,643	0,47
347,104	0,51
347,566	0,54
348,027	0,57
348,488	0,59
348,95	0,62
349,411	0,64
349,873	0,67
350,334	0,69
350,795	0,71
351,256	0,72
351,718	0,73
352,179	0,73
352,64	0,74
353,101	0,74
353,562	0,74
354,023	0,75
354,484	0,75
354,945	0,75
355,406	0,75
355,867	0,76
356,328	0,76
356,789	0,76
357,25	0,76
357,711	0,77
358,172	0,77
358,633	0,77
359,093	0,77
359,554	0,77
360,015	0,77
360,476	0,78
360,936	0,78
361,397	0,78
361,858	0,78
362,318	0,78
362,779	0,78
363,239	0,78
363,7	0,78
364,16	0,78
364,621	0,78
365,081	0,78
365,541	0,78
366,002	0,78
366,462	0,78
366,922	0,78
367,383	0,78
367,843	0,78
368,303	0,78
368,763	0,78
369,223	0,78
369,684	0,78
370,144	0,78
370,604	0,78
371,064	0,78
371,524	0,78
371,984	0,78
372,444	0,78
372,904	0,78
373,363	0,78
373,823	0,78
374,283	0,78
374,743	0,78
375,203	0,78
375,663	0,78
376,122	0,78
376,582	0,78
377,042	0,78
377,501	0,78
377,961	0,78
378,42	0,78
378,88	0,77
379,34	0,77
379,799	0,77
380,259	0,77
380,718	0,77
381,177	0,77
381,637	0,77
382,096	0,77
382,555	0,77
383,015	0,77
383,474	0,77
383,933	0,77
384,393	0,77
384,852	0,77
385,311	0,77
385,77	0,77
386,229	0,77
386,688	0,77
387,147	0,77
387,606	0,77
388,065	0,77
388,524	0,77
388,983	0,76
389,442	0,76
389,901	0,76
390,36	0,76
390,819	0,76
391,277	0,76
391,736	0,76
392,195	0,76
392,654	0,76
393,112	0,76
393,571	0,76
394,03	0,76
394,488	0,76
394,947	0,76
395,405	0,76
395,864	0,76
396,322	0,76
396,781	0,76
397,239	0,76
397,698	0,76
398,156	0,76
398,614	0,76
399,073	0,76
399,531	0,76
399,989	0,76
400,447	0,76
400,905	0,75
401,364	0,75
401,822	0,75
402,28	0,75
402,738	0,75
403,196	0,75
403,654	0,75
404,112	0,75
404,57	0,75
405,028	0,75
405,486	0,75
405,944	0,75
406,402	0,75
406,859	0,75
407,317	0,75
407,775	0,75
408,233	0,75
408,691	0,75
409,148	0,75
409,606	0,75
410,064	0,75
410,521	0,75
410,979	0,75
411,436	0,75
411,894	0,75
412,351	0,75
412,809	0,75
413,266	0,75
413,724	0,75
414,181	0,75
414,638	0,74
415,096	0,74
415,553	0,74
416,01	0,74
416,467	0,74
416,925	0,74
417,382	0,74
417,839	0,74
418,296	0,74
418,753	0,74
419,21	0,74
419,667	0,74
420,124	0,74
420,581	0,74
421,038	0,74
421,495	0,74
421,952	0,74
422,409	0,74
422,866	0,74
423,322	0,74
423,779	0,74
424,236	0,74
424,693	0,74
425,149	0,74
425,606	0,74
426,063	0,74
426,519	0,74
426,976	0,74
427,433	0,74
427,889	0,74
428,346	0,74
428,802	0,74
429,258	0,74
429,715	0,74
430,171	0,74
430,628	0,74
431,084	0,74
431,54	0,74
431,997	0,74
432,453	0,74
432,909	0,74
433,365	0,74
433,821	0,74
434,277	0,74
434,734	0,74
435,19	0,74
435,646	0,74
436,102	0,74
436,558	0,73
437,014	0,73
437,47	0,73
437,925	0,74
438,381	0,74
438,837	0,74
439,293	0,74
439,749	0,74
440,205	0,74
440,66	0,74
441,116	0,74
441,572	0,74
442,027	0,74
442,483	0,74
442,939	0,74
443,394	0,74
443,85	0,74
444,305	0,74
444,761	0,74
445,216	0,74
445,672	0,74
446,127	0,74
446,582	0,74
447,038	0,74
447,493	0,74
447,948	0,74
448,403	0,74
448,859	0,74
449,314	0,74
449,769	0,74
450,224	0,74
450,679	0,74
451,134	0,74
451,589	0,74
452,044	0,74
452,499	0,75
452,954	0,75
453,409	0,75
453,864	0,75
454,319	0,75
454,774	0,75
455,229	0,75
455,684	0,75
456,138	0,75
456,593	0,75
457,048	0,75
457,503	0,75
457,957	0,75
458,412	0,75
458,866	0,75
459,321	0,75
459,776	0,75
460,23	0,75
460,685	0,75
461,139	0,75
461,593	0,75
462,048	0,75
462,502	0,75
462,957	0,76
463,411	0,76
463,865	0,76
464,319	0,76
464,774	0,76
465,228	0,76
465,682	0,76
466,136	0,76
466,59	0,76
467,044	0,76
467,499	0,76
467,953	0,77
468,407	0,77
468,861	0,77
469,315	0,77
469,768	0,77
470,222	0,77
470,676	0,77
471,13	0,77
471,584	0,77
472,038	0,77
472,491	0,77
472,945	0,78
473,399	0,78
473,852	0,78
474,306	0,78
474,76	0,78
475,213	0,78
475,667	0,78
476,12	0,78
476,574	0,79
477,027	0,79
477,481	0,79
477,934	0,79
478,388	0,79
478,841	0,79
479,294	0,8
479,748	0,8
480,201	0,8
480,654	0,8
481,107	0,8
481,561	0,81
482,014	0,81
482,467	0,81
482,92	0,81
483,373	0,81
483,826	0,82
484,279	0,82
484,732	0,82
485,185	0,82
485,638	0,82
486,091	0,83
486,544	0,83
486,997	0,83
487,449	0,83
487,902	0,84
488,355	0,84
488,808	0,84
489,26	0,85
489,713	0,85
490,166	0,85
490,618	0,85
491,071	0,86
491,523	0,86
491,976	0,86
492,429	0,87
492,881	0,87
493,333	0,87
493,786	0,88
494,238	0,88
494,691	0,88
495,143	0,89
495,595	0,89
496,048	0,9
496,5	0,9
496,952	0,9
497,404	0,91
497,856	0,91
498,309	0,92
498,761	0,92
499,213	0,92
499,665	0,93
500,117	0,93
500,569	0,94
501,021	0,94
501,473	0,95
501,925	0,95
502,377	0,96
502,828	0,96
503,28	0,96
503,732	0,97
504,184	0,97
504,636	0,98
505,087	0,98
505,539	0,99
505,991	0,99
506,442	0,99
506,894	1
507,345	1
507,797	1,01
508,249	1,01
508,7	1,02
509,151	1,02
509,603	1,03
510,054	1,03
510,506	1,03
510,957	1,04
511,408	1,04
511,86	1,05
512,311	1,05
512,762	1,05
513,213	1,06
513,665	1,06
514,116	1,06
514,567	1,07
515,018	1,07
515,469	1,08
515,92	1,08
516,371	1,08
516,822	1,09
517,273	1,09
517,724	1,09
518,175	1,1
518,626	1,1
519,076	1,1
519,527	1,1
519,978	1,11
520,429	1,11
520,88	1,11
521,33	1,11
521,781	1,11
522,232	1,12
522,682	1,12
523,133	1,12
523,583	1,12
524,034	1,12
524,484	1,12
524,935	1,12
525,385	1,13
525,836	1,13
526,286	1,13
526,736	1,13
527,187	1,13
527,637	1,13
528,087	1,13
528,538	1,12
528,988	1,12
529,438	1,12
529,888	1,12
530,338	1,12
530,788	1,12
531,238	1,12
531,688	1,12
532,139	1,11
532,589	1,11
533,038	1,11
533,488	1,11
533,938	1,11
534,388	1,1
534,838	1,1
535,288	1,1
535,738	1,09
536,187	1,09
536,637	1,08
537,087	1,08
537,537	1,08
537,986	1,07
538,436	1,07
538,885	1,06
539,335	1,06
539,785	1,05
540,234	1,05
540,684	1,04
541,133	1,04
541,582	1,03
542,032	1,03
542,481	1,02
542,931	1,02
543,38	1,01
543,829	1
544,278	1
544,728	0,99
545,177	0,99
545,626	0,98
546,075	0,98
546,524	0,97
546,973	0,97
547,422	0,96
547,871	0,96
548,32	0,95
548,769	0,95
549,218	0,95
549,667	0,94
550,116	0,94
550,565	0,93
551,014	0,93
551,463	0,92
551,911	0,91
552,36	0,91
552,809	0,9
553,258	0,9
553,706	0,89
554,155	0,89
554,603	0,88
555,052	0,88
555,501	0,87
555,949	0,87
556,398	0,86
556,846	0,86
557,294	0,85
557,743	0,85
558,191	0,84
558,64	0,83
559,088	0,83
559,536	0,82
559,985	0,82
560,433	0,81
560,881	0,81
561,329	0,8
561,777	0,8
562,225	0,79
562,674	0,79
563,122	0,78
563,57	0,78
564,018	0,77
564,466	0,77
564,914	0,76
565,362	0,76
565,809	0,75
566,257	0,75
566,705	0,74
567,153	0,74
567,601	0,73
568,048	0,73
568,496	0,72
568,944	0,72
569,392	0,71
569,839	0,71
570,287	0,71
570,734	0,7
571,182	0,7
571,63	0,69
572,077	0,69
572,525	0,69
572,972	0,68
573,419	0,68
573,867	0,67
574,314	0,67
574,761	0,67
575,209	0,66
575,656	0,66
576,103	0,65
576,551	0,65
576,998	0,65
577,445	0,64
577,892	0,64
578,339	0,64
578,786	0,63
579,233	0,63
579,68	0,63
580,127	0,62
580,574	0,62
581,021	0,62
581,468	0,61
581,915	0,61
582,362	0,61
582,809	0,6
583,255	0,6
583,702	0,6
584,149	0,6
584,596	0,59
585,042	0,59
585,489	0,59
585,936	0,58
586,382	0,58
586,829	0,58
587,275	0,58
587,722	0,58
588,168	0,57
588,615	0,57
589,061	0,57
589,508	0,56
589,954	0,56
590,4	0,56
590,847	0,56
591,293	0,55
591,739	0,55
592,185	0,55
592,632	0,55
593,078	0,55
593,524	0,55
593,97	0,54
594,416	0,54
594,862	0,54
595,308	0,54
595,754	0,54
596,2	0,54
596,646	0,53
597,092	0,53
597,538	0,53
597,984	0,53
598,43	0,52
598,876	0,52
599,321	0,52
599,767	0,52
600,213	0,52
600,659	0,52
601,104	0,52
601,55	0,51
601,995	0,51
602,441	0,51
602,887	0,51
603,332	0,51
603,778	0,5
604,223	0,5
604,668	0,5
605,114	0,5
605,559	0,5
606,005	0,5
606,45	0,5
606,895	0,5
607,341	0,5
607,786	0,5
608,231	0,49
608,676	0,49
609,121	0,48
609,566	0,48
610,012	0,47
610,457	0,47
610,902	0,47
611,347	0,46
611,792	0,46
612,237	0,46
612,682	0,46
613,127	0,46
613,571	0,46
614,016	0,46
614,461	0,46
614,906	0,46
615,351	0,46
615,795	0,46
616,24	0,46
616,685	0,46
617,129	0,46
617,574	0,46
618,019	0,46
618,463	0,46
618,908	0,46
619,352	0,46
619,797	0,46
620,241	0,46
620,686	0,46
621,13	0,46
621,574	0,46
622,019	0,46
622,463	0,45
622,907	0,45
623,352	0,45
623,796	0,45
624,24	0,45
624,684	0,45
625,128	0,45
625,572	0,45
626,016	0,45
626,461	0,45
626,905	0,45
627,349	0,45
627,793	0,45
628,236	0,45
628,68	0,45
629,124	0,45
629,568	0,44
630,012	0,44
630,456	0,44
630,9	0,44
631,343	0,44
631,787	0,44
632,231	0,44
632,674	0,44
633,118	0,44
633,562	0,44
634,005	0,44
634,449	0,44
634,892	0,44
635,336	0,44
635,779	0,44
636,223	0,44
636,666	0,44
637,109	0,43
637,553	0,43
637,996	0,43
638,439	0,43
638,883	0,43
639,326	0,43
639,769	0,43
640,212	0,43
640,655	0,43
641,099	0,43
641,542	0,43
641,985	0,43
642,428	0,43
642,871	0,43
643,314	0,43
643,757	0,42
644,2	0,42
644,643	0,42
645,085	0,42
645,528	0,42
645,971	0,42
646,414	0,42
646,857	0,42
647,299	0,42
647,742	0,42
648,185	0,42
648,627	0,42
649,07	0,42
649,513	0,42
649,955	0,42
650,398	0,42
650,84	0,42
651,283	0,42
651,725	0,42
652,168	0,42
652,61	0,42
653,052	0,42
653,495	0,42
653,937	0,33
654,379	0,28
654,821	0,28
655,264	0,28
655,706	0,28
656,148	0,28
656,59	0,28
657,032	0,28
657,474	0,28
657,916	0,28
658,358	0,28
658,8	0,33
659,242	0,41
659,684	0,41
660,126	0,41
660,568	0,41
661,01	0,41
661,452	0,41
661,894	0,41
662,335	0,41
662,777	0,41
663,219	0,41
663,661	0,41
664,102	0,41
664,544	0,41
664,985	0,41
665,427	0,41
665,869	0,41
666,31	0,41
666,752	0,41
667,193	0,41
667,634	0,41
668,076	0,41
668,517	0,41
668,959	0,41
669,4	0,41
669,841	0,41
670,282	0,41
670,724	0,41
671,165	0,41
671,606	0,41
672,047	0,41
672,488	0,41
672,929	0,41
673,37	0,41
673,811	0,4
674,252	0,4
674,693	0,4
675,134	0,4
675,575	0,4
676,016	0,4
676,457	0,4
676,898	0,4
677,339	0,4
677,78	0,4
678,22	0,4
678,661	0,4
679,102	0,4
679,542	0,4
679,983	0,4
680,424	0,4
680,864	0,4
681,305	0,4
681,745	0,4
682,186	0,4
682,626	0,4
683,067	0,4
683,507	0,4
683,948	0,4
684,388	0,4
684,828	0,4
685,269	0,4
685,709	0,4
686,149	0,4
686,589	0,4
687,029	0,39
687,47	0,39
687,91	0,39
688,35	0,39
688,79	0,39
689,23	0,39
689,67	0,39
690,11	0,39
690,55	0,39
690,99	0,39
691,43	0,39
691,87	0,39
692,31	0,39
692,749	0,39
693,189	0,38
693,629	0,38
694,069	0,38
694,508	0,38
694,948	0,38
695,388	0,38
695,827	0,38
696,267	0,38
696,706	0,38
697,146	0,39
697,586	0,39
698,025	0,39
698,464	0,39
698,904	0,39
699,343	0,39
699,783	0,39
700,222	0,39
700,661	0,39
701,101	0,39
701,54	0,39
701,979	0,39
702,418	0,39
702,857	0,39
703,297	0,39
703,736	0,39
704,175	0,39
704,614	0,39
705,053	0,39
705,492	0,39
705,931	0,39
706,37	0,39
706,809	0,39
707,248	0,39
707,687	0,38
708,125	0,38
708,564	0,38
709,003	0,38
709,442	0,38
709,88	0,38
710,319	0,38
710,758	0,38
711,196	0,38
711,635	0,38
712,074	0,38
712,512	0,38
712,951	0,38
713,389	0,38
713,828	0,38
714,266	0,38
714,705	0,38
715,143	0,38
715,581	0,38
716,02	0,38
716,458	0,38
716,896	0,38
717,334	0,38
717,773	0,38
718,211	0,38
718,649	0,38
719,087	0,38
719,525	0,38
719,963	0,38
720,401	0,38
720,839	0,38
721,277	0,38
721,715	0,38
722,153	0,38
722,591	0,38
723,029	0,38
723,467	0,38
723,905	0,38
724,342	0,38
724,78	0,38
725,218	0,38
725,656	0,38
726,093	0,38
726,531	0,38
726,969	0,38
727,406	0,38
727,844	0,38
728,281	0,38
728,719	0,38
729,156	0,38
729,594	0,38
730,031	0,37
730,469	0,37
730,906	0,37
731,343	0,37
731,781	0,37
732,218	0,37
732,655	0,37
733,092	0,37
733,53	0,37
733,967	0,37
734,404	0,37
734,841	0,37
735,278	0,37
735,715	0,37
736,152	0,37
736,589	0,37
737,026	0,37
737,463	0,37
737,9	0,37
738,337	0,37
738,774	0,37
739,211	0,37
739,647	0,37
740,084	0,37
740,521	0,37
740,958	0,37
741,394	0,37
741,831	0,37
742,268	0,37
742,704	0,37
743,141	0,37
743,577	0,37
744,014	0,37
744,45	0,37
744,887	0,37
745,323	0,36
745,76	0,36
746,196	0,36
746,632	0,36
747,069	0,36
747,505	0,36
747,941	0,36
748,378	0,36
748,814	0,36
749,25	0,36
749,686	0,36
750,122	0,36
750,558	0,37
750,994	0,37
751,43	0,37
751,866	0,37
752,302	0,37
752,738	0,37
753,174	0,37
753,61	0,37
754,046	0,37
754,482	0,37
754,918	0,37
755,354	0,37
755,789	0,37
756,225	0,37
756,661	0,37
757,096	0,37
757,532	0,37
757,968	0,36
758,403	0,36
758,839	0,36
759,274	0,36
759,71	0,35
760,145	0,35
760,581	0,35
761,016	0,34
761,452	0,34
761,887	0,33
762,322	0,33
762,758	0,33
763,193	0,32
763,628	0,32
764,063	0,31
764,499	0,3
764,934	0,3
765,369	0,29
765,804	0,28
766,239	0,28
766,674	0,27
767,109	0,26
767,544	0,26
767,979	0,24
768,414	0,24
768,849	0,23
769,284	0,22
769,719	0,21
770,154	0,2
770,588	0,2
771,023	0,19
771,458	0,17
771,893	0,16
772,327	0,15
772,762	0,15
773,197	0,14
773,631	0,13
774,066	0,12
774,5	0,11
774,935	0,1
775,369	0,09
775,804	0,08
776,238	0,07
776,673	0,06
777,107	0,05
777,541	0,04
777,976	0,04
778,41	0,03
778,844	0,02
779,279	0,01
779,713	0,01
780,147	-0
780,581	-0,01
781,015	-0,02
781,449	-0,04
781,883	-0,04
782,317	-0,06
782,751	-0,07
783,185	-0,08
783,619	-0,08
784,053	-0,09
784,487	-0,1
784,921	-0,1
785,355	-0,11
785,789	-0,12
786,223	-0,12
786,656	-0,13
787,09	-0,13
787,524	-0,14
787,957	-0,15
788,391	-0,17
788,825	-0,19
789,258	-0,2
789,692	-0,22
790,125	-0,23
790,559	-0,24
790,992	-0,26
791,426	-0,28
791,859	-0,3
792,293	-0,32
792,726	-0,34
793,159	-0,35
793,593	-0,36
794,026	-0,39
794,459	-0,42
794,892	-0,44
795,326	-0,47
795,759	-0,5
796,192	-0,55
796,625	-0,59
797,058	-0,61
797,491	-0,65
797,924	-0,69
798,357	-0,74
798,79	-0,78
799,223	-0,82
799,656	-0,88
800,089	-0,92
800,522	-0,96
800,955	-1
801,387	-1,06
801,82	-1,11
802,253	-1,18
802,686	-1,26
803,118	-1,31
803,551	-1,36
803,984	-1,4
804,416	-1,44
804,849	-1,47
805,281	-1,59
805,714	-1,96
806,146	-2,43
806,579	-2,7
807,011	-2,86
807,444	-2,96
807,876	-3,04
808,308	-3,07
808,741	-3,1
809,173	-3,15
809,605	-3,17
810,037	-3,25
810,47	-3,17
810,902	-2,97
811,334	-2,82
811,766	-2,65
812,198	-2,4
812,63	-1,96
813,062	-1,75
813,494	-1,65
813,926	-1,56
814,358	-1,51
814,79	-1,43
815,222	-1,38
815,654	-1,33
816,086	-1,26
816,518	-1,21
816,949	-1,16
817,381	-1,12
817,813	-1,1
818,245	-1,06
818,676	-1,02
819,108	-0,99
819,54	-0,98
819,971	-0,96
820,403	-0,91
820,834	-0,9
821,266	-0,85
821,697	-0,84
822,129	-0,82
822,56	-0,79
822,991	-0,77
823,423	-0,75
823,854	-0,74
824,286	-0,72
824,717	-0,71
825,148	-0,69
825,579	-0,69
826,01	-0,68
826,442	-0,67
826,873	-0,65
827,304	-0,61
827,735	-0,6
828,166	-0,61
828,597	-0,61
829,028	-0,6
829,459	-0,61
829,89	-0,61
830,321	-0,56
830,752	-0,57
831,183	-0,56
831,613	-0,56
832,044	-0,56
832,475	-0,55
832,906	-0,56
833,336	-0,56
833,767	-0,57
834,198	-0,56
834,628	-0,54
835,059	-0,58
835,49	-0,58
835,92	-0,55
836,351	-0,55
836,781	-0,55
837,212	-0,57
837,642	-0,57
838,072	-0,56
838,503	-0,57
838,933	-0,55
839,364	-0,55
839,794	-0,53
840,224	-0,53
840,654	-0,57
841,085	-0,58
841,515	-0,56
841,945	-0,56
842,375	-0,51
842,805	-0,49
843,235	-0,48
843,665	-0,5
844,095	-0,48
844,525	-0,51
844,955	-0,51
845,385	-0,48
845,815	-0,47
846,245	-0,48
846,675	-0,49
847,105	-0,51
847,534	-0,51
847,964	-0,5
848,394	-0,48
848,824	-0,52
849,253	-0,51
849,683	-0,51
850,112	-0,52
850,542	-0,56
850,972	-0,57
851,401	-0,55
851,831	-0,53
852,26	-0,53
852,69	-0,56
853,119	-0,56
853,548	-0,56
853,978	-0,57
854,407	-0,55
854,836	-0,55
855,266	-0,54
855,695	-0,55
856,124	-0,56
856,553	-0,58
856,983	-0,6
857,412	-0,59
857,841	-0,6
858,27	-0,6
858,699	-0,61
859,128	-0,64
859,557	-0,65
859,986	-0,65
860,415	-0,63
860,844	-0,6
861,273	-0,6
861,702	-0,61
862,13	-0,59
862,559	-0,61
862,988	-0,58
863,417	-0,57
863,845	-0,55
864,274	-0,56
864,703	-0,56
865,131	-0,56
865,56	-0,58
865,989	-0,61
866,417	-0,57
866,846	-0,58
867,274	-0,57
867,703	-0,59
868,131	-0,61
868,559	-0,61
868,988	-0,64
869,416	-0,63
869,844	-0,64
870,273	-0,66
870,701	-0,62
871,129	-0,66
871,557	-0,68
871,986	-0,68
872,414	-0,69
872,842	-0,66
873,27	-0,64
873,698	-0,61
874,126	-0,66
874,554	-0,65
874,982	-0,64
875,41	-0,68
875,838	-0,63
876,266	-0,6
876,694	-0,61
877,122	-0,6
877,549	-0,66
877,977	-0,63
878,405	-0,66
878,833	-0,62
879,26	-0,6
879,688	-0,61
880,116	-0,59
880,543	-0,57
880,971	-0,57
881,399	-0,6
881,826	-0,6
882,254	-0,58
882,681	-0,61
883,109	-0,57
883,536	-0,58
883,963	-0,59
884,391	-0,58
884,818	-0,56
885,245	-0,6
885,673	-0,61
886,1	-0,57
886,527	-0,57
886,954	-0,54
887,381	-0,56
887,809	-0,57
888,236	-0,59
888,663	-0,59
889,09	-0,63
889,517	-0,66
889,944	-0,65
890,371	-0,64
890,798	-0,65
891,225	-0,65
891,652	-0,68
892,078	-0,65
892,505	-0,68
892,932	-0,63
893,359	-0,64
893,786	-0,65
894,212	-0,61
894,639	-0,63
895,066	-0,66
895,492	-0,6
895,919	-0,6
896,346	-0,6
896,772	-0,6
897,199	-0,57
897,625	-0,6
898,052	-0,57
898,478	-0,55
898,904	-0,56
899,331	-0,55
899,757	-0,57
900,183	-0,59
900,61	-0,57
901,036	-0,58
901,462	-0,58
901,888	-0,56
902,315	-0,55
902,741	-0,61
903,167	-0,59
903,593	-0,61
904,019	-0,6
904,445	-0,57
904,871	-0,6
905,297	-0,62
905,723	-0,62
906,149	-0,61
906,575	-0,62
907,001	-0,61
907,427	-0,58
907,852	-0,58
908,278	-0,59
908,704	-0,57
909,13	-0,56
909,555	-0,55
909,981	-0,54
910,407	-0,54
910,832	-0,54
911,258	-0,54
911,684	-0,54
912,109	-0,54
912,535	-0,56
912,96	-0,51
913,386	-0,55
913,811	-0,54
914,236	-0,56
914,662	-0,54
915,087	-0,57
915,512	-0,58
915,938	-0,59
916,363	-0,59
916,788	-0,6
917,213	-0,59
917,639	-0,64
918,064	-0,61
918,489	-0,62
918,914	-0,62
919,339	-0,64
919,764	-0,62
920,189	-0,61
920,614	-0,63
921,039	-0,64
921,464	-0,59
921,889	-0,62
922,314	-0,63
922,738	-0,66
923,163	-0,68
923,588	-0,68
924,013	-0,67
924,437	-0,66
924,862	-0,67
925,287	-0,64
925,711	-0,64
926,136	-0,65
926,561	-0,64
926,985	-0,63
927,41	-0,6
927,834	-0,58
928,259	-0,54
928,683	-0,52
929,108	-0,49
929,532	-0,51
929,956	-0,5
930,381	-0,49
930,805	-0,49
931,229	-0,49
931,653	-0,47
932,078	-0,46
932,502	-0,47
932,926	-0,49
933,35	-0,49
933,774	-0,49
934,198	-0,47
934,622	-0,46
935,046	-0,47
935,47	-0,47
935,894	-0,47
936,318	-0,47
936,742	-0,47
937,166	-0,46
937,59	-0,47
938,014	-0,49
938,437	-0,5
938,861	-0,53
939,285	-0,53
939,709	-0,52
940,132	-0,52
940,556	-0,53
940,98	-0,52
941,403	-0,52
941,827	-0,52
942,25	-0,53
942,674	-0,52
943,097	-0,51
943,521	-0,51
943,944	-0,52
944,368	-0,51
944,791	-0,5
945,214	-0,52
945,638	-0,52
946,061	-0,55
946,484	-0,56
946,907	-0,53
947,331	-0,54
947,754	-0,58
948,177	-0,55
948,6	-0,54
949,023	-0,55
949,446	-0,55
949,869	-0,54
950,292	-0,54
950,715	-0,51
951,138	-0,49
951,561	-0,47
951,984	-0,47
952,407	-0,46
952,83	-0,44
953,252	-0,4
953,675	-0,39
954,098	-0,4
954,521	-0,39
954,943	-0,38
955,366	-0,38
955,789	-0,37
956,211	-0,39
956,634	-0,38
957,056	-0,37
957,479	-0,38
957,902	-0,4
958,324	-0,4
958,746	-0,38
959,169	-0,39
959,591	-0,4
960,014	-0,41
960,436	-0,41
960,858	-0,41
961,281	-0,42
961,703	-0,43
962,125	-0,43
962,547	-0,41
962,969	-0,42
963,391	-0,43
963,814	-0,45
964,236	-0,43
964,658	-0,4
965,08	-0,4
965,502	-0,39
965,924	-0,37
966,346	-0,36
966,768	-0,36
967,189	-0,38
967,611	-0,37
968,033	-0,36
968,455	-0,33
968,877	-0,34
969,298	-0,34
969,72	-0,35
970,142	-0,34
970,563	-0,35
970,985	-0,34
971,407	-0,33
971,828	-0,31
972,25	-0,31
972,671	-0,3
973,093	-0,3
973,514	-0,28
973,936	-0,26
974,357	-0,25
974,778	-0,24
975,2	-0,23
975,621	-0,23
976,042	-0,21
976,464	-0,2
976,885	-0,19
977,306	-0,19
977,727	-0,18
978,148	-0,17
978,57	-0,16
978,991	-0,14
979,412	-0,14
979,833	-0,13
980,254	-0,12
980,675	-0,12
981,096	-0,11
981,517	-0,09
981,937	-0,09
982,358	-0,07
982,779	-0,06
983,2	-0,06
983,621	-0,06
984,042	-0,04
984,462	-0,03
984,883	-0,01
985,304	0
985,724	0,02
986,145	0,03
986,565	0,04
986,986	0,05
987,407	0,06
987,827	0,07
988,248	0,09
988,668	0,1
989,088	0,11
989,509	0,12
989,929	0,14
990,35	0,14
990,77	0,16
991,19	0,16
991,61	0,18
992,031	0,19
992,451	0,2
992,871	0,2
993,291	0,21
993,711	0,22
994,131	0,23
994,551	0,23
994,971	0,24
995,391	0,25
995,811	0,26
996,231	0,26
996,651	0,27
997,071	0,27
997,491	0,28
997,911	0,29
998,331	0,3
998,75	0,3
999,17	0,31
999,59	0,31
1000,009	0,31
1000,429	0,32
1000,849	0,33
1001,268	0,33
1001,688	0,33
1002,107	0,34
1002,527	0,34
1002,946	0,34
1003,366	0,35
1003,785	0,35
1004,205	0,35
1004,624	0,35
1005,044	0,36
1005,463	0,36
1005,882	0,36
1006,301	0,36
1006,721	0,36
1007,14	0,36
1007,559	0,37
1007,978	0,37
1008,397	0,37
1008,816	0,37
1009,235	0,37
1009,655	0,37
1010,074	0,36
1010,492	0,36
1010,911	0,36
1011,33	0,36
1011,749	0,36
1012,168	0,36
1012,587	0,36
1013,006	0,36
1013,425	0,36
1013,843	0,36
1014,262	0,36
1014,681	0,36
1015,099	0,36
1015,518	0,36
1015,937	0,35
1016,355	0,35
1016,774	0,35
1017,192	0,35
1017,611	0,35
1018,029	0,35
1018,448	0,35
1018,866	0,35
1019,285	0,36
1019,703	0,36
1020,121	0,36
1020,54	0,36
1020,958	0,36
1021,376	0,36
1021,794	0,36
1022,213	0,36
1022,631	0,36
1023,049	0,36
1023,467	0,35
1023,885	0,35
1024,303	0,35
1024,721	0,35
1025,139	0,35
1025,557	0,35
1025,975	0,35
1026,393	0,35
1026,811	0,35
1027,229	0,35
1027,647	0,35
1028,065	0,35
1028,482	0,34
1028,9	0,34
1029,318	0,34
1029,735	0,34
1030,153	0,34
1030,571	0,34
1030,988	0,35
1031,406	0,35
1031,823	0,35
1032,241	0,35
1032,659	0,35
1033,076	0,35
1033,493	0,35
1033,911	0,35
1034,328	0,35
1034,746	0,35
1035,163	0,35
1035,58	0,35
1035,997	0,35
1036,415	0,35
1036,832	0,35
1037,249	0,35
1037,666	0,35
1038,083	0,35
1038,501	0,35
1038,918	0,35
1039,335	0,35
1039,752	0,35
1040,169	0,35
1040,586	0,35
1041,003	0,35
1041,419	0,35
1041,836	0,34
1042,253	0,34
1042,67	0,34
1043,087	0,34
1043,504	0,34
1043,92	0,34
1044,337	0,34
1044,754	0,34
1045,17	0,34
1045,587	0,34
1046,004	0,34
1046,42	0,34
1046,837	0,34
1047,253	0,34
1047,67	0,34
1048,086	0,34
1048,503	0,34
1048,919	0,34
1049,335	0,34
1049,752	0,34
1050,168	0,34
1050,584	0,34
1051,001	0,34
1051,417	0,34
1051,833	0,34
1052,249	0,34
1052,665	0,34
1053,081	0,34
1053,497	0,34
1053,914	0,34
1054,33	0,35
1054,746	0,35
1055,162	0,35
1055,578	0,35
1055,993	0,35
1056,409	0,35
1056,825	0,35
1057,241	0,35
1057,657	0,35
1058,073	0,35
1058,488	0,35
1058,904	0,35
1059,32	0,35
1059,736	0,35
1060,151	0,35
1060,567	0,35
1060,982	0,35
1061,398	0,35
1061,813	0,35
1062,229	0,35
1062,644	0,35
1063,06	0,35
1063,475	0,35
1063,891	0,35
1064,306	0,35
1064,721	0,35
1065,137	0,35
1065,552	0,35
1065,967	0,35
1066,382	0,35
1066,798	0,35
1067,213	0,35
1067,628	0,35
1068,043	0,35
1068,458	0,35
1068,873	0,35
1069,288	0,35
1069,703	0,35
1070,118	0,35
1070,533	0,35
1070,948	0,35
1071,363	0,35
1071,778	0,35
1072,193	0,35
1072,607	0,35
1073,022	0,35
1073,437	0,35
1073,852	0,35
1074,266	0,35
1074,681	0,35
1075,096	0,35
1075,51	0,35
1075,925	0,35
1076,339	0,35
1076,754	0,35
1077,168	0,35
1077,583	0,35
1077,997	0,35
1078,412	0,35
1078,826	0,35
1079,24	0,35
1079,655	0,34
1080,069	0,34
1080,483	0,34
1080,897	0,34
1081,312	0,34
1081,726	0,34
1082,14	0,34
1082,554	0,34
1082,968	0,34
1083,382	0,34
1083,796	0,34
1084,21	0,34
1084,624	0,33
1085,038	0,33
1085,452	0,33
1085,866	0,33
1086,28	0,33
1086,694	0,33
1087,108	0,33
1087,521	0,32
1087,935	0,32
1088,349	0,32
1088,763	0,32
1089,176	0,32
1089,59	0,32
1090,004	0,31
1090,417	0,31
1090,831	0,31
1091,244	0,31
1091,658	0,3
1092,071	0,3
1092,485	0,3
1092,898	0,3
1093,312	0,29
1093,725	0,29
1094,138	0,29
1094,552	0,29
1094,965	0,29
1095,378	0,28
1095,791	0,28
1096,205	0,28
1096,618	0,28
1097,031	0,27
1097,444	0,27
1097,857	0,27
1098,27	0,26
1098,683	0,26
1099,096	0,26
1099,509	0,26
1099,922	0,25
1100,335	0,25
1100,748	0,24
1101,161	0,24
1101,574	0,23
1101,986	0,23
1102,399	0,23
1102,812	0,23
1103,225	0,22
1103,637	0,22
1104,05	0,22
1104,463	0,22
1104,875	0,22
1105,288	0,22
1105,7	0,21
1106,113	0,21
1106,525	0,2
1106,938	0,2
1107,35	0,19
1107,763	0,19
1108,175	0,19
1108,588	0,18
1109	0,17
1109,412	0,16
1109,824	0,16
1110,237	0,16
1110,649	0,16
1111,061	0,16
