Data from 18C-808nm-8A-cont_Absorbance__605__02034.txt Node

Date: Mon Jul 17 17:41:48 CEST 2023
User: Laser008
Spectrometer: MAYP115816
Trigger mode: 0
Integration Time (sec): 2,500000E-1
Scans to average: 10
Electric dark correction enabled: true
Nonlinearity correction enabled: true
Boxcar width: 5
XAxis mode: Wavelengths
Number of Pixels in Spectrum: 2068
>>>>>Begin Spectral Data<<<<<
198,914	-0,75
199,384	-0,52
199,855	-0,37
200,325	-0,29
200,796	-0,24
201,266	-0,19
201,737	-0,18
202,207	-0,18
202,677	-0,16
203,147	-0,15
203,618	-0,11
204,088	-0,09
204,558	-0,07
205,028	-0,06
205,498	-0,07
205,968	-0,08
206,439	-0,1
206,909	-0,09
207,379	-0,09
207,849	-0,1
208,319	-0,1
208,789	-0,11
209,258	-0,11
209,728	-0,13
210,198	-0,13
210,668	-0,13
211,138	-0,12
211,608	-0,12
212,077	-0,12
212,547	-0,12
213,017	-0,12
213,486	-0,12
213,956	-0,13
214,426	-0,14
214,895	-0,13
215,365	-0,14
215,834	-0,14
216,304	-0,15
216,773	-0,15
217,243	-0,16
217,712	-0,17
218,181	-0,17
218,651	-0,17
219,12	-0,17
219,589	-0,16
220,058	-0,15
220,528	-0,16
220,997	-0,17
221,466	-0,18
221,935	-0,18
222,404	-0,18
222,873	-0,16
223,342	-0,16
223,812	-0,17
224,281	-0,17
224,749	-0,18
225,218	-0,19
225,687	-0,19
226,156	-0,18
226,625	-0,16
227,094	-0,16
227,563	-0,16
228,031	-0,18
228,5	-0,17
228,969	-0,17
229,438	-0,16
229,906	-0,15
230,375	-0,14
230,844	-0,14
231,312	-0,14
231,781	-0,15
232,249	-0,14
232,718	-0,14
233,186	-0,12
233,655	-0,13
234,123	-0,12
234,591	-0,13
235,06	-0,13
235,528	-0,14
235,996	-0,13
236,465	-0,13
236,933	-0,13
237,401	-0,13
237,869	-0,12
238,337	-0,12
238,805	-0,11
239,274	-0,11
239,742	-0,1
240,21	-0,1
240,678	-0,1
241,146	-0,09
241,614	-0,1
242,081	-0,09
242,549	-0,09
243,017	-0,1
243,485	-0,11
243,953	-0,11
244,421	-0,11
244,888	-0,1
245,356	-0,1
245,824	-0,1
246,291	-0,11
246,759	-0,11
247,227	-0,11
247,694	-0,11
248,162	-0,1
248,629	-0,09
249,097	-0,1
249,564	-0,1
250,032	-0,12
250,499	-0,1
250,967	-0,11
251,434	-0,12
251,901	-0,12
252,369	-0,12
252,836	-0,12
253,303	-0,14
253,77	-0,16
254,237	-0,15
254,705	-0,15
255,172	-0,15
255,639	-0,16
256,106	-0,17
256,573	-0,18
257,04	-0,18
257,507	-0,19
257,974	-0,19
258,441	-0,17
258,908	-0,16
259,375	-0,18
259,841	-0,18
260,308	-0,19
260,775	-0,19
261,242	-0,17
261,709	-0,17
262,175	-0,18
262,642	-0,17
263,109	-0,16
263,575	-0,18
264,042	-0,17
264,508	-0,16
264,975	-0,17
265,441	-0,17
265,908	-0,18
266,374	-0,18
266,841	-0,19
267,307	-0,18
267,773	-0,17
268,24	-0,18
268,706	-0,17
269,172	-0,18
269,639	-0,2
270,105	-0,18
270,571	-0,19
271,037	-0,19
271,503	-0,19
271,969	-0,18
272,435	-0,19
272,902	-0,21
273,368	-0,22
273,834	-0,22
274,3	-0,23
274,765	-0,22
275,231	-0,22
275,697	-0,21
276,163	-0,21
276,629	-0,22
277,095	-0,22
277,56	-0,21
278,026	-0,21
278,492	-0,2
278,958	-0,2
279,423	-0,2
279,889	-0,19
280,354	-0,21
280,82	-0,21
281,286	-0,21
281,751	-0,21
282,217	-0,2
282,682	-0,2
283,147	-0,21
283,613	-0,21
284,078	-0,21
284,544	-0,22
285,009	-0,23
285,474	-0,21
285,939	-0,23
286,405	-0,22
286,87	-0,22
287,335	-0,22
287,8	-0,22
288,265	-0,21
288,73	-0,22
289,195	-0,23
289,66	-0,23
290,125	-0,21
290,59	-0,22
291,055	-0,21
291,52	-0,21
291,985	-0,22
292,45	-0,23
292,915	-0,22
293,38	-0,22
293,844	-0,2
294,309	-0,19
294,774	-0,18
295,239	-0,19
295,703	-0,2
296,168	-0,2
296,632	-0,19
297,097	-0,17
297,562	-0,14
298,026	-0,15
298,491	-0,15
298,955	-0,15
299,419	-0,15
299,884	-0,15
300,348	-0,13
300,813	-0,12
301,277	-0,12
301,741	-0,12
302,205	-0,12
302,67	-0,13
303,134	-0,12
303,598	-0,11
304,062	-0,12
304,526	-0,11
304,99	-0,12
305,454	-0,13
305,919	-0,12
306,383	-0,12
306,847	-0,12
307,31	-0,12
307,774	-0,13
308,238	-0,12
308,702	-0,12
309,166	-0,14
309,63	-0,13
310,094	-0,11
310,557	-0,11
311,021	-0,12
311,485	-0,12
311,948	-0,11
312,412	-0,11
312,876	-0,1
313,339	-0,11
313,803	-0,12
314,266	-0,11
314,73	-0,11
315,193	-0,11
315,657	-0,09
316,12	-0,09
316,584	-0,08
317,047	-0,08
317,51	-0,07
317,973	-0,06
318,437	-0,05
318,9	-0,04
319,363	-0,03
319,826	-0,03
320,29	-0,03
320,753	-0,03
321,216	-0,03
321,679	-0,04
322,142	-0,04
322,605	-0,05
323,068	-0,05
323,531	-0,06
323,994	-0,05
324,457	-0,05
324,92	-0,03
325,382	-0,03
325,845	-0,03
326,308	-0,03
326,771	-0,02
327,233	-0,01
327,696	-0
328,159	0,01
328,622	0,01
329,084	0,01
329,547	0,02
330,009	0,02
330,472	0,03
330,934	0,03
331,397	0,04
331,859	0,04
332,322	0,04
332,784	0,04
333,246	0,05
333,709	0,05
334,171	0,06
334,633	0,06
335,096	0,06
335,558	0,07
336,02	0,06
336,482	0,06
336,944	0,07
337,406	0,08
337,868	0,09
338,331	0,09
338,793	0,1
339,255	0,11
339,717	0,11
340,178	0,13
340,64	0,13
341,102	0,15
341,564	0,16
342,026	0,18
342,488	0,19
342,949	0,2
343,411	0,24
343,873	0,27
344,335	0,3
344,796	0,33
345,258	0,38
345,719	0,43
346,181	0,48
346,643	0,52
347,104	0,56
347,566	0,59
348,027	0,62
348,488	0,65
348,95	0,67
349,411	0,7
349,873	0,73
350,334	0,75
350,795	0,77
351,256	0,78
351,718	0,79
352,179	0,8
352,64	0,8
353,101	0,81
353,562	0,81
354,023	0,82
354,484	0,82
354,945	0,82
355,406	0,83
355,867	0,83
356,328	0,83
356,789	0,84
357,25	0,85
357,711	0,85
358,172	0,85
358,633	0,85
359,093	0,85
359,554	0,85
360,015	0,86
360,476	0,86
360,936	0,86
361,397	0,86
361,858	0,86
362,318	0,86
362,779	0,86
363,239	0,86
363,7	0,86
364,16	0,86
364,621	0,86
365,081	0,86
365,541	0,86
366,002	0,86
366,462	0,86
366,922	0,86
367,383	0,86
367,843	0,86
368,303	0,86
368,763	0,86
369,223	0,86
369,684	0,86
370,144	0,86
370,604	0,86
371,064	0,86
371,524	0,86
371,984	0,86
372,444	0,86
372,904	0,86
373,363	0,86
373,823	0,86
374,283	0,86
374,743	0,86
375,203	0,86
375,663	0,86
376,122	0,86
376,582	0,86
377,042	0,86
377,501	0,86
377,961	0,86
378,42	0,86
378,88	0,86
379,34	0,85
379,799	0,85
380,259	0,85
380,718	0,85
381,177	0,85
381,637	0,85
382,096	0,85
382,555	0,85
383,015	0,85
383,474	0,85
383,933	0,85
384,393	0,85
384,852	0,85
385,311	0,85
385,77	0,85
386,229	0,85
386,688	0,85
387,147	0,85
387,606	0,85
388,065	0,85
388,524	0,85
388,983	0,85
389,442	0,84
389,901	0,84
390,36	0,84
390,819	0,84
391,277	0,84
391,736	0,84
392,195	0,84
392,654	0,84
393,112	0,84
393,571	0,84
394,03	0,84
394,488	0,84
394,947	0,84
395,405	0,84
395,864	0,84
396,322	0,84
396,781	0,84
397,239	0,84
397,698	0,84
398,156	0,84
398,614	0,84
399,073	0,84
399,531	0,84
399,989	0,84
400,447	0,84
400,905	0,84
401,364	0,84
401,822	0,84
402,28	0,84
402,738	0,83
403,196	0,83
403,654	0,83
404,112	0,83
404,57	0,83
405,028	0,83
405,486	0,83
405,944	0,83
406,402	0,83
406,859	0,83
407,317	0,83
407,775	0,83
408,233	0,83
408,691	0,83
409,148	0,83
409,606	0,83
410,064	0,83
410,521	0,83
410,979	0,83
411,436	0,83
411,894	0,83
412,351	0,83
412,809	0,83
413,266	0,83
413,724	0,83
414,181	0,83
414,638	0,83
415,096	0,83
415,553	0,83
416,01	0,83
416,467	0,83
416,925	0,83
417,382	0,83
417,839	0,83
418,296	0,83
418,753	0,83
419,21	0,83
419,667	0,82
420,124	0,82
420,581	0,82
421,038	0,82
421,495	0,82
421,952	0,83
422,409	0,82
422,866	0,82
423,322	0,83
423,779	0,83
424,236	0,83
424,693	0,83
425,149	0,83
425,606	0,83
426,063	0,83
426,519	0,83
426,976	0,83
427,433	0,83
427,889	0,83
428,346	0,82
428,802	0,82
429,258	0,82
429,715	0,82
430,171	0,82
430,628	0,82
431,084	0,82
431,54	0,82
431,997	0,82
432,453	0,82
432,909	0,82
433,365	0,82
433,821	0,82
434,277	0,82
434,734	0,82
435,19	0,82
435,646	0,82
436,102	0,82
436,558	0,82
437,014	0,82
437,47	0,82
437,925	0,82
438,381	0,82
438,837	0,82
439,293	0,82
439,749	0,82
440,205	0,82
440,66	0,82
441,116	0,82
441,572	0,82
442,027	0,82
442,483	0,82
442,939	0,82
443,394	0,82
443,85	0,82
444,305	0,82
444,761	0,82
445,216	0,82
445,672	0,82
446,127	0,82
446,582	0,83
447,038	0,83
447,493	0,83
447,948	0,83
448,403	0,83
448,859	0,83
449,314	0,83
449,769	0,83
450,224	0,83
450,679	0,83
451,134	0,83
451,589	0,83
452,044	0,83
452,499	0,83
452,954	0,83
453,409	0,83
453,864	0,83
454,319	0,83
454,774	0,83
455,229	0,83
455,684	0,83
456,138	0,83
456,593	0,83
457,048	0,83
457,503	0,83
457,957	0,83
458,412	0,83
458,866	0,83
459,321	0,83
459,776	0,84
460,23	0,84
460,685	0,84
461,139	0,84
461,593	0,84
462,048	0,84
462,502	0,84
462,957	0,84
463,411	0,84
463,865	0,84
464,319	0,85
464,774	0,85
465,228	0,85
465,682	0,85
466,136	0,85
466,59	0,85
467,044	0,85
467,499	0,85
467,953	0,85
468,407	0,85
468,861	0,85
469,315	0,85
469,768	0,86
470,222	0,86
470,676	0,86
471,13	0,86
471,584	0,86
472,038	0,86
472,491	0,86
472,945	0,86
473,399	0,86
473,852	0,87
474,306	0,87
474,76	0,87
475,213	0,87
475,667	0,87
476,12	0,87
476,574	0,87
477,027	0,87
477,481	0,88
477,934	0,88
478,388	0,88
478,841	0,88
479,294	0,88
479,748	0,89
480,201	0,89
480,654	0,89
481,107	0,89
481,561	0,89
482,014	0,9
482,467	0,9
482,92	0,9
483,373	0,9
483,826	0,9
484,279	0,91
484,732	0,91
485,185	0,91
485,638	0,91
486,091	0,91
486,544	0,92
486,997	0,92
487,449	0,92
487,902	0,92
488,355	0,93
488,808	0,93
489,26	0,93
489,713	0,94
490,166	0,94
490,618	0,94
491,071	0,94
491,523	0,95
491,976	0,95
492,429	0,95
492,881	0,96
493,333	0,96
493,786	0,96
494,238	0,97
494,691	0,97
495,143	0,98
495,595	0,98
496,048	0,98
496,5	0,99
496,952	0,99
497,404	1
497,856	1
498,309	1
498,761	1,01
499,213	1,01
499,665	1,02
500,117	1,02
500,569	1,03
501,021	1,03
501,473	1,03
501,925	1,04
502,377	1,04
502,828	1,05
503,28	1,05
503,732	1,06
504,184	1,06
504,636	1,07
505,087	1,07
505,539	1,07
505,991	1,08
506,442	1,08
506,894	1,09
507,345	1,09
507,797	1,1
508,249	1,1
508,7	1,1
509,151	1,11
509,603	1,11
510,054	1,12
510,506	1,12
510,957	1,13
511,408	1,13
511,86	1,14
512,311	1,14
512,762	1,14
513,213	1,14
513,665	1,15
514,116	1,15
514,567	1,16
515,018	1,16
515,469	1,16
515,92	1,17
516,371	1,17
516,822	1,17
517,273	1,18
517,724	1,18
518,175	1,18
518,626	1,19
519,076	1,19
519,527	1,19
519,978	1,19
520,429	1,19
520,88	1,2
521,33	1,2
521,781	1,2
522,232	1,2
522,682	1,2
523,133	1,21
523,583	1,21
524,034	1,21
524,484	1,21
524,935	1,21
525,385	1,21
525,836	1,21
526,286	1,21
526,736	1,21
527,187	1,21
527,637	1,21
528,087	1,21
528,538	1,21
528,988	1,21
529,438	1,21
529,888	1,21
530,338	1,21
530,788	1,2
531,238	1,2
531,688	1,2
532,139	1,2
532,589	1,2
533,038	1,2
533,488	1,2
533,938	1,19
534,388	1,19
534,838	1,19
535,288	1,18
535,738	1,18
536,187	1,17
536,637	1,17
537,087	1,17
537,537	1,16
537,986	1,16
538,436	1,15
538,885	1,15
539,335	1,14
539,785	1,13
540,234	1,13
540,684	1,12
541,133	1,12
541,582	1,12
542,032	1,11
542,481	1,1
542,931	1,1
543,38	1,09
543,829	1,09
544,278	1,08
544,728	1,07
545,177	1,07
545,626	1,06
546,075	1,06
546,524	1,05
546,973	1,05
547,422	1,04
547,871	1,04
548,32	1,03
548,769	1,03
549,218	1,03
549,667	1,03
550,116	1,02
550,565	1,02
551,014	1,01
551,463	1,01
551,911	1
552,36	1
552,809	0,99
553,258	0,99
553,706	0,98
554,155	0,98
554,603	0,97
555,052	0,97
555,501	0,96
555,949	0,95
556,398	0,95
556,846	0,94
557,294	0,94
557,743	0,93
558,191	0,93
558,64	0,92
559,088	0,91
559,536	0,91
559,985	0,9
560,433	0,9
560,881	0,89
561,329	0,89
561,777	0,88
562,225	0,88
562,674	0,87
563,122	0,87
563,57	0,87
564,018	0,86
564,466	0,86
564,914	0,85
565,362	0,85
565,809	0,84
566,257	0,83
566,705	0,83
567,153	0,82
567,601	0,82
568,048	0,82
568,496	0,81
568,944	0,81
569,392	0,8
569,839	0,8
570,287	0,79
570,734	0,79
571,182	0,79
571,63	0,78
572,077	0,78
572,525	0,77
572,972	0,77
573,419	0,77
573,867	0,76
574,314	0,76
574,761	0,75
575,209	0,75
575,656	0,74
576,103	0,74
576,551	0,74
576,998	0,73
577,445	0,73
577,892	0,73
578,339	0,72
578,786	0,72
579,233	0,72
579,68	0,71
580,127	0,71
580,574	0,71
581,021	0,7
581,468	0,7
581,915	0,7
582,362	0,69
582,809	0,69
583,255	0,69
583,702	0,69
584,149	0,68
584,596	0,68
585,042	0,68
585,489	0,67
585,936	0,67
586,382	0,67
586,829	0,67
587,275	0,66
587,722	0,66
588,168	0,66
588,615	0,65
589,061	0,65
589,508	0,65
589,954	0,65
590,4	0,65
590,847	0,64
591,293	0,64
591,739	0,64
592,185	0,64
592,632	0,64
593,078	0,63
593,524	0,63
593,97	0,63
594,416	0,63
594,862	0,63
595,308	0,63
595,754	0,62
596,2	0,62
596,646	0,62
597,092	0,62
597,538	0,61
597,984	0,61
598,43	0,61
598,876	0,61
599,321	0,61
599,767	0,61
600,213	0,61
600,659	0,6
601,104	0,6
601,55	0,6
601,995	0,6
602,441	0,6
602,887	0,6
603,332	0,59
603,778	0,59
604,223	0,59
604,668	0,59
605,114	0,59
605,559	0,59
606,005	0,59
606,45	0,59
606,895	0,59
607,341	0,58
607,786	0,58
608,231	0,58
608,676	0,57
609,121	0,57
609,566	0,56
610,012	0,56
610,457	0,55
610,902	0,55
611,347	0,54
611,792	0,54
612,237	0,54
612,682	0,54
613,127	0,54
613,571	0,54
614,016	0,54
614,461	0,55
614,906	0,55
615,351	0,55
615,795	0,55
616,24	0,55
616,685	0,55
617,129	0,55
617,574	0,55
618,019	0,55
618,463	0,55
618,908	0,55
619,352	0,55
619,797	0,55
620,241	0,55
620,686	0,55
621,13	0,55
621,574	0,54
622,019	0,54
622,463	0,54
622,907	0,54
623,352	0,54
623,796	0,54
624,24	0,54
624,684	0,54
625,128	0,54
625,572	0,54
626,016	0,54
626,461	0,53
626,905	0,53
627,349	0,53
627,793	0,53
628,236	0,53
628,68	0,53
629,124	0,53
629,568	0,53
630,012	0,53
630,456	0,53
630,9	0,53
631,343	0,53
631,787	0,53
632,231	0,53
632,674	0,53
633,118	0,53
633,562	0,53
634,005	0,53
634,449	0,53
634,892	0,53
635,336	0,53
635,779	0,53
636,223	0,52
636,666	0,52
637,109	0,52
637,553	0,52
637,996	0,52
638,439	0,52
638,883	0,52
639,326	0,52
639,769	0,52
640,212	0,52
640,655	0,52
641,099	0,52
641,542	0,52
641,985	0,52
642,428	0,52
642,871	0,52
643,314	0,52
643,757	0,52
644,2	0,51
644,643	0,51
645,085	0,51
645,528	0,51
645,971	0,51
646,414	0,51
646,857	0,51
647,299	0,51
647,742	0,51
648,185	0,51
648,627	0,51
649,07	0,51
649,513	0,51
649,955	0,51
650,398	0,51
650,84	0,51
651,283	0,51
651,725	0,51
652,168	0,51
652,61	0,51
653,052	0,51
653,495	0,5
653,937	0,42
654,379	0,36
654,821	0,37
655,264	0,37
655,706	0,37
656,148	0,37
656,59	0,37
657,032	0,37
657,474	0,37
657,916	0,37
658,358	0,36
658,8	0,42
659,242	0,5
659,684	0,5
660,126	0,5
660,568	0,5
661,01	0,5
661,452	0,5
661,894	0,5
662,335	0,5
662,777	0,5
663,219	0,5
663,661	0,5
664,102	0,5
664,544	0,5
664,985	0,5
665,427	0,5
665,869	0,5
666,31	0,5
666,752	0,5
667,193	0,5
667,634	0,5
668,076	0,5
668,517	0,5
668,959	0,5
669,4	0,5
669,841	0,5
670,282	0,5
670,724	0,5
671,165	0,5
671,606	0,5
672,047	0,5
672,488	0,5
672,929	0,49
673,37	0,49
673,811	0,49
674,252	0,49
674,693	0,49
675,134	0,49
675,575	0,49
676,016	0,49
676,457	0,49
676,898	0,49
677,339	0,49
677,78	0,49
678,22	0,49
678,661	0,49
679,102	0,49
679,542	0,49
679,983	0,49
680,424	0,49
680,864	0,49
681,305	0,49
681,745	0,49
682,186	0,49
682,626	0,49
683,067	0,49
683,507	0,49
683,948	0,49
684,388	0,49
684,828	0,49
685,269	0,49
685,709	0,49
686,149	0,49
686,589	0,49
687,029	0,49
687,47	0,48
687,91	0,48
688,35	0,48
688,79	0,48
689,23	0,48
689,67	0,48
690,11	0,48
690,55	0,48
690,99	0,48
691,43	0,48
691,87	0,48
692,31	0,48
692,749	0,48
693,189	0,47
693,629	0,47
694,069	0,47
694,508	0,47
694,948	0,47
695,388	0,47
695,827	0,47
696,267	0,47
696,706	0,48
697,146	0,48
697,586	0,48
698,025	0,48
698,464	0,48
698,904	0,48
699,343	0,48
699,783	0,48
700,222	0,48
700,661	0,48
701,101	0,48
701,54	0,48
701,979	0,48
702,418	0,48
702,857	0,48
703,297	0,48
703,736	0,48
704,175	0,48
704,614	0,48
705,053	0,48
705,492	0,48
705,931	0,48
706,37	0,48
706,809	0,48
707,248	0,48
707,687	0,47
708,125	0,47
708,564	0,47
709,003	0,47
709,442	0,47
709,88	0,47
710,319	0,47
710,758	0,47
711,196	0,47
711,635	0,47
712,074	0,47
712,512	0,47
712,951	0,47
713,389	0,47
713,828	0,47
714,266	0,47
714,705	0,47
715,143	0,47
715,581	0,47
716,02	0,47
716,458	0,47
716,896	0,47
717,334	0,47
717,773	0,47
718,211	0,47
718,649	0,47
719,087	0,47
719,525	0,47
719,963	0,47
720,401	0,47
720,839	0,47
721,277	0,47
721,715	0,47
722,153	0,47
722,591	0,47
723,029	0,47
723,467	0,47
723,905	0,47
724,342	0,47
724,78	0,47
725,218	0,47
725,656	0,47
726,093	0,47
726,531	0,47
726,969	0,47
727,406	0,47
727,844	0,47
728,281	0,47
728,719	0,46
729,156	0,46
729,594	0,46
730,031	0,46
730,469	0,46
730,906	0,46
731,343	0,46
731,781	0,46
732,218	0,46
732,655	0,46
733,092	0,46
733,53	0,46
733,967	0,46
734,404	0,46
734,841	0,46
735,278	0,46
735,715	0,46
736,152	0,46
736,589	0,46
737,026	0,46
737,463	0,46
737,9	0,46
738,337	0,46
738,774	0,46
739,211	0,46
739,647	0,46
740,084	0,46
740,521	0,46
740,958	0,46
741,394	0,46
741,831	0,46
742,268	0,46
742,704	0,46
743,141	0,46
743,577	0,46
744,014	0,46
744,45	0,46
744,887	0,45
745,323	0,45
745,76	0,45
746,196	0,45
746,632	0,45
747,069	0,45
747,505	0,45
747,941	0,45
748,378	0,45
748,814	0,45
749,25	0,45
749,686	0,45
750,122	0,45
750,558	0,45
750,994	0,45
751,43	0,45
751,866	0,46
752,302	0,45
752,738	0,45
753,174	0,45
753,61	0,45
754,046	0,45
754,482	0,45
754,918	0,45
755,354	0,45
755,789	0,45
756,225	0,45
756,661	0,45
757,096	0,45
757,532	0,44
757,968	0,44
758,403	0,44
758,839	0,44
759,274	0,44
759,71	0,43
760,145	0,43
760,581	0,42
761,016	0,42
761,452	0,41
761,887	0,41
762,322	0,4
762,758	0,4
763,193	0,4
763,628	0,39
764,063	0,38
764,499	0,37
764,934	0,36
765,369	0,36
765,804	0,35
766,239	0,34
766,674	0,33
767,109	0,32
767,544	0,32
767,979	0,3
768,414	0,29
768,849	0,28
769,284	0,28
769,719	0,27
770,154	0,26
770,588	0,25
771,023	0,24
771,458	0,23
771,893	0,22
772,327	0,2
772,762	0,19
773,197	0,19
773,631	0,18
774,066	0,17
774,5	0,16
774,935	0,15
775,369	0,14
775,804	0,13
776,238	0,12
776,673	0,11
777,107	0,1
777,541	0,09
777,976	0,08
778,41	0,07
778,844	0,06
779,279	0,06
779,713	0,05
780,147	0,04
780,581	0,03
781,015	0,02
781,449	0,01
781,883	0,01
782,317	-0,01
782,751	-0,02
783,185	-0,03
783,619	-0,04
784,053	-0,05
784,487	-0,06
784,921	-0,07
785,355	-0,07
785,789	-0,08
786,223	-0,09
786,656	-0,1
787,09	-0,12
787,524	-0,13
787,957	-0,14
788,391	-0,15
788,825	-0,17
789,258	-0,18
789,692	-0,19
790,125	-0,21
790,559	-0,22
790,992	-0,24
791,426	-0,27
791,859	-0,28
792,293	-0,31
792,726	-0,32
793,159	-0,34
793,593	-0,36
794,026	-0,39
794,459	-0,42
794,892	-0,45
795,326	-0,47
795,759	-0,51
796,192	-0,55
796,625	-0,6
797,058	-0,62
797,491	-0,67
797,924	-0,71
798,357	-0,76
798,79	-0,8
799,223	-0,84
799,656	-0,9
800,089	-0,94
800,522	-0,98
800,955	-1,03
801,387	-1,08
801,82	-1,13
802,253	-1,2
802,686	-1,28
803,118	-1,33
803,551	-1,39
803,984	-1,43
804,416	-1,46
804,849	-1,49
805,281	-1,59
805,714	-1,91
806,146	-2,4
806,579	-2,68
807,011	-2,85
807,444	-2,95
807,876	-3,04
808,308	-3,07
808,741	-3,1
809,173	-3,15
809,605	-3,17
810,037	-3,25
810,47	-3,18
810,902	-2,98
811,334	-2,84
811,766	-2,68
812,198	-2,44
812,63	-2,01
813,062	-1,79
813,494	-1,69
813,926	-1,6
814,358	-1,55
814,79	-1,47
815,222	-1,41
815,654	-1,36
816,086	-1,3
816,518	-1,24
816,949	-1,19
817,381	-1,15
817,813	-1,13
818,245	-1,09
818,676	-1,05
819,108	-1,01
819,54	-1
819,971	-0,97
820,403	-0,92
820,834	-0,91
821,266	-0,87
821,697	-0,85
822,129	-0,83
822,56	-0,81
822,991	-0,79
823,423	-0,76
823,854	-0,76
824,286	-0,73
824,717	-0,73
825,148	-0,71
825,579	-0,7
826,01	-0,68
826,442	-0,68
826,873	-0,66
827,304	-0,63
827,735	-0,62
828,166	-0,63
828,597	-0,63
829,028	-0,62
829,459	-0,63
829,89	-0,63
830,321	-0,58
830,752	-0,59
831,183	-0,57
831,613	-0,57
832,044	-0,56
832,475	-0,55
832,906	-0,57
833,336	-0,57
833,767	-0,57
834,198	-0,56
834,628	-0,54
835,059	-0,57
835,49	-0,59
835,92	-0,56
836,351	-0,56
836,781	-0,56
837,212	-0,57
837,642	-0,57
838,072	-0,55
838,503	-0,56
838,933	-0,54
839,364	-0,55
839,794	-0,53
840,224	-0,51
840,654	-0,56
841,085	-0,57
841,515	-0,54
841,945	-0,54
842,375	-0,5
842,805	-0,48
843,235	-0,47
843,665	-0,48
844,095	-0,46
844,525	-0,48
844,955	-0,49
845,385	-0,46
845,815	-0,44
846,245	-0,47
846,675	-0,48
847,105	-0,5
847,534	-0,5
847,964	-0,48
848,394	-0,46
848,824	-0,5
849,253	-0,5
849,683	-0,5
850,112	-0,51
850,542	-0,54
850,972	-0,53
851,401	-0,51
851,831	-0,49
852,26	-0,5
852,69	-0,54
853,119	-0,53
853,548	-0,53
853,978	-0,53
854,407	-0,51
854,836	-0,51
855,266	-0,51
855,695	-0,52
856,124	-0,55
856,553	-0,56
856,983	-0,58
857,412	-0,57
857,841	-0,57
858,27	-0,58
858,699	-0,58
859,128	-0,62
859,557	-0,63
859,986	-0,65
860,415	-0,62
860,844	-0,59
861,273	-0,59
861,702	-0,6
862,13	-0,58
862,559	-0,6
862,988	-0,58
863,417	-0,57
863,845	-0,56
864,274	-0,56
864,703	-0,56
865,131	-0,57
865,56	-0,58
865,989	-0,6
866,417	-0,58
866,846	-0,58
867,274	-0,58
867,703	-0,6
868,131	-0,62
868,559	-0,63
868,988	-0,65
869,416	-0,63
869,844	-0,64
870,273	-0,66
870,701	-0,64
871,129	-0,67
871,557	-0,7
871,986	-0,69
872,414	-0,69
872,842	-0,66
873,27	-0,64
873,698	-0,6
874,126	-0,65
874,554	-0,63
874,982	-0,63
875,41	-0,66
875,838	-0,61
876,266	-0,59
876,694	-0,59
877,122	-0,59
877,549	-0,64
877,977	-0,62
878,405	-0,65
878,833	-0,61
879,26	-0,59
879,688	-0,59
880,116	-0,58
880,543	-0,57
880,971	-0,56
881,399	-0,59
881,826	-0,59
882,254	-0,57
882,681	-0,61
883,109	-0,57
883,536	-0,58
883,963	-0,6
884,391	-0,58
884,818	-0,56
885,245	-0,58
885,673	-0,6
886,1	-0,57
886,527	-0,57
886,954	-0,54
887,381	-0,56
887,809	-0,57
888,236	-0,58
888,663	-0,58
889,09	-0,63
889,517	-0,65
889,944	-0,64
890,371	-0,63
890,798	-0,64
891,225	-0,64
891,652	-0,67
892,078	-0,64
892,505	-0,67
892,932	-0,63
893,359	-0,64
893,786	-0,64
894,212	-0,6
894,639	-0,62
895,066	-0,64
895,492	-0,58
895,919	-0,59
896,346	-0,58
896,772	-0,58
897,199	-0,55
897,625	-0,58
898,052	-0,55
898,478	-0,53
898,904	-0,54
899,331	-0,54
899,757	-0,55
900,183	-0,57
900,61	-0,55
901,036	-0,55
901,462	-0,56
901,888	-0,55
902,315	-0,53
902,741	-0,58
903,167	-0,56
903,593	-0,6
904,019	-0,58
904,445	-0,55
904,871	-0,58
905,297	-0,6
905,723	-0,59
906,149	-0,58
906,575	-0,59
907,001	-0,59
907,427	-0,56
907,852	-0,56
908,278	-0,57
908,704	-0,55
909,13	-0,55
909,555	-0,54
909,981	-0,53
910,407	-0,54
910,832	-0,53
911,258	-0,53
911,684	-0,53
912,109	-0,54
912,535	-0,55
912,96	-0,51
913,386	-0,55
913,811	-0,54
914,236	-0,56
914,662	-0,54
915,087	-0,57
915,512	-0,57
915,938	-0,59
916,363	-0,59
916,788	-0,61
917,213	-0,58
917,639	-0,63
918,064	-0,59
918,489	-0,6
918,914	-0,59
919,339	-0,62
919,764	-0,59
920,189	-0,59
920,614	-0,61
921,039	-0,61
921,464	-0,57
921,889	-0,6
922,314	-0,61
922,738	-0,64
923,163	-0,65
923,588	-0,65
924,013	-0,64
924,437	-0,64
924,862	-0,66
925,287	-0,61
925,711	-0,62
926,136	-0,64
926,561	-0,62
926,985	-0,6
927,41	-0,58
927,834	-0,56
928,259	-0,54
928,683	-0,52
929,108	-0,49
929,532	-0,49
929,956	-0,49
930,381	-0,47
930,805	-0,48
931,229	-0,47
931,653	-0,46
932,078	-0,46
932,502	-0,47
932,926	-0,48
933,35	-0,48
933,774	-0,48
934,198	-0,46
934,622	-0,44
935,046	-0,45
935,47	-0,45
935,894	-0,45
936,318	-0,45
936,742	-0,45
937,166	-0,45
937,59	-0,45
938,014	-0,47
938,437	-0,48
938,861	-0,5
939,285	-0,51
939,709	-0,5
940,132	-0,5
940,556	-0,51
940,98	-0,51
941,403	-0,49
941,827	-0,5
942,25	-0,5
942,674	-0,49
943,097	-0,49
943,521	-0,48
943,944	-0,5
944,368	-0,5
944,791	-0,48
945,214	-0,49
945,638	-0,49
946,061	-0,51
946,484	-0,52
946,907	-0,5
947,331	-0,5
947,754	-0,54
948,177	-0,51
948,6	-0,51
949,023	-0,51
949,446	-0,51
949,869	-0,49
950,292	-0,5
950,715	-0,48
951,138	-0,47
951,561	-0,45
951,984	-0,44
952,407	-0,43
952,83	-0,41
953,252	-0,36
953,675	-0,36
954,098	-0,37
954,521	-0,35
954,943	-0,34
955,366	-0,35
955,789	-0,32
956,211	-0,34
956,634	-0,35
957,056	-0,33
957,479	-0,34
957,902	-0,36
958,324	-0,36
958,746	-0,35
959,169	-0,36
959,591	-0,36
960,014	-0,37
960,436	-0,38
960,858	-0,37
961,281	-0,37
961,703	-0,38
962,125	-0,38
962,547	-0,36
962,969	-0,37
963,391	-0,37
963,814	-0,39
964,236	-0,39
964,658	-0,36
965,08	-0,37
965,502	-0,36
965,924	-0,34
966,346	-0,34
966,768	-0,33
967,189	-0,34
967,611	-0,33
968,033	-0,33
968,455	-0,31
968,877	-0,31
969,298	-0,31
969,72	-0,32
970,142	-0,31
970,563	-0,31
970,985	-0,3
971,407	-0,29
971,828	-0,27
972,25	-0,27
972,671	-0,25
973,093	-0,25
973,514	-0,24
973,936	-0,22
974,357	-0,21
974,778	-0,21
975,2	-0,21
975,621	-0,2
976,042	-0,18
976,464	-0,18
976,885	-0,16
977,306	-0,15
977,727	-0,15
978,148	-0,14
978,57	-0,12
978,991	-0,11
979,412	-0,09
979,833	-0,07
980,254	-0,07
980,675	-0,07
981,096	-0,05
981,517	-0,03
981,937	-0,03
982,358	-0,02
982,779	0
983,2	-0
983,621	0
984,042	0,02
984,462	0,02
984,883	0,04
985,304	0,06
985,724	0,07
986,145	0,07
986,565	0,08
986,986	0,09
987,407	0,1
987,827	0,11
988,248	0,13
988,668	0,14
989,088	0,16
989,509	0,17
989,929	0,18
990,35	0,19
990,77	0,2
991,19	0,21
991,61	0,23
992,031	0,24
992,451	0,25
992,871	0,26
993,291	0,27
993,711	0,28
994,131	0,28
994,551	0,29
994,971	0,31
995,391	0,32
995,811	0,33
996,231	0,33
996,651	0,34
997,071	0,35
997,491	0,36
997,911	0,37
998,331	0,38
998,75	0,38
999,17	0,39
999,59	0,39
1000,009	0,4
1000,429	0,4
1000,849	0,41
1001,268	0,41
1001,688	0,42
1002,107	0,42
1002,527	0,42
1002,946	0,43
1003,366	0,43
1003,785	0,43
1004,205	0,43
1004,624	0,44
1005,044	0,44
1005,463	0,44
1005,882	0,44
1006,301	0,45
1006,721	0,45
1007,14	0,45
1007,559	0,45
1007,978	0,45
1008,397	0,46
1008,816	0,46
1009,235	0,46
1009,655	0,46
1010,074	0,46
1010,492	0,45
1010,911	0,45
1011,33	0,45
1011,749	0,45
1012,168	0,45
1012,587	0,45
1013,006	0,45
1013,425	0,45
1013,843	0,45
1014,262	0,45
1014,681	0,45
1015,099	0,45
1015,518	0,45
1015,937	0,45
1016,355	0,45
1016,774	0,45
1017,192	0,45
1017,611	0,45
1018,029	0,45
1018,448	0,45
1018,866	0,45
1019,285	0,45
1019,703	0,44
1020,121	0,44
1020,54	0,44
1020,958	0,44
1021,376	0,44
1021,794	0,44
1022,213	0,44
1022,631	0,44
1023,049	0,44
1023,467	0,44
1023,885	0,44
1024,303	0,44
1024,721	0,44
1025,139	0,44
1025,557	0,44
1025,975	0,44
1026,393	0,43
1026,811	0,43
1027,229	0,43
1027,647	0,43
1028,065	0,43
1028,482	0,43
1028,9	0,43
1029,318	0,43
1029,735	0,43
1030,153	0,43
1030,571	0,43
1030,988	0,43
1031,406	0,43
1031,823	0,43
1032,241	0,43
1032,659	0,43
1033,076	0,43
1033,493	0,43
1033,911	0,43
1034,328	0,44
1034,746	0,44
1035,163	0,43
1035,58	0,43
1035,997	0,43
1036,415	0,43
1036,832	0,43
1037,249	0,43
1037,666	0,43
1038,083	0,43
1038,501	0,43
1038,918	0,43
1039,335	0,43
1039,752	0,43
1040,169	0,43
1040,586	0,43
1041,003	0,43
1041,419	0,43
1041,836	0,43
1042,253	0,43
1042,67	0,43
1043,087	0,43
1043,504	0,43
1043,92	0,43
1044,337	0,43
1044,754	0,43
1045,17	0,43
1045,587	0,42
1046,004	0,42
1046,42	0,42
1046,837	0,42
1047,253	0,42
1047,67	0,42
1048,086	0,42
1048,503	0,42
1048,919	0,42
1049,335	0,42
1049,752	0,43
1050,168	0,43
1050,584	0,43
1051,001	0,43
1051,417	0,43
1051,833	0,43
1052,249	0,43
1052,665	0,43
1053,081	0,43
1053,497	0,43
1053,914	0,43
1054,33	0,43
1054,746	0,43
1055,162	0,44
1055,578	0,44
1055,993	0,44
1056,409	0,44
1056,825	0,44
1057,241	0,44
1057,657	0,44
1058,073	0,44
1058,488	0,44
1058,904	0,44
1059,32	0,44
1059,736	0,44
1060,151	0,44
1060,567	0,44
1060,982	0,44
1061,398	0,44
1061,813	0,44
1062,229	0,44
1062,644	0,44
1063,06	0,44
1063,475	0,44
1063,891	0,44
1064,306	0,44
1064,721	0,44
1065,137	0,44
1065,552	0,44
1065,967	0,44
1066,382	0,44
1066,798	0,44
1067,213	0,43
1067,628	0,43
1068,043	0,44
1068,458	0,44
1068,873	0,44
1069,288	0,44
1069,703	0,44
1070,118	0,44
1070,533	0,44
1070,948	0,44
1071,363	0,44
1071,778	0,44
1072,193	0,44
1072,607	0,44
1073,022	0,44
1073,437	0,44
1073,852	0,44
1074,266	0,44
1074,681	0,44
1075,096	0,44
1075,51	0,44
1075,925	0,44
1076,339	0,44
1076,754	0,44
1077,168	0,44
1077,583	0,44
1077,997	0,44
1078,412	0,43
1078,826	0,43
1079,24	0,43
1079,655	0,43
1080,069	0,43
1080,483	0,43
1080,897	0,43
1081,312	0,43
1081,726	0,43
1082,14	0,42
1082,554	0,42
1082,968	0,42
1083,382	0,42
1083,796	0,42
1084,21	0,42
1084,624	0,42
1085,038	0,42
1085,452	0,41
1085,866	0,41
1086,28	0,41
1086,694	0,41
1087,108	0,41
1087,521	0,41
1087,935	0,41
1088,349	0,41
1088,763	0,4
1089,176	0,4
1089,59	0,4
1090,004	0,4
1090,417	0,39
1090,831	0,39
1091,244	0,39
1091,658	0,38
1092,071	0,38
1092,485	0,38
1092,898	0,37
1093,312	0,37
1093,725	0,37
1094,138	0,37
1094,552	0,37
1094,965	0,36
1095,378	0,36
1095,791	0,36
1096,205	0,35
1096,618	0,35
1097,031	0,34
1097,444	0,34
1097,857	0,34
1098,27	0,33
1098,683	0,33
1099,096	0,33
1099,509	0,32
1099,922	0,32
1100,335	0,31
1100,748	0,31
1101,161	0,3
1101,574	0,3
1101,986	0,3
1102,399	0,3
1102,812	0,3
1103,225	0,29
1103,637	0,29
1104,05	0,28
1104,463	0,28
1104,875	0,28
1105,288	0,28
1105,7	0,27
1106,113	0,27
1106,525	0,26
1106,938	0,26
1107,35	0,25
1107,763	0,25
1108,175	0,25
1108,588	0,24
1109	0,24
1109,412	0,23
1109,824	0,23
1110,237	0,23
1110,649	0,23
1111,061	0,23
