Data from 18C-808nm-8A-cont_Absorbance__362__01791.txt Node

Date: Mon Jul 17 17:31:40 CEST 2023
User: Laser008
Spectrometer: MAYP115816
Trigger mode: 0
Integration Time (sec): 2,500000E-1
Scans to average: 10
Electric dark correction enabled: true
Nonlinearity correction enabled: true
Boxcar width: 5
XAxis mode: Wavelengths
Number of Pixels in Spectrum: 2068
>>>>>Begin Spectral Data<<<<<
198,914	-0,72
199,384	-0,49
199,855	-0,36
200,325	-0,3
200,796	-0,25
201,266	-0,2
201,737	-0,18
202,207	-0,16
202,677	-0,16
203,147	-0,15
203,618	-0,12
204,088	-0,1
204,558	-0,08
205,028	-0,08
205,498	-0,08
205,968	-0,08
206,439	-0,09
206,909	-0,08
207,379	-0,09
207,849	-0,08
208,319	-0,09
208,789	-0,09
209,258	-0,1
209,728	-0,11
210,198	-0,12
210,668	-0,12
211,138	-0,11
211,608	-0,11
212,077	-0,12
212,547	-0,12
213,017	-0,12
213,486	-0,13
213,956	-0,14
214,426	-0,14
214,895	-0,14
215,365	-0,15
215,834	-0,15
216,304	-0,16
216,773	-0,16
217,243	-0,18
217,712	-0,19
218,181	-0,19
218,651	-0,19
219,12	-0,19
219,589	-0,19
220,058	-0,18
220,528	-0,18
220,997	-0,18
221,466	-0,19
221,935	-0,2
222,404	-0,19
222,873	-0,18
223,342	-0,18
223,812	-0,18
224,281	-0,18
224,749	-0,18
225,218	-0,19
225,687	-0,19
226,156	-0,18
226,625	-0,17
227,094	-0,17
227,563	-0,17
228,031	-0,19
228,5	-0,19
228,969	-0,2
229,438	-0,19
229,906	-0,18
230,375	-0,18
230,844	-0,18
231,312	-0,17
231,781	-0,18
232,249	-0,17
232,718	-0,16
233,186	-0,14
233,655	-0,14
234,123	-0,13
234,591	-0,13
235,06	-0,13
235,528	-0,13
235,996	-0,12
236,465	-0,13
236,933	-0,12
237,401	-0,12
237,869	-0,12
238,337	-0,13
238,805	-0,11
239,274	-0,12
239,742	-0,13
240,21	-0,13
240,678	-0,12
241,146	-0,12
241,614	-0,11
242,081	-0,11
242,549	-0,11
243,017	-0,12
243,485	-0,11
243,953	-0,12
244,421	-0,1
244,888	-0,1
245,356	-0,09
245,824	-0,09
246,291	-0,1
246,759	-0,1
247,227	-0,11
247,694	-0,1
248,162	-0,09
248,629	-0,08
249,097	-0,09
249,564	-0,1
250,032	-0,11
250,499	-0,12
250,967	-0,12
251,434	-0,12
251,901	-0,12
252,369	-0,11
252,836	-0,12
253,303	-0,14
253,77	-0,16
254,237	-0,15
254,705	-0,15
255,172	-0,14
255,639	-0,14
256,106	-0,16
256,573	-0,16
257,04	-0,17
257,507	-0,18
257,974	-0,19
258,441	-0,17
258,908	-0,16
259,375	-0,17
259,841	-0,18
260,308	-0,19
260,775	-0,2
261,242	-0,18
261,709	-0,19
262,175	-0,19
262,642	-0,18
263,109	-0,18
263,575	-0,19
264,042	-0,18
264,508	-0,18
264,975	-0,19
265,441	-0,19
265,908	-0,19
266,374	-0,19
266,841	-0,19
267,307	-0,2
267,773	-0,19
268,24	-0,2
268,706	-0,19
269,172	-0,2
269,639	-0,22
270,105	-0,19
270,571	-0,19
271,037	-0,2
271,503	-0,21
271,969	-0,2
272,435	-0,19
272,902	-0,21
273,368	-0,22
273,834	-0,22
274,3	-0,23
274,765	-0,22
275,231	-0,23
275,697	-0,23
276,163	-0,23
276,629	-0,22
277,095	-0,24
277,56	-0,22
278,026	-0,23
278,492	-0,2
278,958	-0,21
279,423	-0,21
279,889	-0,21
280,354	-0,21
280,82	-0,21
281,286	-0,22
281,751	-0,22
282,217	-0,21
282,682	-0,21
283,147	-0,21
283,613	-0,22
284,078	-0,22
284,544	-0,23
285,009	-0,23
285,474	-0,23
285,939	-0,23
286,405	-0,22
286,87	-0,22
287,335	-0,22
287,8	-0,21
288,265	-0,2
288,73	-0,21
289,195	-0,23
289,66	-0,22
290,125	-0,2
290,59	-0,21
291,055	-0,21
291,52	-0,21
291,985	-0,22
292,45	-0,22
292,915	-0,22
293,38	-0,22
293,844	-0,21
294,309	-0,2
294,774	-0,19
295,239	-0,21
295,703	-0,21
296,168	-0,2
296,632	-0,2
297,097	-0,18
297,562	-0,17
298,026	-0,17
298,491	-0,18
298,955	-0,16
299,419	-0,16
299,884	-0,16
300,348	-0,14
300,813	-0,13
301,277	-0,14
301,741	-0,14
302,205	-0,14
302,67	-0,13
303,134	-0,14
303,598	-0,14
304,062	-0,14
304,526	-0,13
304,99	-0,15
305,454	-0,15
305,919	-0,14
306,383	-0,14
306,847	-0,13
307,31	-0,15
307,774	-0,16
308,238	-0,15
308,702	-0,15
309,166	-0,17
309,63	-0,17
310,094	-0,14
310,557	-0,12
311,021	-0,13
311,485	-0,13
311,948	-0,13
312,412	-0,12
312,876	-0,11
313,339	-0,12
313,803	-0,12
314,266	-0,12
314,73	-0,13
315,193	-0,13
315,657	-0,13
316,12	-0,12
316,584	-0,11
317,047	-0,1
317,51	-0,09
317,973	-0,09
318,437	-0,08
318,9	-0,06
319,363	-0,06
319,826	-0,05
320,29	-0,05
320,753	-0,06
321,216	-0,06
321,679	-0,07
322,142	-0,06
322,605	-0,07
323,068	-0,07
323,531	-0,07
323,994	-0,06
324,457	-0,06
324,92	-0,05
325,382	-0,04
325,845	-0,03
326,308	-0,03
326,771	-0,01
327,233	-0,01
327,696	-0,01
328,159	0
328,622	0,01
329,084	0,01
329,547	0,01
330,009	0,02
330,472	0,03
330,934	0,03
331,397	0,03
331,859	0,05
332,322	0,04
332,784	0,06
333,246	0,06
333,709	0,06
334,171	0,06
334,633	0,07
335,096	0,07
335,558	0,07
336,02	0,07
336,482	0,07
336,944	0,08
337,406	0,09
337,868	0,09
338,331	0,09
338,793	0,1
339,255	0,1
339,717	0,1
340,178	0,11
340,64	0,11
341,102	0,12
341,564	0,13
342,026	0,14
342,488	0,15
342,949	0,16
343,411	0,2
343,873	0,22
344,335	0,25
344,796	0,3
345,258	0,34
345,719	0,39
346,181	0,44
346,643	0,48
347,104	0,52
347,566	0,55
348,027	0,58
348,488	0,6
348,95	0,63
349,411	0,66
349,873	0,68
350,334	0,71
350,795	0,72
351,256	0,74
351,718	0,75
352,179	0,75
352,64	0,76
353,101	0,76
353,562	0,77
354,023	0,77
354,484	0,77
354,945	0,78
355,406	0,78
355,867	0,78
356,328	0,78
356,789	0,79
357,25	0,79
357,711	0,79
358,172	0,79
358,633	0,79
359,093	0,8
359,554	0,8
360,015	0,8
360,476	0,8
360,936	0,8
361,397	0,8
361,858	0,81
362,318	0,81
362,779	0,81
363,239	0,81
363,7	0,81
364,16	0,81
364,621	0,81
365,081	0,81
365,541	0,81
366,002	0,81
366,462	0,81
366,922	0,81
367,383	0,81
367,843	0,81
368,303	0,81
368,763	0,81
369,223	0,81
369,684	0,81
370,144	0,81
370,604	0,81
371,064	0,81
371,524	0,81
371,984	0,81
372,444	0,81
372,904	0,81
373,363	0,81
373,823	0,81
374,283	0,81
374,743	0,81
375,203	0,81
375,663	0,81
376,122	0,81
376,582	0,81
377,042	0,81
377,501	0,81
377,961	0,81
378,42	0,81
378,88	0,81
379,34	0,81
379,799	0,8
380,259	0,8
380,718	0,8
381,177	0,8
381,637	0,8
382,096	0,8
382,555	0,8
383,015	0,8
383,474	0,8
383,933	0,8
384,393	0,8
384,852	0,8
385,311	0,8
385,77	0,8
386,229	0,8
386,688	0,8
387,147	0,8
387,606	0,8
388,065	0,8
388,524	0,8
388,983	0,8
389,442	0,8
389,901	0,8
390,36	0,8
390,819	0,79
391,277	0,79
391,736	0,79
392,195	0,79
392,654	0,79
393,112	0,79
393,571	0,79
394,03	0,79
394,488	0,79
394,947	0,79
395,405	0,79
395,864	0,79
396,322	0,79
396,781	0,79
397,239	0,79
397,698	0,79
398,156	0,79
398,614	0,79
399,073	0,79
399,531	0,79
399,989	0,79
400,447	0,79
400,905	0,79
401,364	0,79
401,822	0,79
402,28	0,79
402,738	0,79
403,196	0,79
403,654	0,79
404,112	0,79
404,57	0,79
405,028	0,79
405,486	0,79
405,944	0,78
406,402	0,78
406,859	0,78
407,317	0,79
407,775	0,79
408,233	0,79
408,691	0,78
409,148	0,78
409,606	0,78
410,064	0,78
410,521	0,78
410,979	0,78
411,436	0,78
411,894	0,78
412,351	0,78
412,809	0,78
413,266	0,78
413,724	0,78
414,181	0,78
414,638	0,78
415,096	0,78
415,553	0,78
416,01	0,78
416,467	0,78
416,925	0,78
417,382	0,78
417,839	0,78
418,296	0,78
418,753	0,78
419,21	0,78
419,667	0,78
420,124	0,78
420,581	0,78
421,038	0,78
421,495	0,78
421,952	0,78
422,409	0,78
422,866	0,78
423,322	0,78
423,779	0,78
424,236	0,78
424,693	0,78
425,149	0,78
425,606	0,78
426,063	0,78
426,519	0,78
426,976	0,78
427,433	0,78
427,889	0,78
428,346	0,78
428,802	0,78
429,258	0,78
429,715	0,78
430,171	0,78
430,628	0,78
431,084	0,78
431,54	0,78
431,997	0,78
432,453	0,78
432,909	0,78
433,365	0,78
433,821	0,77
434,277	0,77
434,734	0,77
435,19	0,77
435,646	0,77
436,102	0,77
436,558	0,77
437,014	0,77
437,47	0,77
437,925	0,77
438,381	0,77
438,837	0,78
439,293	0,78
439,749	0,78
440,205	0,78
440,66	0,78
441,116	0,78
441,572	0,78
442,027	0,78
442,483	0,78
442,939	0,78
443,394	0,78
443,85	0,78
444,305	0,78
444,761	0,78
445,216	0,78
445,672	0,78
446,127	0,78
446,582	0,78
447,038	0,78
447,493	0,78
447,948	0,78
448,403	0,78
448,859	0,78
449,314	0,78
449,769	0,78
450,224	0,78
450,679	0,78
451,134	0,78
451,589	0,78
452,044	0,78
452,499	0,78
452,954	0,78
453,409	0,78
453,864	0,78
454,319	0,78
454,774	0,78
455,229	0,78
455,684	0,78
456,138	0,78
456,593	0,78
457,048	0,78
457,503	0,78
457,957	0,78
458,412	0,78
458,866	0,79
459,321	0,79
459,776	0,79
460,23	0,79
460,685	0,79
461,139	0,79
461,593	0,79
462,048	0,79
462,502	0,79
462,957	0,79
463,411	0,79
463,865	0,8
464,319	0,8
464,774	0,8
465,228	0,8
465,682	0,8
466,136	0,8
466,59	0,8
467,044	0,8
467,499	0,8
467,953	0,8
468,407	0,8
468,861	0,8
469,315	0,8
469,768	0,81
470,222	0,81
470,676	0,81
471,13	0,81
471,584	0,81
472,038	0,81
472,491	0,81
472,945	0,81
473,399	0,81
473,852	0,81
474,306	0,82
474,76	0,82
475,213	0,82
475,667	0,82
476,12	0,82
476,574	0,82
477,027	0,82
477,481	0,83
477,934	0,83
478,388	0,83
478,841	0,83
479,294	0,83
479,748	0,83
480,201	0,84
480,654	0,84
481,107	0,84
481,561	0,84
482,014	0,84
482,467	0,84
482,92	0,85
483,373	0,85
483,826	0,85
484,279	0,85
484,732	0,85
485,185	0,86
485,638	0,86
486,091	0,86
486,544	0,86
486,997	0,86
487,449	0,87
487,902	0,87
488,355	0,87
488,808	0,87
489,26	0,88
489,713	0,88
490,166	0,88
490,618	0,89
491,071	0,89
491,523	0,89
491,976	0,89
492,429	0,9
492,881	0,9
493,333	0,9
493,786	0,91
494,238	0,91
494,691	0,91
495,143	0,92
495,595	0,92
496,048	0,92
496,5	0,93
496,952	0,93
497,404	0,93
497,856	0,94
498,309	0,94
498,761	0,95
499,213	0,95
499,665	0,95
500,117	0,96
500,569	0,96
501,021	0,97
501,473	0,97
501,925	0,97
502,377	0,98
502,828	0,98
503,28	0,99
503,732	0,99
504,184	0,99
504,636	1
505,087	1
505,539	1,01
505,991	1,01
506,442	1,01
506,894	1,02
507,345	1,02
507,797	1,03
508,249	1,03
508,7	1,03
509,151	1,04
509,603	1,04
510,054	1,05
510,506	1,05
510,957	1,06
511,408	1,06
511,86	1,06
512,311	1,07
512,762	1,07
513,213	1,07
513,665	1,08
514,116	1,08
514,567	1,08
515,018	1,08
515,469	1,09
515,92	1,09
516,371	1,09
516,822	1,1
517,273	1,1
517,724	1,1
518,175	1,11
518,626	1,11
519,076	1,11
519,527	1,11
519,978	1,12
520,429	1,12
520,88	1,12
521,33	1,12
521,781	1,13
522,232	1,13
522,682	1,13
523,133	1,13
523,583	1,13
524,034	1,13
524,484	1,14
524,935	1,14
525,385	1,14
525,836	1,14
526,286	1,14
526,736	1,14
527,187	1,14
527,637	1,13
528,087	1,13
528,538	1,13
528,988	1,13
529,438	1,13
529,888	1,13
530,338	1,13
530,788	1,13
531,238	1,13
531,688	1,12
532,139	1,12
532,589	1,12
533,038	1,12
533,488	1,12
533,938	1,12
534,388	1,11
534,838	1,11
535,288	1,11
535,738	1,1
536,187	1,1
536,637	1,1
537,087	1,09
537,537	1,09
537,986	1,09
538,436	1,08
538,885	1,08
539,335	1,07
539,785	1,07
540,234	1,06
540,684	1,06
541,133	1,05
541,582	1,05
542,032	1,04
542,481	1,04
542,931	1,03
543,38	1,03
543,829	1,02
544,278	1,02
544,728	1,01
545,177	1,01
545,626	1,01
546,075	1
546,524	1
546,973	0,99
547,422	0,99
547,871	0,99
548,32	0,98
548,769	0,98
549,218	0,98
549,667	0,97
550,116	0,97
550,565	0,96
551,014	0,96
551,463	0,95
551,911	0,95
552,36	0,94
552,809	0,94
553,258	0,93
553,706	0,93
554,155	0,93
554,603	0,92
555,052	0,92
555,501	0,91
555,949	0,91
556,398	0,9
556,846	0,9
557,294	0,89
557,743	0,89
558,191	0,88
558,64	0,88
559,088	0,87
559,536	0,87
559,985	0,86
560,433	0,86
560,881	0,85
561,329	0,85
561,777	0,84
562,225	0,84
562,674	0,83
563,122	0,83
563,57	0,83
564,018	0,82
564,466	0,82
564,914	0,81
565,362	0,81
565,809	0,81
566,257	0,8
566,705	0,8
567,153	0,79
567,601	0,79
568,048	0,78
568,496	0,78
568,944	0,78
569,392	0,77
569,839	0,77
570,287	0,77
570,734	0,76
571,182	0,76
571,63	0,75
572,077	0,75
572,525	0,75
572,972	0,74
573,419	0,74
573,867	0,74
574,314	0,73
574,761	0,73
575,209	0,72
575,656	0,72
576,103	0,72
576,551	0,71
576,998	0,71
577,445	0,71
577,892	0,71
578,339	0,7
578,786	0,7
579,233	0,7
579,68	0,69
580,127	0,69
580,574	0,69
581,021	0,68
581,468	0,68
581,915	0,68
582,362	0,68
582,809	0,67
583,255	0,67
583,702	0,67
584,149	0,67
584,596	0,67
585,042	0,66
585,489	0,66
585,936	0,66
586,382	0,65
586,829	0,65
587,275	0,65
587,722	0,65
588,168	0,65
588,615	0,64
589,061	0,64
589,508	0,64
589,954	0,64
590,4	0,63
590,847	0,63
591,293	0,63
591,739	0,63
592,185	0,63
592,632	0,62
593,078	0,62
593,524	0,62
593,97	0,62
594,416	0,62
594,862	0,62
595,308	0,62
595,754	0,61
596,2	0,61
596,646	0,61
597,092	0,61
597,538	0,61
597,984	0,61
598,43	0,6
598,876	0,6
599,321	0,6
599,767	0,6
600,213	0,6
600,659	0,6
601,104	0,6
601,55	0,6
601,995	0,59
602,441	0,59
602,887	0,59
603,332	0,59
603,778	0,59
604,223	0,59
604,668	0,59
605,114	0,58
605,559	0,58
606,005	0,58
606,45	0,58
606,895	0,58
607,341	0,58
607,786	0,58
608,231	0,57
608,676	0,57
609,121	0,56
609,566	0,56
610,012	0,55
610,457	0,55
610,902	0,55
611,347	0,54
611,792	0,54
612,237	0,54
612,682	0,54
613,127	0,54
613,571	0,54
614,016	0,54
614,461	0,55
614,906	0,55
615,351	0,55
615,795	0,55
616,24	0,55
616,685	0,55
617,129	0,55
617,574	0,55
618,019	0,55
618,463	0,55
618,908	0,55
619,352	0,55
619,797	0,55
620,241	0,55
620,686	0,55
621,13	0,54
621,574	0,54
622,019	0,54
622,463	0,54
622,907	0,54
623,352	0,54
623,796	0,54
624,24	0,54
624,684	0,54
625,128	0,54
625,572	0,54
626,016	0,54
626,461	0,54
626,905	0,54
627,349	0,54
627,793	0,53
628,236	0,53
628,68	0,53
629,124	0,53
629,568	0,53
630,012	0,53
630,456	0,53
630,9	0,53
631,343	0,53
631,787	0,53
632,231	0,53
632,674	0,53
633,118	0,53
633,562	0,53
634,005	0,53
634,449	0,53
634,892	0,53
635,336	0,53
635,779	0,53
636,223	0,53
636,666	0,53
637,109	0,53
637,553	0,53
637,996	0,53
638,439	0,53
638,883	0,53
639,326	0,53
639,769	0,53
640,212	0,53
640,655	0,52
641,099	0,52
641,542	0,52
641,985	0,52
642,428	0,52
642,871	0,52
643,314	0,52
643,757	0,52
644,2	0,52
644,643	0,52
645,085	0,52
645,528	0,52
645,971	0,52
646,414	0,52
646,857	0,51
647,299	0,51
647,742	0,51
648,185	0,51
648,627	0,51
649,07	0,51
649,513	0,51
649,955	0,51
650,398	0,51
650,84	0,51
651,283	0,51
651,725	0,51
652,168	0,51
652,61	0,51
653,052	0,51
653,495	0,51
653,937	0,43
654,379	0,37
654,821	0,38
655,264	0,38
655,706	0,38
656,148	0,38
656,59	0,38
657,032	0,38
657,474	0,38
657,916	0,38
658,358	0,37
658,8	0,43
659,242	0,51
659,684	0,51
660,126	0,51
660,568	0,51
661,01	0,51
661,452	0,51
661,894	0,51
662,335	0,51
662,777	0,51
663,219	0,51
663,661	0,5
664,102	0,5
664,544	0,5
664,985	0,5
665,427	0,5
665,869	0,5
666,31	0,5
666,752	0,5
667,193	0,5
667,634	0,5
668,076	0,5
668,517	0,5
668,959	0,5
669,4	0,5
669,841	0,5
670,282	0,51
670,724	0,51
671,165	0,51
671,606	0,5
672,047	0,5
672,488	0,5
672,929	0,5
673,37	0,5
673,811	0,5
674,252	0,5
674,693	0,5
675,134	0,5
675,575	0,5
676,016	0,49
676,457	0,49
676,898	0,49
677,339	0,49
677,78	0,49
678,22	0,49
678,661	0,49
679,102	0,49
679,542	0,49
679,983	0,49
680,424	0,49
680,864	0,49
681,305	0,49
681,745	0,49
682,186	0,49
682,626	0,49
683,067	0,49
683,507	0,49
683,948	0,49
684,388	0,49
684,828	0,49
685,269	0,49
685,709	0,49
686,149	0,49
686,589	0,49
687,029	0,49
687,47	0,49
687,91	0,49
688,35	0,49
688,79	0,49
689,23	0,49
689,67	0,49
690,11	0,49
690,55	0,49
690,99	0,49
691,43	0,49
691,87	0,48
692,31	0,48
692,749	0,48
693,189	0,48
693,629	0,48
694,069	0,48
694,508	0,48
694,948	0,48
695,388	0,48
695,827	0,48
696,267	0,48
696,706	0,48
697,146	0,48
697,586	0,48
698,025	0,48
698,464	0,48
698,904	0,48
699,343	0,48
699,783	0,48
700,222	0,48
700,661	0,48
701,101	0,48
701,54	0,48
701,979	0,48
702,418	0,48
702,857	0,48
703,297	0,48
703,736	0,48
704,175	0,48
704,614	0,48
705,053	0,48
705,492	0,48
705,931	0,48
706,37	0,48
706,809	0,48
707,248	0,48
707,687	0,48
708,125	0,48
708,564	0,48
709,003	0,48
709,442	0,48
709,88	0,48
710,319	0,48
710,758	0,48
711,196	0,47
711,635	0,47
712,074	0,47
712,512	0,47
712,951	0,47
713,389	0,47
713,828	0,47
714,266	0,47
714,705	0,47
715,143	0,47
715,581	0,47
716,02	0,47
716,458	0,47
716,896	0,47
717,334	0,47
717,773	0,47
718,211	0,47
718,649	0,47
719,087	0,47
719,525	0,47
719,963	0,47
720,401	0,47
720,839	0,47
721,277	0,47
721,715	0,47
722,153	0,47
722,591	0,47
723,029	0,47
723,467	0,47
723,905	0,47
724,342	0,47
724,78	0,47
725,218	0,47
725,656	0,47
726,093	0,47
726,531	0,47
726,969	0,47
727,406	0,47
727,844	0,47
728,281	0,47
728,719	0,47
729,156	0,47
729,594	0,47
730,031	0,47
730,469	0,47
730,906	0,47
731,343	0,47
731,781	0,47
732,218	0,47
732,655	0,46
733,092	0,46
733,53	0,46
733,967	0,46
734,404	0,46
734,841	0,46
735,278	0,46
735,715	0,46
736,152	0,46
736,589	0,45
737,026	0,45
737,463	0,45
737,9	0,45
738,337	0,45
738,774	0,45
739,211	0,45
739,647	0,45
740,084	0,45
740,521	0,46
740,958	0,46
741,394	0,46
741,831	0,46
742,268	0,46
742,704	0,46
743,141	0,45
743,577	0,45
744,014	0,45
744,45	0,45
744,887	0,45
745,323	0,45
745,76	0,45
746,196	0,45
746,632	0,45
747,069	0,45
747,505	0,45
747,941	0,45
748,378	0,45
748,814	0,45
749,25	0,45
749,686	0,45
750,122	0,45
750,558	0,45
750,994	0,45
751,43	0,45
751,866	0,45
752,302	0,46
752,738	0,46
753,174	0,46
753,61	0,46
754,046	0,46
754,482	0,46
754,918	0,46
755,354	0,46
755,789	0,46
756,225	0,45
756,661	0,45
757,096	0,45
757,532	0,45
757,968	0,45
758,403	0,44
758,839	0,44
759,274	0,44
759,71	0,43
760,145	0,43
760,581	0,42
761,016	0,41
761,452	0,41
761,887	0,4
762,322	0,4
762,758	0,39
763,193	0,39
763,628	0,38
764,063	0,37
764,499	0,37
764,934	0,36
765,369	0,35
765,804	0,35
766,239	0,34
766,674	0,33
767,109	0,32
767,544	0,31
767,979	0,3
768,414	0,29
768,849	0,29
769,284	0,28
769,719	0,27
770,154	0,26
770,588	0,25
771,023	0,24
771,458	0,23
771,893	0,22
772,327	0,21
772,762	0,2
773,197	0,19
773,631	0,17
774,066	0,17
774,5	0,16
774,935	0,14
775,369	0,13
775,804	0,12
776,238	0,11
776,673	0,09
777,107	0,08
777,541	0,07
777,976	0,06
778,41	0,06
778,844	0,05
779,279	0,04
779,713	0,03
780,147	0,02
780,581	0,01
781,015	0
781,449	-0,01
781,883	-0,01
782,317	-0,03
782,751	-0,04
783,185	-0,05
783,619	-0,05
784,053	-0,07
784,487	-0,07
784,921	-0,07
785,355	-0,09
785,789	-0,09
786,223	-0,1
786,656	-0,11
787,09	-0,12
787,524	-0,13
787,957	-0,15
788,391	-0,17
788,825	-0,19
789,258	-0,2
789,692	-0,22
790,125	-0,23
790,559	-0,25
790,992	-0,27
791,426	-0,29
791,859	-0,31
792,293	-0,33
792,726	-0,35
793,159	-0,37
793,593	-0,39
794,026	-0,41
794,459	-0,44
794,892	-0,46
795,326	-0,49
795,759	-0,53
796,192	-0,57
796,625	-0,61
797,058	-0,64
797,491	-0,68
797,924	-0,72
798,357	-0,76
798,79	-0,81
799,223	-0,85
799,656	-0,9
800,089	-0,95
800,522	-0,99
800,955	-1,04
801,387	-1,09
801,82	-1,15
802,253	-1,21
802,686	-1,29
803,118	-1,35
803,551	-1,4
803,984	-1,44
804,416	-1,48
804,849	-1,52
805,281	-1,65
805,714	-2,03
806,146	-2,47
806,579	-2,72
807,011	-2,88
807,444	-2,97
807,876	-3,05
808,308	-3,08
808,741	-3,11
809,173	-3,16
809,605	-3,18
810,037	-3,26
810,47	-3,18
810,902	-2,97
811,334	-2,82
811,766	-2,66
812,198	-2,4
812,63	-1,98
813,062	-1,78
813,494	-1,69
813,926	-1,6
814,358	-1,55
814,79	-1,47
815,222	-1,41
815,654	-1,36
816,086	-1,3
816,518	-1,24
816,949	-1,19
817,381	-1,14
817,813	-1,13
818,245	-1,08
818,676	-1,05
819,108	-1,01
819,54	-1
819,971	-0,98
820,403	-0,93
820,834	-0,91
821,266	-0,87
821,697	-0,85
822,129	-0,84
822,56	-0,81
822,991	-0,79
823,423	-0,77
823,854	-0,76
824,286	-0,73
824,717	-0,72
825,148	-0,7
825,579	-0,69
826,01	-0,68
826,442	-0,67
826,873	-0,65
827,304	-0,62
827,735	-0,62
828,166	-0,62
828,597	-0,61
829,028	-0,61
829,459	-0,62
829,89	-0,62
830,321	-0,58
830,752	-0,59
831,183	-0,57
831,613	-0,56
832,044	-0,56
832,475	-0,55
832,906	-0,56
833,336	-0,57
833,767	-0,57
834,198	-0,55
834,628	-0,54
835,059	-0,56
835,49	-0,57
835,92	-0,54
836,351	-0,55
836,781	-0,55
837,212	-0,57
837,642	-0,57
838,072	-0,55
838,503	-0,56
838,933	-0,54
839,364	-0,54
839,794	-0,53
840,224	-0,52
840,654	-0,57
841,085	-0,57
841,515	-0,55
841,945	-0,55
842,375	-0,5
842,805	-0,49
843,235	-0,47
843,665	-0,49
844,095	-0,48
844,525	-0,5
844,955	-0,51
845,385	-0,49
845,815	-0,47
846,245	-0,49
846,675	-0,5
847,105	-0,52
847,534	-0,52
847,964	-0,51
848,394	-0,49
848,824	-0,52
849,253	-0,51
849,683	-0,51
850,112	-0,52
850,542	-0,55
850,972	-0,55
851,401	-0,54
851,831	-0,52
852,26	-0,53
852,69	-0,56
853,119	-0,55
853,548	-0,54
853,978	-0,55
854,407	-0,53
854,836	-0,53
855,266	-0,52
855,695	-0,53
856,124	-0,54
856,553	-0,56
856,983	-0,58
857,412	-0,57
857,841	-0,58
858,27	-0,59
858,699	-0,6
859,128	-0,63
859,557	-0,64
859,986	-0,65
860,415	-0,63
860,844	-0,6
861,273	-0,6
861,702	-0,61
862,13	-0,59
862,559	-0,6
862,988	-0,57
863,417	-0,57
863,845	-0,56
864,274	-0,56
864,703	-0,55
865,131	-0,56
865,56	-0,56
865,989	-0,59
866,417	-0,56
866,846	-0,57
867,274	-0,56
867,703	-0,58
868,131	-0,59
868,559	-0,59
868,988	-0,62
869,416	-0,61
869,844	-0,63
870,273	-0,66
870,701	-0,64
871,129	-0,67
871,557	-0,71
871,986	-0,72
872,414	-0,73
872,842	-0,7
873,27	-0,68
873,698	-0,65
874,126	-0,69
874,554	-0,67
874,982	-0,66
875,41	-0,69
875,838	-0,64
876,266	-0,6
876,694	-0,61
877,122	-0,59
877,549	-0,65
877,977	-0,62
878,405	-0,65
878,833	-0,62
879,26	-0,6
879,688	-0,61
880,116	-0,59
880,543	-0,57
880,971	-0,57
881,399	-0,59
881,826	-0,6
882,254	-0,58
882,681	-0,61
883,109	-0,57
883,536	-0,58
883,963	-0,6
884,391	-0,58
884,818	-0,57
885,245	-0,6
885,673	-0,61
886,1	-0,58
886,527	-0,58
886,954	-0,54
887,381	-0,56
887,809	-0,56
888,236	-0,58
888,663	-0,58
889,09	-0,63
889,517	-0,64
889,944	-0,64
890,371	-0,64
890,798	-0,64
891,225	-0,65
891,652	-0,67
892,078	-0,64
892,505	-0,67
892,932	-0,62
893,359	-0,63
893,786	-0,62
894,212	-0,59
894,639	-0,6
895,066	-0,63
895,492	-0,57
895,919	-0,57
896,346	-0,57
896,772	-0,58
897,199	-0,55
897,625	-0,59
898,052	-0,55
898,478	-0,54
898,904	-0,56
899,331	-0,55
899,757	-0,57
900,183	-0,59
900,61	-0,58
901,036	-0,59
901,462	-0,58
901,888	-0,59
902,315	-0,57
902,741	-0,62
903,167	-0,6
903,593	-0,63
904,019	-0,61
904,445	-0,59
904,871	-0,61
905,297	-0,63
905,723	-0,62
906,149	-0,61
906,575	-0,6
907,001	-0,6
907,427	-0,57
907,852	-0,56
908,278	-0,57
908,704	-0,55
909,13	-0,54
909,555	-0,53
909,981	-0,52
910,407	-0,52
910,832	-0,52
911,258	-0,53
911,684	-0,53
912,109	-0,53
912,535	-0,55
912,96	-0,51
913,386	-0,55
913,811	-0,54
914,236	-0,56
914,662	-0,54
915,087	-0,58
915,512	-0,59
915,938	-0,61
916,363	-0,59
916,788	-0,61
917,213	-0,6
917,639	-0,65
918,064	-0,62
918,489	-0,62
918,914	-0,63
919,339	-0,64
919,764	-0,6
920,189	-0,6
920,614	-0,63
921,039	-0,63
921,464	-0,58
921,889	-0,61
922,314	-0,62
922,738	-0,65
923,163	-0,66
923,588	-0,66
924,013	-0,65
924,437	-0,66
924,862	-0,67
925,287	-0,62
925,711	-0,63
926,136	-0,64
926,561	-0,62
926,985	-0,6
927,41	-0,57
927,834	-0,55
928,259	-0,51
928,683	-0,5
929,108	-0,47
929,532	-0,48
929,956	-0,47
930,381	-0,47
930,805	-0,47
931,229	-0,46
931,653	-0,45
932,078	-0,44
932,502	-0,46
932,926	-0,48
933,35	-0,47
933,774	-0,47
934,198	-0,44
934,622	-0,43
935,046	-0,44
935,47	-0,45
935,894	-0,45
936,318	-0,45
936,742	-0,45
937,166	-0,46
937,59	-0,44
938,014	-0,47
938,437	-0,47
938,861	-0,49
939,285	-0,5
939,709	-0,49
940,132	-0,49
940,556	-0,49
940,98	-0,48
941,403	-0,47
941,827	-0,47
942,25	-0,5
942,674	-0,47
943,097	-0,48
943,521	-0,47
943,944	-0,48
944,368	-0,48
944,791	-0,45
945,214	-0,48
945,638	-0,49
946,061	-0,52
946,484	-0,53
946,907	-0,51
947,331	-0,51
947,754	-0,56
948,177	-0,53
948,6	-0,53
949,023	-0,54
949,446	-0,54
949,869	-0,52
950,292	-0,52
950,715	-0,48
951,138	-0,47
951,561	-0,44
951,984	-0,45
952,407	-0,43
952,83	-0,41
953,252	-0,36
953,675	-0,36
954,098	-0,37
954,521	-0,36
954,943	-0,36
955,366	-0,37
955,789	-0,35
956,211	-0,37
956,634	-0,38
957,056	-0,36
957,479	-0,38
957,902	-0,4
958,324	-0,4
958,746	-0,38
959,169	-0,39
959,591	-0,4
960,014	-0,41
960,436	-0,4
960,858	-0,4
961,281	-0,39
961,703	-0,4
962,125	-0,4
962,547	-0,38
962,969	-0,38
963,391	-0,39
963,814	-0,39
964,236	-0,38
964,658	-0,35
965,08	-0,36
965,502	-0,34
965,924	-0,31
966,346	-0,31
966,768	-0,31
967,189	-0,33
967,611	-0,32
968,033	-0,32
968,455	-0,31
968,877	-0,32
969,298	-0,34
969,72	-0,35
970,142	-0,34
970,563	-0,35
970,985	-0,34
971,407	-0,32
971,828	-0,3
972,25	-0,3
972,671	-0,28
973,093	-0,27
973,514	-0,25
973,936	-0,23
974,357	-0,22
974,778	-0,22
975,2	-0,21
975,621	-0,2
976,042	-0,19
976,464	-0,18
976,885	-0,17
977,306	-0,17
977,727	-0,17
978,148	-0,16
978,57	-0,14
978,991	-0,13
979,412	-0,12
979,833	-0,11
980,254	-0,1
980,675	-0,11
981,096	-0,1
981,517	-0,08
981,937	-0,07
982,358	-0,06
982,779	-0,05
983,2	-0,04
983,621	-0,03
984,042	-0,01
984,462	0
984,883	0,02
985,304	0,03
985,724	0,05
986,145	0,06
986,565	0,09
986,986	0,1
987,407	0,11
987,827	0,12
988,248	0,13
988,668	0,14
989,088	0,15
989,509	0,17
989,929	0,18
990,35	0,19
990,77	0,21
991,19	0,21
991,61	0,22
992,031	0,24
992,451	0,25
992,871	0,26
993,291	0,27
993,711	0,28
994,131	0,29
994,551	0,29
994,971	0,3
995,391	0,31
995,811	0,32
996,231	0,33
996,651	0,33
997,071	0,34
997,491	0,35
997,911	0,35
998,331	0,36
998,75	0,37
999,17	0,38
999,59	0,38
1000,009	0,39
1000,429	0,39
1000,849	0,4
1001,268	0,4
1001,688	0,41
1002,107	0,41
1002,527	0,41
1002,946	0,42
1003,366	0,42
1003,785	0,42
1004,205	0,43
1004,624	0,43
1005,044	0,43
1005,463	0,44
1005,882	0,44
1006,301	0,44
1006,721	0,44
1007,14	0,44
1007,559	0,45
1007,978	0,45
1008,397	0,45
1008,816	0,45
1009,235	0,45
1009,655	0,45
1010,074	0,45
1010,492	0,45
1010,911	0,45
1011,33	0,45
1011,749	0,45
1012,168	0,45
1012,587	0,44
1013,006	0,44
1013,425	0,44
1013,843	0,44
1014,262	0,44
1014,681	0,44
1015,099	0,44
1015,518	0,44
1015,937	0,44
1016,355	0,44
1016,774	0,44
1017,192	0,44
1017,611	0,44
1018,029	0,44
1018,448	0,44
1018,866	0,44
1019,285	0,44
1019,703	0,44
1020,121	0,44
1020,54	0,43
1020,958	0,43
1021,376	0,43
1021,794	0,43
1022,213	0,43
1022,631	0,43
1023,049	0,43
1023,467	0,43
1023,885	0,43
1024,303	0,43
1024,721	0,43
1025,139	0,43
1025,557	0,43
1025,975	0,42
1026,393	0,42
1026,811	0,42
1027,229	0,42
1027,647	0,42
1028,065	0,42
1028,482	0,42
1028,9	0,42
1029,318	0,42
1029,735	0,42
1030,153	0,42
1030,571	0,42
1030,988	0,42
1031,406	0,42
1031,823	0,42
1032,241	0,42
1032,659	0,42
1033,076	0,42
1033,493	0,42
1033,911	0,42
1034,328	0,42
1034,746	0,42
1035,163	0,42
1035,58	0,42
1035,997	0,42
1036,415	0,42
1036,832	0,42
1037,249	0,42
1037,666	0,42
1038,083	0,42
1038,501	0,42
1038,918	0,42
1039,335	0,43
1039,752	0,42
1040,169	0,43
1040,586	0,43
1041,003	0,43
1041,419	0,43
1041,836	0,43
1042,253	0,43
1042,67	0,43
1043,087	0,43
1043,504	0,43
1043,92	0,42
1044,337	0,43
1044,754	0,42
1045,17	0,42
1045,587	0,42
1046,004	0,42
1046,42	0,42
1046,837	0,42
1047,253	0,42
1047,67	0,42
1048,086	0,42
1048,503	0,42
1048,919	0,42
1049,335	0,42
1049,752	0,42
1050,168	0,42
1050,584	0,42
1051,001	0,42
1051,417	0,42
1051,833	0,42
1052,249	0,43
1052,665	0,43
1053,081	0,43
1053,497	0,43
1053,914	0,43
1054,33	0,43
1054,746	0,43
1055,162	0,43
1055,578	0,43
1055,993	0,44
1056,409	0,44
1056,825	0,44
1057,241	0,43
1057,657	0,43
1058,073	0,43
1058,488	0,43
1058,904	0,43
1059,32	0,43
1059,736	0,43
1060,151	0,43
1060,567	0,43
1060,982	0,43
1061,398	0,43
1061,813	0,43
1062,229	0,43
1062,644	0,43
1063,06	0,43
1063,475	0,43
1063,891	0,43
1064,306	0,43
1064,721	0,43
1065,137	0,43
1065,552	0,42
1065,967	0,42
1066,382	0,42
1066,798	0,42
1067,213	0,43
1067,628	0,42
1068,043	0,42
1068,458	0,42
1068,873	0,43
1069,288	0,43
1069,703	0,43
1070,118	0,43
1070,533	0,43
1070,948	0,43
1071,363	0,42
1071,778	0,42
1072,193	0,42
1072,607	0,42
1073,022	0,42
1073,437	0,42
1073,852	0,42
1074,266	0,42
1074,681	0,42
1075,096	0,42
1075,51	0,42
1075,925	0,42
1076,339	0,42
1076,754	0,42
1077,168	0,42
1077,583	0,42
1077,997	0,42
1078,412	0,42
1078,826	0,42
1079,24	0,42
1079,655	0,42
1080,069	0,42
1080,483	0,42
1080,897	0,42
1081,312	0,42
1081,726	0,42
1082,14	0,42
1082,554	0,42
1082,968	0,42
1083,382	0,41
1083,796	0,41
1084,21	0,41
1084,624	0,41
1085,038	0,41
1085,452	0,41
1085,866	0,41
1086,28	0,41
1086,694	0,41
1087,108	0,4
1087,521	0,4
1087,935	0,4
1088,349	0,4
1088,763	0,39
1089,176	0,39
1089,59	0,39
1090,004	0,39
1090,417	0,38
1090,831	0,38
1091,244	0,37
1091,658	0,37
1092,071	0,37
1092,485	0,37
1092,898	0,36
1093,312	0,36
1093,725	0,36
1094,138	0,36
1094,552	0,35
1094,965	0,35
1095,378	0,35
1095,791	0,35
1096,205	0,35
1096,618	0,35
1097,031	0,34
1097,444	0,34
1097,857	0,33
1098,27	0,33
1098,683	0,32
1099,096	0,32
1099,509	0,32
1099,922	0,31
1100,335	0,31
1100,748	0,3
1101,161	0,29
1101,574	0,29
1101,986	0,29
1102,399	0,28
1102,812	0,28
1103,225	0,28
1103,637	0,27
1104,05	0,27
1104,463	0,27
1104,875	0,27
1105,288	0,27
1105,7	0,26
1106,113	0,26
1106,525	0,25
1106,938	0,25
1107,35	0,24
1107,763	0,24
1108,175	0,24
1108,588	0,24
1109	0,23
1109,412	0,22
1109,824	0,22
1110,237	0,22
1110,649	0,23
1111,061	0,23
