Data from 18C-808nm-8A-cont_Absorbance__26__01455.txt Node

Date: Mon Jul 17 17:17:40 CEST 2023
User: Laser008
Spectrometer: MAYP115816
Trigger mode: 0
Integration Time (sec): 2,500000E-1
Scans to average: 10
Electric dark correction enabled: true
Nonlinearity correction enabled: true
Boxcar width: 5
XAxis mode: Wavelengths
Number of Pixels in Spectrum: 2068
>>>>>Begin Spectral Data<<<<<
198,914	-0,69
199,384	-0,45
199,855	-0,33
200,325	-0,26
200,796	-0,23
201,266	-0,19
201,737	-0,19
202,207	-0,17
202,677	-0,17
203,147	-0,15
203,618	-0,12
204,088	-0,1
204,558	-0,09
205,028	-0,09
205,498	-0,1
205,968	-0,1
206,439	-0,11
206,909	-0,1
207,379	-0,1
207,849	-0,1
208,319	-0,11
208,789	-0,12
209,258	-0,11
209,728	-0,13
210,198	-0,12
210,668	-0,11
211,138	-0,1
211,608	-0,1
212,077	-0,11
212,547	-0,11
213,017	-0,11
213,486	-0,11
213,956	-0,12
214,426	-0,14
214,895	-0,13
215,365	-0,14
215,834	-0,15
216,304	-0,17
216,773	-0,16
217,243	-0,17
217,712	-0,19
218,181	-0,18
218,651	-0,18
219,12	-0,18
219,589	-0,18
220,058	-0,17
220,528	-0,18
220,997	-0,18
221,466	-0,18
221,935	-0,19
222,404	-0,18
222,873	-0,17
223,342	-0,17
223,812	-0,18
224,281	-0,17
224,749	-0,17
225,218	-0,19
225,687	-0,19
226,156	-0,18
226,625	-0,16
227,094	-0,16
227,563	-0,16
228,031	-0,17
228,5	-0,17
228,969	-0,17
229,438	-0,16
229,906	-0,16
230,375	-0,15
230,844	-0,15
231,312	-0,15
231,781	-0,17
232,249	-0,16
232,718	-0,15
233,186	-0,13
233,655	-0,14
234,123	-0,13
234,591	-0,14
235,06	-0,13
235,528	-0,14
235,996	-0,14
236,465	-0,14
236,933	-0,13
237,401	-0,13
237,869	-0,13
238,337	-0,13
238,805	-0,12
239,274	-0,12
239,742	-0,12
240,21	-0,13
240,678	-0,12
241,146	-0,11
241,614	-0,11
242,081	-0,11
242,549	-0,11
243,017	-0,12
243,485	-0,12
243,953	-0,12
244,421	-0,11
244,888	-0,11
245,356	-0,11
245,824	-0,11
246,291	-0,12
246,759	-0,12
247,227	-0,13
247,694	-0,12
248,162	-0,11
248,629	-0,11
249,097	-0,12
249,564	-0,13
250,032	-0,14
250,499	-0,14
250,967	-0,14
251,434	-0,14
251,901	-0,14
252,369	-0,14
252,836	-0,15
253,303	-0,16
253,77	-0,17
254,237	-0,16
254,705	-0,15
255,172	-0,14
255,639	-0,14
256,106	-0,16
256,573	-0,16
257,04	-0,17
257,507	-0,17
257,974	-0,17
258,441	-0,15
258,908	-0,15
259,375	-0,17
259,841	-0,17
260,308	-0,18
260,775	-0,18
261,242	-0,17
261,709	-0,18
262,175	-0,19
262,642	-0,18
263,109	-0,18
263,575	-0,19
264,042	-0,17
264,508	-0,16
264,975	-0,18
265,441	-0,19
265,908	-0,19
266,374	-0,18
266,841	-0,18
267,307	-0,18
267,773	-0,18
268,24	-0,18
268,706	-0,17
269,172	-0,18
269,639	-0,19
270,105	-0,18
270,571	-0,18
271,037	-0,18
271,503	-0,2
271,969	-0,19
272,435	-0,19
272,902	-0,21
273,368	-0,22
273,834	-0,22
274,3	-0,23
274,765	-0,23
275,231	-0,23
275,697	-0,22
276,163	-0,21
276,629	-0,21
277,095	-0,21
277,56	-0,21
278,026	-0,21
278,492	-0,19
278,958	-0,19
279,423	-0,2
279,889	-0,18
280,354	-0,19
280,82	-0,19
281,286	-0,21
281,751	-0,2
282,217	-0,2
282,682	-0,19
283,147	-0,19
283,613	-0,2
284,078	-0,2
284,544	-0,2
285,009	-0,22
285,474	-0,21
285,939	-0,22
286,405	-0,21
286,87	-0,21
287,335	-0,2
287,8	-0,2
288,265	-0,19
288,73	-0,21
289,195	-0,23
289,66	-0,22
290,125	-0,21
290,59	-0,21
291,055	-0,19
291,52	-0,19
291,985	-0,2
292,45	-0,22
292,915	-0,23
293,38	-0,23
293,844	-0,21
294,309	-0,19
294,774	-0,19
295,239	-0,2
295,703	-0,2
296,168	-0,19
296,632	-0,19
297,097	-0,17
297,562	-0,16
298,026	-0,16
298,491	-0,16
298,955	-0,16
299,419	-0,16
299,884	-0,16
300,348	-0,16
300,813	-0,15
301,277	-0,16
301,741	-0,16
302,205	-0,16
302,67	-0,15
303,134	-0,15
303,598	-0,15
304,062	-0,14
304,526	-0,13
304,99	-0,14
305,454	-0,13
305,919	-0,13
306,383	-0,13
306,847	-0,12
307,31	-0,12
307,774	-0,13
308,238	-0,13
308,702	-0,13
309,166	-0,14
309,63	-0,14
310,094	-0,12
310,557	-0,12
311,021	-0,12
311,485	-0,12
311,948	-0,11
312,412	-0,11
312,876	-0,1
313,339	-0,1
313,803	-0,11
314,266	-0,1
314,73	-0,1
315,193	-0,1
315,657	-0,09
316,12	-0,09
316,584	-0,08
317,047	-0,08
317,51	-0,07
317,973	-0,07
318,437	-0,06
318,9	-0,05
319,363	-0,04
319,826	-0,04
320,29	-0,04
320,753	-0,04
321,216	-0,04
321,679	-0,04
322,142	-0,04
322,605	-0,06
323,068	-0,05
323,531	-0,05
323,994	-0,05
324,457	-0,05
324,92	-0,03
325,382	-0,03
325,845	-0,03
326,308	-0,03
326,771	-0,02
327,233	-0,02
327,696	-0
328,159	-0
328,622	0
329,084	0
329,547	0,01
330,009	0
330,472	0,01
330,934	0,01
331,397	0,01
331,859	0,02
332,322	0,02
332,784	0,01
333,246	0,02
333,709	0,02
334,171	0,03
334,633	0,03
335,096	0,03
335,558	0,03
336,02	0,03
336,482	0,04
336,944	0,05
337,406	0,07
337,868	0,07
338,331	0,07
338,793	0,08
339,255	0,08
339,717	0,09
340,178	0,1
340,64	0,11
341,102	0,12
341,564	0,13
342,026	0,13
342,488	0,13
342,949	0,15
343,411	0,17
343,873	0,19
344,335	0,21
344,796	0,24
345,258	0,27
345,719	0,3
346,181	0,34
346,643	0,37
347,104	0,39
347,566	0,42
348,027	0,43
348,488	0,45
348,95	0,46
349,411	0,47
349,873	0,49
350,334	0,5
350,795	0,51
351,256	0,52
351,718	0,52
352,179	0,53
352,64	0,53
353,101	0,53
353,562	0,53
354,023	0,54
354,484	0,54
354,945	0,54
355,406	0,54
355,867	0,54
356,328	0,54
356,789	0,55
357,25	0,55
357,711	0,55
358,172	0,55
358,633	0,55
359,093	0,55
359,554	0,55
360,015	0,55
360,476	0,55
360,936	0,55
361,397	0,55
361,858	0,55
362,318	0,55
362,779	0,55
363,239	0,55
363,7	0,55
364,16	0,55
364,621	0,55
365,081	0,55
365,541	0,55
366,002	0,55
366,462	0,55
366,922	0,55
367,383	0,55
367,843	0,55
368,303	0,55
368,763	0,55
369,223	0,55
369,684	0,55
370,144	0,55
370,604	0,55
371,064	0,55
371,524	0,55
371,984	0,55
372,444	0,55
372,904	0,55
373,363	0,55
373,823	0,55
374,283	0,55
374,743	0,55
375,203	0,55
375,663	0,55
376,122	0,55
376,582	0,55
377,042	0,55
377,501	0,55
377,961	0,55
378,42	0,55
378,88	0,55
379,34	0,55
379,799	0,55
380,259	0,55
380,718	0,55
381,177	0,55
381,637	0,54
382,096	0,54
382,555	0,54
383,015	0,54
383,474	0,54
383,933	0,54
384,393	0,54
384,852	0,54
385,311	0,54
385,77	0,54
386,229	0,54
386,688	0,54
387,147	0,54
387,606	0,54
388,065	0,54
388,524	0,54
388,983	0,54
389,442	0,54
389,901	0,54
390,36	0,54
390,819	0,54
391,277	0,54
391,736	0,54
392,195	0,54
392,654	0,54
393,112	0,54
393,571	0,54
394,03	0,53
394,488	0,53
394,947	0,53
395,405	0,53
395,864	0,53
396,322	0,53
396,781	0,53
397,239	0,53
397,698	0,53
398,156	0,53
398,614	0,53
399,073	0,53
399,531	0,53
399,989	0,53
400,447	0,53
400,905	0,53
401,364	0,53
401,822	0,53
402,28	0,53
402,738	0,53
403,196	0,53
403,654	0,53
404,112	0,53
404,57	0,53
405,028	0,53
405,486	0,53
405,944	0,53
406,402	0,53
406,859	0,53
407,317	0,53
407,775	0,53
408,233	0,53
408,691	0,53
409,148	0,53
409,606	0,53
410,064	0,53
410,521	0,53
410,979	0,53
411,436	0,53
411,894	0,53
412,351	0,52
412,809	0,52
413,266	0,52
413,724	0,52
414,181	0,52
414,638	0,52
415,096	0,52
415,553	0,52
416,01	0,52
416,467	0,52
416,925	0,52
417,382	0,52
417,839	0,52
418,296	0,52
418,753	0,52
419,21	0,52
419,667	0,52
420,124	0,52
420,581	0,52
421,038	0,52
421,495	0,52
421,952	0,52
422,409	0,52
422,866	0,52
423,322	0,52
423,779	0,52
424,236	0,52
424,693	0,52
425,149	0,52
425,606	0,52
426,063	0,52
426,519	0,52
426,976	0,52
427,433	0,52
427,889	0,52
428,346	0,52
428,802	0,52
429,258	0,52
429,715	0,52
430,171	0,52
430,628	0,52
431,084	0,52
431,54	0,52
431,997	0,52
432,453	0,52
432,909	0,52
433,365	0,52
433,821	0,52
434,277	0,52
434,734	0,52
435,19	0,52
435,646	0,52
436,102	0,52
436,558	0,51
437,014	0,51
437,47	0,51
437,925	0,52
438,381	0,52
438,837	0,52
439,293	0,52
439,749	0,52
440,205	0,52
440,66	0,52
441,116	0,52
441,572	0,52
442,027	0,52
442,483	0,52
442,939	0,52
443,394	0,52
443,85	0,52
444,305	0,52
444,761	0,52
445,216	0,52
445,672	0,52
446,127	0,52
446,582	0,52
447,038	0,52
447,493	0,52
447,948	0,52
448,403	0,52
448,859	0,52
449,314	0,52
449,769	0,52
450,224	0,52
450,679	0,52
451,134	0,52
451,589	0,52
452,044	0,52
452,499	0,52
452,954	0,52
453,409	0,52
453,864	0,52
454,319	0,52
454,774	0,52
455,229	0,52
455,684	0,52
456,138	0,52
456,593	0,52
457,048	0,52
457,503	0,52
457,957	0,52
458,412	0,52
458,866	0,52
459,321	0,52
459,776	0,52
460,23	0,52
460,685	0,52
461,139	0,52
461,593	0,52
462,048	0,52
462,502	0,53
462,957	0,53
463,411	0,53
463,865	0,53
464,319	0,53
464,774	0,53
465,228	0,53
465,682	0,53
466,136	0,53
466,59	0,53
467,044	0,53
467,499	0,53
467,953	0,53
468,407	0,53
468,861	0,53
469,315	0,53
469,768	0,53
470,222	0,53
470,676	0,54
471,13	0,54
471,584	0,54
472,038	0,54
472,491	0,54
472,945	0,54
473,399	0,54
473,852	0,54
474,306	0,54
474,76	0,54
475,213	0,54
475,667	0,54
476,12	0,54
476,574	0,54
477,027	0,55
477,481	0,55
477,934	0,55
478,388	0,55
478,841	0,55
479,294	0,55
479,748	0,55
480,201	0,55
480,654	0,56
481,107	0,56
481,561	0,56
482,014	0,56
482,467	0,56
482,92	0,56
483,373	0,56
483,826	0,56
484,279	0,57
484,732	0,57
485,185	0,57
485,638	0,57
486,091	0,57
486,544	0,57
486,997	0,58
487,449	0,58
487,902	0,58
488,355	0,58
488,808	0,58
489,26	0,58
489,713	0,59
490,166	0,59
490,618	0,59
491,071	0,59
491,523	0,59
491,976	0,6
492,429	0,6
492,881	0,6
493,333	0,6
493,786	0,61
494,238	0,61
494,691	0,61
495,143	0,61
495,595	0,62
496,048	0,62
496,5	0,62
496,952	0,62
497,404	0,63
497,856	0,63
498,309	0,63
498,761	0,63
499,213	0,64
499,665	0,64
500,117	0,64
500,569	0,65
501,021	0,65
501,473	0,65
501,925	0,66
502,377	0,66
502,828	0,66
503,28	0,67
503,732	0,67
504,184	0,67
504,636	0,67
505,087	0,68
505,539	0,68
505,991	0,68
506,442	0,69
506,894	0,69
507,345	0,69
507,797	0,7
508,249	0,7
508,7	0,7
509,151	0,7
509,603	0,71
510,054	0,71
510,506	0,71
510,957	0,72
511,408	0,72
511,86	0,72
512,311	0,73
512,762	0,73
513,213	0,73
513,665	0,73
514,116	0,74
514,567	0,74
515,018	0,74
515,469	0,74
515,92	0,75
516,371	0,75
516,822	0,75
517,273	0,76
517,724	0,76
518,175	0,76
518,626	0,76
519,076	0,76
519,527	0,76
519,978	0,77
520,429	0,77
520,88	0,77
521,33	0,77
521,781	0,77
522,232	0,77
522,682	0,78
523,133	0,78
523,583	0,78
524,034	0,78
524,484	0,78
524,935	0,78
525,385	0,78
525,836	0,78
526,286	0,78
526,736	0,78
527,187	0,78
527,637	0,78
528,087	0,78
528,538	0,78
528,988	0,78
529,438	0,78
529,888	0,78
530,338	0,78
530,788	0,78
531,238	0,78
531,688	0,78
532,139	0,78
532,589	0,78
533,038	0,77
533,488	0,77
533,938	0,77
534,388	0,77
534,838	0,77
535,288	0,77
535,738	0,76
536,187	0,76
536,637	0,76
537,087	0,76
537,537	0,75
537,986	0,75
538,436	0,75
538,885	0,74
539,335	0,74
539,785	0,74
540,234	0,73
540,684	0,73
541,133	0,73
541,582	0,72
542,032	0,72
542,481	0,72
542,931	0,71
543,38	0,71
543,829	0,71
544,278	0,7
544,728	0,7
545,177	0,7
545,626	0,69
546,075	0,69
546,524	0,69
546,973	0,68
547,422	0,68
547,871	0,68
548,32	0,68
548,769	0,67
549,218	0,67
549,667	0,67
550,116	0,67
550,565	0,66
551,014	0,66
551,463	0,66
551,911	0,65
552,36	0,65
552,809	0,65
553,258	0,64
553,706	0,64
554,155	0,64
554,603	0,64
555,052	0,63
555,501	0,63
555,949	0,63
556,398	0,62
556,846	0,62
557,294	0,62
557,743	0,61
558,191	0,61
558,64	0,61
559,088	0,6
559,536	0,6
559,985	0,59
560,433	0,59
560,881	0,59
561,329	0,59
561,777	0,58
562,225	0,58
562,674	0,58
563,122	0,57
563,57	0,57
564,018	0,57
564,466	0,56
564,914	0,56
565,362	0,56
565,809	0,56
566,257	0,55
566,705	0,55
567,153	0,55
567,601	0,54
568,048	0,54
568,496	0,54
568,944	0,54
569,392	0,53
569,839	0,53
570,287	0,53
570,734	0,53
571,182	0,52
571,63	0,52
572,077	0,52
572,525	0,51
572,972	0,51
573,419	0,51
573,867	0,51
574,314	0,5
574,761	0,5
575,209	0,5
575,656	0,5
576,103	0,49
576,551	0,49
576,998	0,49
577,445	0,49
577,892	0,49
578,339	0,49
578,786	0,48
579,233	0,48
579,68	0,48
580,127	0,48
580,574	0,48
581,021	0,47
581,468	0,47
581,915	0,47
582,362	0,47
582,809	0,47
583,255	0,46
583,702	0,46
584,149	0,46
584,596	0,46
585,042	0,46
585,489	0,45
585,936	0,45
586,382	0,45
586,829	0,45
587,275	0,45
587,722	0,45
588,168	0,45
588,615	0,44
589,061	0,44
589,508	0,44
589,954	0,44
590,4	0,44
590,847	0,44
591,293	0,44
591,739	0,43
592,185	0,43
592,632	0,43
593,078	0,43
593,524	0,43
593,97	0,43
594,416	0,43
594,862	0,43
595,308	0,43
595,754	0,43
596,2	0,42
596,646	0,42
597,092	0,42
597,538	0,42
597,984	0,42
598,43	0,42
598,876	0,42
599,321	0,42
599,767	0,42
600,213	0,41
600,659	0,41
601,104	0,41
601,55	0,41
601,995	0,41
602,441	0,41
602,887	0,41
603,332	0,41
603,778	0,41
604,223	0,41
604,668	0,41
605,114	0,41
605,559	0,4
606,005	0,4
606,45	0,4
606,895	0,4
607,341	0,4
607,786	0,4
608,231	0,4
608,676	0,4
609,121	0,39
609,566	0,39
610,012	0,39
610,457	0,38
610,902	0,38
611,347	0,38
611,792	0,38
612,237	0,37
612,682	0,37
613,127	0,37
613,571	0,37
614,016	0,38
614,461	0,38
614,906	0,38
615,351	0,38
615,795	0,38
616,24	0,38
616,685	0,38
617,129	0,38
617,574	0,38
618,019	0,38
618,463	0,38
618,908	0,38
619,352	0,38
619,797	0,38
620,241	0,38
620,686	0,38
621,13	0,38
621,574	0,38
622,019	0,38
622,463	0,38
622,907	0,37
623,352	0,37
623,796	0,37
624,24	0,37
624,684	0,37
625,128	0,37
625,572	0,37
626,016	0,37
626,461	0,37
626,905	0,37
627,349	0,37
627,793	0,37
628,236	0,37
628,68	0,37
629,124	0,37
629,568	0,37
630,012	0,37
630,456	0,37
630,9	0,37
631,343	0,37
631,787	0,37
632,231	0,37
632,674	0,37
633,118	0,37
633,562	0,37
634,005	0,37
634,449	0,37
634,892	0,37
635,336	0,37
635,779	0,37
636,223	0,36
636,666	0,36
637,109	0,36
637,553	0,36
637,996	0,36
638,439	0,36
638,883	0,36
639,326	0,36
639,769	0,36
640,212	0,36
640,655	0,36
641,099	0,36
641,542	0,36
641,985	0,36
642,428	0,36
642,871	0,36
643,314	0,36
643,757	0,36
644,2	0,36
644,643	0,36
645,085	0,36
645,528	0,35
645,971	0,35
646,414	0,35
646,857	0,35
647,299	0,35
647,742	0,35
648,185	0,35
648,627	0,35
649,07	0,35
649,513	0,35
649,955	0,35
650,398	0,35
650,84	0,35
651,283	0,35
651,725	0,35
652,168	0,35
652,61	0,35
653,052	0,35
653,495	0,35
653,937	0,27
654,379	0,22
654,821	0,22
655,264	0,22
655,706	0,22
656,148	0,22
656,59	0,22
657,032	0,22
657,474	0,22
657,916	0,22
658,358	0,22
658,8	0,27
659,242	0,35
659,684	0,35
660,126	0,35
660,568	0,35
661,01	0,35
661,452	0,35
661,894	0,35
662,335	0,35
662,777	0,35
663,219	0,34
663,661	0,34
664,102	0,34
664,544	0,34
664,985	0,34
665,427	0,34
665,869	0,34
666,31	0,34
666,752	0,34
667,193	0,34
667,634	0,34
668,076	0,34
668,517	0,34
668,959	0,34
669,4	0,35
669,841	0,35
670,282	0,35
670,724	0,35
671,165	0,35
671,606	0,35
672,047	0,35
672,488	0,34
672,929	0,34
673,37	0,34
673,811	0,34
674,252	0,34
674,693	0,34
675,134	0,34
675,575	0,34
676,016	0,34
676,457	0,34
676,898	0,34
677,339	0,34
677,78	0,34
678,22	0,34
678,661	0,34
679,102	0,34
679,542	0,34
679,983	0,34
680,424	0,34
680,864	0,34
681,305	0,34
681,745	0,34
682,186	0,34
682,626	0,34
683,067	0,34
683,507	0,34
683,948	0,34
684,388	0,34
684,828	0,34
685,269	0,34
685,709	0,33
686,149	0,33
686,589	0,33
687,029	0,33
687,47	0,33
687,91	0,33
688,35	0,33
688,79	0,33
689,23	0,33
689,67	0,33
690,11	0,33
690,55	0,33
690,99	0,33
691,43	0,33
691,87	0,33
692,31	0,33
692,749	0,33
693,189	0,33
693,629	0,32
694,069	0,32
694,508	0,32
694,948	0,32
695,388	0,32
695,827	0,32
696,267	0,33
696,706	0,33
697,146	0,33
697,586	0,33
698,025	0,33
698,464	0,33
698,904	0,33
699,343	0,33
699,783	0,33
700,222	0,33
700,661	0,33
701,101	0,33
701,54	0,33
701,979	0,33
702,418	0,33
702,857	0,33
703,297	0,33
703,736	0,33
704,175	0,33
704,614	0,33
705,053	0,33
705,492	0,33
705,931	0,33
706,37	0,33
706,809	0,33
707,248	0,32
707,687	0,32
708,125	0,32
708,564	0,32
709,003	0,32
709,442	0,32
709,88	0,32
710,319	0,32
710,758	0,32
711,196	0,32
711,635	0,32
712,074	0,32
712,512	0,32
712,951	0,32
713,389	0,32
713,828	0,32
714,266	0,32
714,705	0,32
715,143	0,31
715,581	0,31
716,02	0,31
716,458	0,31
716,896	0,31
717,334	0,31
717,773	0,31
718,211	0,31
718,649	0,31
719,087	0,31
719,525	0,31
719,963	0,31
720,401	0,31
720,839	0,31
721,277	0,31
721,715	0,31
722,153	0,31
722,591	0,31
723,029	0,31
723,467	0,31
723,905	0,31
724,342	0,31
724,78	0,31
725,218	0,31
725,656	0,31
726,093	0,31
726,531	0,31
726,969	0,31
727,406	0,31
727,844	0,31
728,281	0,31
728,719	0,31
729,156	0,31
729,594	0,31
730,031	0,31
730,469	0,31
730,906	0,31
731,343	0,31
731,781	0,31
732,218	0,31
732,655	0,31
733,092	0,31
733,53	0,31
733,967	0,31
734,404	0,31
734,841	0,31
735,278	0,31
735,715	0,31
736,152	0,31
736,589	0,31
737,026	0,31
737,463	0,31
737,9	0,3
738,337	0,3
738,774	0,3
739,211	0,3
739,647	0,3
740,084	0,3
740,521	0,3
740,958	0,3
741,394	0,3
741,831	0,3
742,268	0,3
742,704	0,3
743,141	0,3
743,577	0,3
744,014	0,3
744,45	0,29
744,887	0,29
745,323	0,29
745,76	0,29
746,196	0,29
746,632	0,29
747,069	0,29
747,505	0,29
747,941	0,29
748,378	0,29
748,814	0,29
749,25	0,29
749,686	0,29
750,122	0,3
750,558	0,3
750,994	0,3
751,43	0,3
751,866	0,3
752,302	0,3
752,738	0,3
753,174	0,31
753,61	0,31
754,046	0,31
754,482	0,31
754,918	0,31
755,354	0,31
755,789	0,31
756,225	0,31
756,661	0,3
757,096	0,3
757,532	0,3
757,968	0,3
758,403	0,3
758,839	0,3
759,274	0,29
759,71	0,29
760,145	0,29
760,581	0,28
761,016	0,28
761,452	0,28
761,887	0,28
762,322	0,27
762,758	0,27
763,193	0,27
763,628	0,26
764,063	0,26
764,499	0,25
764,934	0,24
765,369	0,24
765,804	0,24
766,239	0,23
766,674	0,23
767,109	0,22
767,544	0,21
767,979	0,21
768,414	0,2
768,849	0,19
769,284	0,19
769,719	0,18
770,154	0,17
770,588	0,16
771,023	0,15
771,458	0,14
771,893	0,13
772,327	0,12
772,762	0,11
773,197	0,11
773,631	0,1
774,066	0,1
774,5	0,09
774,935	0,08
775,369	0,07
775,804	0,07
776,238	0,06
776,673	0,05
777,107	0,04
777,541	0,04
777,976	0,03
778,41	0,02
778,844	0,01
779,279	0,01
779,713	-0
780,147	-0,01
780,581	-0,02
781,015	-0,02
781,449	-0,03
781,883	-0,03
782,317	-0,05
782,751	-0,06
783,185	-0,06
783,619	-0,07
784,053	-0,08
784,487	-0,09
784,921	-0,09
785,355	-0,1
785,789	-0,11
786,223	-0,12
786,656	-0,13
787,09	-0,14
787,524	-0,15
787,957	-0,16
788,391	-0,17
788,825	-0,19
789,258	-0,2
789,692	-0,21
790,125	-0,23
790,559	-0,25
790,992	-0,27
791,426	-0,28
791,859	-0,29
792,293	-0,33
792,726	-0,34
793,159	-0,36
793,593	-0,38
794,026	-0,4
794,459	-0,43
794,892	-0,45
795,326	-0,48
795,759	-0,51
796,192	-0,56
796,625	-0,6
797,058	-0,63
797,491	-0,67
797,924	-0,71
798,357	-0,76
798,79	-0,8
799,223	-0,84
799,656	-0,89
800,089	-0,94
800,522	-0,98
800,955	-1,03
801,387	-1,08
801,82	-1,14
802,253	-1,2
802,686	-1,28
803,118	-1,33
803,551	-1,38
803,984	-1,43
804,416	-1,46
804,849	-1,49
805,281	-1,6
805,714	-1,92
806,146	-2,39
806,579	-2,67
807,011	-2,84
807,444	-2,94
807,876	-3,04
808,308	-3,08
808,741	-3,11
809,173	-3,16
809,605	-3,18
810,037	-3,26
810,47	-3,18
810,902	-3
811,334	-2,85
811,766	-2,7
812,198	-2,48
812,63	-2,05
813,062	-1,8
813,494	-1,7
813,926	-1,61
814,358	-1,56
814,79	-1,47
815,222	-1,42
815,654	-1,36
816,086	-1,3
816,518	-1,24
816,949	-1,19
817,381	-1,15
817,813	-1,13
818,245	-1,09
818,676	-1,05
819,108	-1,02
819,54	-1
819,971	-0,98
820,403	-0,93
820,834	-0,92
821,266	-0,87
821,697	-0,85
822,129	-0,83
822,56	-0,81
822,991	-0,79
823,423	-0,75
823,854	-0,74
824,286	-0,72
824,717	-0,7
825,148	-0,68
825,579	-0,67
826,01	-0,66
826,442	-0,65
826,873	-0,62
827,304	-0,58
827,735	-0,57
828,166	-0,58
828,597	-0,57
829,028	-0,56
829,459	-0,57
829,89	-0,58
830,321	-0,54
830,752	-0,55
831,183	-0,54
831,613	-0,53
832,044	-0,53
832,475	-0,52
832,906	-0,54
833,336	-0,54
833,767	-0,55
834,198	-0,54
834,628	-0,51
835,059	-0,54
835,49	-0,55
835,92	-0,53
836,351	-0,54
836,781	-0,53
837,212	-0,55
837,642	-0,54
838,072	-0,52
838,503	-0,53
838,933	-0,51
839,364	-0,53
839,794	-0,5
840,224	-0,49
840,654	-0,53
841,085	-0,54
841,515	-0,51
841,945	-0,51
842,375	-0,47
842,805	-0,46
843,235	-0,45
843,665	-0,46
844,095	-0,44
844,525	-0,46
844,955	-0,46
845,385	-0,44
845,815	-0,42
846,245	-0,44
846,675	-0,45
847,105	-0,46
847,534	-0,46
847,964	-0,45
848,394	-0,44
848,824	-0,47
849,253	-0,46
849,683	-0,46
850,112	-0,48
850,542	-0,51
850,972	-0,51
851,401	-0,49
851,831	-0,47
852,26	-0,47
852,69	-0,51
853,119	-0,5
853,548	-0,5
853,978	-0,51
854,407	-0,49
854,836	-0,48
855,266	-0,48
855,695	-0,5
856,124	-0,51
856,553	-0,53
856,983	-0,55
857,412	-0,54
857,841	-0,56
858,27	-0,56
858,699	-0,56
859,128	-0,59
859,557	-0,61
859,986	-0,62
860,415	-0,59
860,844	-0,57
861,273	-0,58
861,702	-0,59
862,13	-0,56
862,559	-0,57
862,988	-0,55
863,417	-0,54
863,845	-0,53
864,274	-0,53
864,703	-0,52
865,131	-0,52
865,56	-0,53
865,989	-0,56
866,417	-0,52
866,846	-0,53
867,274	-0,52
867,703	-0,55
868,131	-0,56
868,559	-0,56
868,988	-0,59
869,416	-0,58
869,844	-0,6
870,273	-0,61
870,701	-0,59
871,129	-0,63
871,557	-0,66
871,986	-0,67
872,414	-0,67
872,842	-0,64
873,27	-0,62
873,698	-0,59
874,126	-0,62
874,554	-0,61
874,982	-0,61
875,41	-0,64
875,838	-0,6
876,266	-0,57
876,694	-0,56
877,122	-0,55
877,549	-0,6
877,977	-0,56
878,405	-0,6
878,833	-0,57
879,26	-0,56
879,688	-0,56
880,116	-0,53
880,543	-0,52
880,971	-0,51
881,399	-0,54
881,826	-0,56
882,254	-0,54
882,681	-0,58
883,109	-0,54
883,536	-0,55
883,963	-0,56
884,391	-0,54
884,818	-0,53
885,245	-0,56
885,673	-0,58
886,1	-0,55
886,527	-0,54
886,954	-0,51
887,381	-0,53
887,809	-0,55
888,236	-0,56
888,663	-0,56
889,09	-0,61
889,517	-0,63
889,944	-0,62
890,371	-0,6
890,798	-0,6
891,225	-0,61
891,652	-0,63
892,078	-0,6
892,505	-0,63
892,932	-0,58
893,359	-0,59
893,786	-0,58
894,212	-0,54
894,639	-0,57
895,066	-0,6
895,492	-0,55
895,919	-0,55
896,346	-0,55
896,772	-0,55
897,199	-0,52
897,625	-0,56
898,052	-0,51
898,478	-0,5
898,904	-0,52
899,331	-0,51
899,757	-0,52
900,183	-0,53
900,61	-0,52
901,036	-0,51
901,462	-0,51
901,888	-0,51
902,315	-0,49
902,741	-0,54
903,167	-0,53
903,593	-0,55
904,019	-0,55
904,445	-0,53
904,871	-0,55
905,297	-0,57
905,723	-0,57
906,149	-0,56
906,575	-0,56
907,001	-0,56
907,427	-0,54
907,852	-0,53
908,278	-0,54
908,704	-0,52
909,13	-0,51
909,555	-0,51
909,981	-0,5
910,407	-0,52
910,832	-0,52
911,258	-0,52
911,684	-0,52
912,109	-0,52
912,535	-0,54
912,96	-0,49
913,386	-0,53
913,811	-0,53
914,236	-0,54
914,662	-0,52
915,087	-0,55
915,512	-0,54
915,938	-0,56
916,363	-0,56
916,788	-0,57
917,213	-0,55
917,639	-0,61
918,064	-0,58
918,489	-0,58
918,914	-0,58
919,339	-0,6
919,764	-0,56
920,189	-0,57
920,614	-0,59
921,039	-0,58
921,464	-0,54
921,889	-0,57
922,314	-0,57
922,738	-0,61
923,163	-0,63
923,588	-0,61
924,013	-0,61
924,437	-0,61
924,862	-0,62
925,287	-0,58
925,711	-0,58
926,136	-0,59
926,561	-0,56
926,985	-0,55
927,41	-0,51
927,834	-0,49
928,259	-0,47
928,683	-0,46
929,108	-0,44
929,532	-0,45
929,956	-0,44
930,381	-0,44
930,805	-0,44
931,229	-0,44
931,653	-0,43
932,078	-0,43
932,502	-0,44
932,926	-0,45
933,35	-0,45
933,774	-0,44
934,198	-0,43
934,622	-0,43
935,046	-0,44
935,47	-0,44
935,894	-0,43
936,318	-0,43
936,742	-0,43
937,166	-0,43
937,59	-0,42
938,014	-0,44
938,437	-0,45
938,861	-0,47
939,285	-0,46
939,709	-0,45
940,132	-0,46
940,556	-0,47
940,98	-0,47
941,403	-0,45
941,827	-0,46
942,25	-0,47
942,674	-0,45
943,097	-0,45
943,521	-0,44
943,944	-0,46
944,368	-0,45
944,791	-0,43
945,214	-0,44
945,638	-0,44
946,061	-0,48
946,484	-0,48
946,907	-0,48
947,331	-0,49
947,754	-0,53
948,177	-0,5
948,6	-0,49
949,023	-0,49
949,446	-0,49
949,869	-0,47
950,292	-0,47
950,715	-0,44
951,138	-0,42
951,561	-0,4
951,984	-0,4
952,407	-0,38
952,83	-0,37
953,252	-0,33
953,675	-0,33
954,098	-0,34
954,521	-0,33
954,943	-0,32
955,366	-0,32
955,789	-0,32
956,211	-0,34
956,634	-0,34
957,056	-0,32
957,479	-0,33
957,902	-0,36
958,324	-0,36
958,746	-0,34
959,169	-0,36
959,591	-0,36
960,014	-0,37
960,436	-0,36
960,858	-0,36
961,281	-0,36
961,703	-0,37
962,125	-0,37
962,547	-0,35
962,969	-0,35
963,391	-0,35
963,814	-0,37
964,236	-0,36
964,658	-0,33
965,08	-0,35
965,502	-0,34
965,924	-0,32
966,346	-0,32
966,768	-0,31
967,189	-0,33
967,611	-0,32
968,033	-0,32
968,455	-0,3
968,877	-0,32
969,298	-0,32
969,72	-0,33
970,142	-0,33
970,563	-0,33
970,985	-0,31
971,407	-0,31
971,828	-0,29
972,25	-0,28
972,671	-0,27
973,093	-0,26
973,514	-0,25
973,936	-0,23
974,357	-0,22
974,778	-0,22
975,2	-0,22
975,621	-0,21
976,042	-0,2
976,464	-0,18
976,885	-0,17
977,306	-0,17
977,727	-0,16
978,148	-0,16
978,57	-0,14
978,991	-0,12
979,412	-0,11
979,833	-0,1
980,254	-0,09
980,675	-0,1
981,096	-0,1
981,517	-0,08
981,937	-0,08
982,358	-0,06
982,779	-0,05
983,2	-0,05
983,621	-0,05
984,042	-0,04
984,462	-0,03
984,883	-0,02
985,304	-0
985,724	0,01
986,145	0,02
986,565	0,03
986,986	0,03
987,407	0,04
987,827	0,05
988,248	0,06
988,668	0,07
989,088	0,08
989,509	0,09
989,929	0,1
990,35	0,11
990,77	0,12
991,19	0,12
991,61	0,13
992,031	0,14
992,451	0,15
992,871	0,16
993,291	0,16
993,711	0,17
994,131	0,18
994,551	0,18
994,971	0,19
995,391	0,19
995,811	0,2
996,231	0,2
996,651	0,21
997,071	0,21
997,491	0,21
997,911	0,22
998,331	0,22
998,75	0,23
999,17	0,23
999,59	0,24
1000,009	0,24
1000,429	0,24
1000,849	0,25
1001,268	0,25
1001,688	0,25
1002,107	0,25
1002,527	0,26
1002,946	0,26
1003,366	0,26
1003,785	0,26
1004,205	0,27
1004,624	0,27
1005,044	0,27
1005,463	0,27
1005,882	0,27
1006,301	0,27
1006,721	0,27
1007,14	0,27
1007,559	0,27
1007,978	0,27
1008,397	0,28
1008,816	0,27
1009,235	0,27
1009,655	0,27
1010,074	0,27
1010,492	0,27
1010,911	0,27
1011,33	0,27
1011,749	0,27
1012,168	0,27
1012,587	0,27
1013,006	0,27
1013,425	0,26
1013,843	0,26
1014,262	0,26
1014,681	0,26
1015,099	0,26
1015,518	0,26
1015,937	0,26
1016,355	0,26
1016,774	0,26
1017,192	0,26
1017,611	0,26
1018,029	0,26
1018,448	0,26
1018,866	0,26
1019,285	0,26
1019,703	0,26
1020,121	0,26
1020,54	0,26
1020,958	0,26
1021,376	0,27
1021,794	0,27
1022,213	0,27
1022,631	0,27
1023,049	0,26
1023,467	0,26
1023,885	0,26
1024,303	0,26
1024,721	0,26
1025,139	0,26
1025,557	0,26
1025,975	0,26
1026,393	0,26
1026,811	0,26
1027,229	0,26
1027,647	0,26
1028,065	0,26
1028,482	0,26
1028,9	0,26
1029,318	0,26
1029,735	0,26
1030,153	0,26
1030,571	0,26
1030,988	0,26
1031,406	0,26
1031,823	0,26
1032,241	0,26
1032,659	0,26
1033,076	0,26
1033,493	0,26
1033,911	0,26
1034,328	0,26
1034,746	0,26
1035,163	0,26
1035,58	0,26
1035,997	0,26
1036,415	0,26
1036,832	0,26
1037,249	0,26
1037,666	0,26
1038,083	0,26
1038,501	0,25
1038,918	0,25
1039,335	0,25
1039,752	0,25
1040,169	0,25
1040,586	0,25
1041,003	0,25
1041,419	0,25
1041,836	0,25
1042,253	0,25
1042,67	0,25
1043,087	0,25
1043,504	0,25
1043,92	0,25
1044,337	0,25
1044,754	0,25
1045,17	0,25
1045,587	0,25
1046,004	0,25
1046,42	0,25
1046,837	0,25
1047,253	0,25
1047,67	0,25
1048,086	0,25
1048,503	0,25
1048,919	0,25
1049,335	0,25
1049,752	0,25
1050,168	0,25
1050,584	0,25
1051,001	0,25
1051,417	0,25
1051,833	0,25
1052,249	0,25
1052,665	0,25
1053,081	0,25
1053,497	0,25
1053,914	0,25
1054,33	0,25
1054,746	0,25
1055,162	0,25
1055,578	0,25
1055,993	0,26
1056,409	0,26
1056,825	0,26
1057,241	0,26
1057,657	0,26
1058,073	0,26
1058,488	0,26
1058,904	0,26
1059,32	0,26
1059,736	0,26
1060,151	0,26
1060,567	0,26
1060,982	0,26
1061,398	0,26
1061,813	0,26
1062,229	0,26
1062,644	0,26
1063,06	0,26
1063,475	0,25
1063,891	0,25
1064,306	0,25
1064,721	0,25
1065,137	0,25
1065,552	0,25
1065,967	0,25
1066,382	0,25
1066,798	0,25
1067,213	0,25
1067,628	0,25
1068,043	0,26
1068,458	0,26
1068,873	0,26
1069,288	0,26
1069,703	0,26
1070,118	0,26
1070,533	0,26
1070,948	0,26
1071,363	0,26
1071,778	0,26
1072,193	0,26
1072,607	0,26
1073,022	0,26
1073,437	0,26
1073,852	0,26
1074,266	0,26
1074,681	0,26
1075,096	0,26
1075,51	0,26
1075,925	0,26
1076,339	0,26
1076,754	0,26
1077,168	0,26
1077,583	0,26
1077,997	0,26
1078,412	0,26
1078,826	0,25
1079,24	0,25
1079,655	0,25
1080,069	0,25
1080,483	0,25
1080,897	0,25
1081,312	0,25
1081,726	0,25
1082,14	0,25
1082,554	0,25
1082,968	0,25
1083,382	0,25
1083,796	0,25
1084,21	0,24
1084,624	0,24
1085,038	0,24
1085,452	0,24
1085,866	0,24
1086,28	0,24
1086,694	0,24
1087,108	0,24
1087,521	0,24
1087,935	0,23
1088,349	0,23
1088,763	0,23
1089,176	0,23
1089,59	0,23
1090,004	0,23
1090,417	0,22
1090,831	0,22
1091,244	0,22
1091,658	0,22
1092,071	0,22
1092,485	0,22
1092,898	0,21
1093,312	0,21
1093,725	0,21
1094,138	0,21
1094,552	0,21
1094,965	0,21
1095,378	0,21
1095,791	0,21
1096,205	0,21
1096,618	0,21
1097,031	0,2
1097,444	0,2
1097,857	0,2
1098,27	0,2
1098,683	0,19
1099,096	0,19
1099,509	0,19
1099,922	0,19
1100,335	0,18
1100,748	0,18
1101,161	0,17
1101,574	0,17
1101,986	0,17
1102,399	0,17
1102,812	0,16
1103,225	0,16
1103,637	0,16
1104,05	0,16
1104,463	0,16
1104,875	0,15
1105,288	0,15
1105,7	0,15
1106,113	0,15
1106,525	0,14
1106,938	0,14
1107,35	0,13
1107,763	0,14
1108,175	0,13
1108,588	0,13
1109	0,12
1109,412	0,12
1109,824	0,12
1110,237	0,12
1110,649	0,11
1111,061	0,1
