Data from 18C-808nm-8A-cont_Absorbance__352__01781.txt Node

Date: Mon Jul 17 17:31:15 CEST 2023
User: Laser008
Spectrometer: MAYP115816
Trigger mode: 0
Integration Time (sec): 2,500000E-1
Scans to average: 10
Electric dark correction enabled: true
Nonlinearity correction enabled: true
Boxcar width: 5
XAxis mode: Wavelengths
Number of Pixels in Spectrum: 2068
>>>>>Begin Spectral Data<<<<<
198,914	-0,7
199,384	-0,49
199,855	-0,36
200,325	-0,28
200,796	-0,25
201,266	-0,2
201,737	-0,18
202,207	-0,17
202,677	-0,16
203,147	-0,14
203,618	-0,11
204,088	-0,1
204,558	-0,08
205,028	-0,08
205,498	-0,09
205,968	-0,09
206,439	-0,1
206,909	-0,1
207,379	-0,1
207,849	-0,11
208,319	-0,11
208,789	-0,12
209,258	-0,11
209,728	-0,13
210,198	-0,12
210,668	-0,11
211,138	-0,1
211,608	-0,11
212,077	-0,11
212,547	-0,11
213,017	-0,1
213,486	-0,11
213,956	-0,12
214,426	-0,13
214,895	-0,12
215,365	-0,14
215,834	-0,14
216,304	-0,15
216,773	-0,15
217,243	-0,17
217,712	-0,18
218,181	-0,18
218,651	-0,18
219,12	-0,18
219,589	-0,18
220,058	-0,17
220,528	-0,18
220,997	-0,19
221,466	-0,19
221,935	-0,2
222,404	-0,19
222,873	-0,17
223,342	-0,17
223,812	-0,16
224,281	-0,16
224,749	-0,16
225,218	-0,18
225,687	-0,19
226,156	-0,18
226,625	-0,15
227,094	-0,16
227,563	-0,16
228,031	-0,18
228,5	-0,18
228,969	-0,19
229,438	-0,18
229,906	-0,17
230,375	-0,16
230,844	-0,16
231,312	-0,16
231,781	-0,18
232,249	-0,16
232,718	-0,17
233,186	-0,15
233,655	-0,15
234,123	-0,15
234,591	-0,15
235,06	-0,16
235,528	-0,17
235,996	-0,16
236,465	-0,15
236,933	-0,15
237,401	-0,15
237,869	-0,14
238,337	-0,13
238,805	-0,12
239,274	-0,12
239,742	-0,11
240,21	-0,12
240,678	-0,11
241,146	-0,11
241,614	-0,11
242,081	-0,11
242,549	-0,11
243,017	-0,12
243,485	-0,12
243,953	-0,12
244,421	-0,12
244,888	-0,12
245,356	-0,11
245,824	-0,11
246,291	-0,11
246,759	-0,12
247,227	-0,12
247,694	-0,11
248,162	-0,1
248,629	-0,1
249,097	-0,1
249,564	-0,11
250,032	-0,12
250,499	-0,11
250,967	-0,12
251,434	-0,12
251,901	-0,12
252,369	-0,13
252,836	-0,14
253,303	-0,15
253,77	-0,17
254,237	-0,16
254,705	-0,17
255,172	-0,16
255,639	-0,16
256,106	-0,18
256,573	-0,17
257,04	-0,17
257,507	-0,17
257,974	-0,18
258,441	-0,16
258,908	-0,16
259,375	-0,17
259,841	-0,17
260,308	-0,17
260,775	-0,18
261,242	-0,17
261,709	-0,18
262,175	-0,18
262,642	-0,19
263,109	-0,18
263,575	-0,19
264,042	-0,18
264,508	-0,17
264,975	-0,19
265,441	-0,2
265,908	-0,21
266,374	-0,2
266,841	-0,21
267,307	-0,21
267,773	-0,19
268,24	-0,2
268,706	-0,2
269,172	-0,21
269,639	-0,22
270,105	-0,2
270,571	-0,21
271,037	-0,21
271,503	-0,22
271,969	-0,21
272,435	-0,21
272,902	-0,23
273,368	-0,24
273,834	-0,23
274,3	-0,24
274,765	-0,23
275,231	-0,24
275,697	-0,23
276,163	-0,21
276,629	-0,2
277,095	-0,21
277,56	-0,21
278,026	-0,22
278,492	-0,2
278,958	-0,2
279,423	-0,2
279,889	-0,19
280,354	-0,19
280,82	-0,2
281,286	-0,21
281,751	-0,21
282,217	-0,2
282,682	-0,2
283,147	-0,2
283,613	-0,21
284,078	-0,21
284,544	-0,22
285,009	-0,24
285,474	-0,24
285,939	-0,24
286,405	-0,23
286,87	-0,23
287,335	-0,22
287,8	-0,21
288,265	-0,2
288,73	-0,22
289,195	-0,23
289,66	-0,23
290,125	-0,2
290,59	-0,2
291,055	-0,2
291,52	-0,2
291,985	-0,21
292,45	-0,23
292,915	-0,22
293,38	-0,23
293,844	-0,2
294,309	-0,19
294,774	-0,18
295,239	-0,2
295,703	-0,2
296,168	-0,2
296,632	-0,19
297,097	-0,18
297,562	-0,16
298,026	-0,17
298,491	-0,17
298,955	-0,17
299,419	-0,17
299,884	-0,16
300,348	-0,15
300,813	-0,14
301,277	-0,15
301,741	-0,15
302,205	-0,15
302,67	-0,14
303,134	-0,13
303,598	-0,12
304,062	-0,12
304,526	-0,1
304,99	-0,12
305,454	-0,11
305,919	-0,1
306,383	-0,1
306,847	-0,1
307,31	-0,11
307,774	-0,13
308,238	-0,12
308,702	-0,12
309,166	-0,14
309,63	-0,14
310,094	-0,12
310,557	-0,13
311,021	-0,13
311,485	-0,12
311,948	-0,12
312,412	-0,11
312,876	-0,1
313,339	-0,11
313,803	-0,11
314,266	-0,1
314,73	-0,1
315,193	-0,1
315,657	-0,09
316,12	-0,09
316,584	-0,08
317,047	-0,09
317,51	-0,07
317,973	-0,07
318,437	-0,06
318,9	-0,06
319,363	-0,04
319,826	-0,04
320,29	-0,04
320,753	-0,04
321,216	-0,04
321,679	-0,05
322,142	-0,04
322,605	-0,06
323,068	-0,06
323,531	-0,05
323,994	-0,05
324,457	-0,06
324,92	-0,05
325,382	-0,05
325,845	-0,04
326,308	-0,04
326,771	-0,04
327,233	-0,03
327,696	-0,02
328,159	-0,01
328,622	-0
329,084	-0
329,547	0,01
330,009	0,01
330,472	0,02
330,934	0,03
331,397	0,04
331,859	0,05
332,322	0,05
332,784	0,06
333,246	0,06
333,709	0,06
334,171	0,07
334,633	0,08
335,096	0,08
335,558	0,08
336,02	0,08
336,482	0,08
336,944	0,09
337,406	0,09
337,868	0,1
338,331	0,1
338,793	0,11
339,255	0,11
339,717	0,11
340,178	0,12
340,64	0,13
341,102	0,13
341,564	0,14
342,026	0,15
342,488	0,17
342,949	0,18
343,411	0,21
343,873	0,24
344,335	0,26
344,796	0,3
345,258	0,35
345,719	0,4
346,181	0,45
346,643	0,49
347,104	0,52
347,566	0,55
348,027	0,58
348,488	0,6
348,95	0,62
349,411	0,65
349,873	0,67
350,334	0,69
350,795	0,71
351,256	0,72
351,718	0,73
352,179	0,74
352,64	0,74
353,101	0,74
353,562	0,75
354,023	0,75
354,484	0,75
354,945	0,76
355,406	0,76
355,867	0,76
356,328	0,76
356,789	0,77
357,25	0,77
357,711	0,77
358,172	0,77
358,633	0,77
359,093	0,78
359,554	0,78
360,015	0,78
360,476	0,78
360,936	0,78
361,397	0,78
361,858	0,78
362,318	0,79
362,779	0,79
363,239	0,79
363,7	0,79
364,16	0,79
364,621	0,79
365,081	0,79
365,541	0,79
366,002	0,79
366,462	0,79
366,922	0,79
367,383	0,78
367,843	0,78
368,303	0,78
368,763	0,79
369,223	0,79
369,684	0,79
370,144	0,79
370,604	0,79
371,064	0,79
371,524	0,79
371,984	0,79
372,444	0,79
372,904	0,78
373,363	0,78
373,823	0,78
374,283	0,78
374,743	0,78
375,203	0,78
375,663	0,78
376,122	0,78
376,582	0,78
377,042	0,78
377,501	0,78
377,961	0,78
378,42	0,78
378,88	0,78
379,34	0,78
379,799	0,78
380,259	0,78
380,718	0,78
381,177	0,78
381,637	0,78
382,096	0,78
382,555	0,78
383,015	0,78
383,474	0,78
383,933	0,78
384,393	0,78
384,852	0,78
385,311	0,78
385,77	0,78
386,229	0,78
386,688	0,77
387,147	0,77
387,606	0,77
388,065	0,77
388,524	0,77
388,983	0,77
389,442	0,77
389,901	0,77
390,36	0,77
390,819	0,77
391,277	0,77
391,736	0,77
392,195	0,77
392,654	0,77
393,112	0,77
393,571	0,77
394,03	0,77
394,488	0,77
394,947	0,77
395,405	0,77
395,864	0,77
396,322	0,77
396,781	0,77
397,239	0,77
397,698	0,77
398,156	0,77
398,614	0,77
399,073	0,77
399,531	0,77
399,989	0,76
400,447	0,76
400,905	0,76
401,364	0,76
401,822	0,76
402,28	0,76
402,738	0,76
403,196	0,76
403,654	0,76
404,112	0,76
404,57	0,76
405,028	0,76
405,486	0,76
405,944	0,76
406,402	0,76
406,859	0,76
407,317	0,76
407,775	0,76
408,233	0,76
408,691	0,76
409,148	0,76
409,606	0,76
410,064	0,76
410,521	0,76
410,979	0,76
411,436	0,76
411,894	0,76
412,351	0,76
412,809	0,76
413,266	0,76
413,724	0,76
414,181	0,76
414,638	0,76
415,096	0,76
415,553	0,75
416,01	0,75
416,467	0,75
416,925	0,75
417,382	0,75
417,839	0,75
418,296	0,75
418,753	0,75
419,21	0,75
419,667	0,75
420,124	0,75
420,581	0,75
421,038	0,75
421,495	0,75
421,952	0,75
422,409	0,75
422,866	0,75
423,322	0,75
423,779	0,75
424,236	0,75
424,693	0,75
425,149	0,75
425,606	0,75
426,063	0,75
426,519	0,75
426,976	0,75
427,433	0,75
427,889	0,75
428,346	0,75
428,802	0,75
429,258	0,75
429,715	0,75
430,171	0,75
430,628	0,75
431,084	0,75
431,54	0,75
431,997	0,75
432,453	0,75
432,909	0,75
433,365	0,75
433,821	0,75
434,277	0,75
434,734	0,75
435,19	0,75
435,646	0,75
436,102	0,75
436,558	0,75
437,014	0,75
437,47	0,75
437,925	0,75
438,381	0,75
438,837	0,75
439,293	0,75
439,749	0,75
440,205	0,75
440,66	0,75
441,116	0,75
441,572	0,75
442,027	0,75
442,483	0,75
442,939	0,75
443,394	0,75
443,85	0,75
444,305	0,75
444,761	0,75
445,216	0,75
445,672	0,75
446,127	0,75
446,582	0,75
447,038	0,75
447,493	0,75
447,948	0,75
448,403	0,75
448,859	0,75
449,314	0,76
449,769	0,76
450,224	0,76
450,679	0,76
451,134	0,76
451,589	0,76
452,044	0,76
452,499	0,76
452,954	0,76
453,409	0,76
453,864	0,76
454,319	0,76
454,774	0,76
455,229	0,76
455,684	0,76
456,138	0,76
456,593	0,76
457,048	0,76
457,503	0,76
457,957	0,76
458,412	0,76
458,866	0,76
459,321	0,76
459,776	0,76
460,23	0,76
460,685	0,76
461,139	0,76
461,593	0,76
462,048	0,76
462,502	0,77
462,957	0,77
463,411	0,77
463,865	0,77
464,319	0,77
464,774	0,77
465,228	0,77
465,682	0,77
466,136	0,77
466,59	0,77
467,044	0,77
467,499	0,78
467,953	0,78
468,407	0,78
468,861	0,78
469,315	0,78
469,768	0,78
470,222	0,78
470,676	0,78
471,13	0,78
471,584	0,78
472,038	0,78
472,491	0,78
472,945	0,78
473,399	0,79
473,852	0,79
474,306	0,79
474,76	0,79
475,213	0,79
475,667	0,79
476,12	0,79
476,574	0,79
477,027	0,8
477,481	0,8
477,934	0,8
478,388	0,8
478,841	0,8
479,294	0,8
479,748	0,81
480,201	0,81
480,654	0,81
481,107	0,81
481,561	0,81
482,014	0,82
482,467	0,82
482,92	0,82
483,373	0,82
483,826	0,82
484,279	0,82
484,732	0,83
485,185	0,83
485,638	0,83
486,091	0,83
486,544	0,83
486,997	0,84
487,449	0,84
487,902	0,84
488,355	0,84
488,808	0,85
489,26	0,85
489,713	0,85
490,166	0,86
490,618	0,86
491,071	0,86
491,523	0,86
491,976	0,87
492,429	0,87
492,881	0,87
493,333	0,88
493,786	0,88
494,238	0,88
494,691	0,89
495,143	0,89
495,595	0,89
496,048	0,9
496,5	0,9
496,952	0,9
497,404	0,91
497,856	0,91
498,309	0,91
498,761	0,92
499,213	0,92
499,665	0,93
500,117	0,93
500,569	0,93
501,021	0,94
501,473	0,94
501,925	0,95
502,377	0,95
502,828	0,95
503,28	0,96
503,732	0,96
504,184	0,97
504,636	0,97
505,087	0,97
505,539	0,98
505,991	0,98
506,442	0,99
506,894	0,99
507,345	0,99
507,797	1
508,249	1
508,7	1,01
509,151	1,01
509,603	1,01
510,054	1,02
510,506	1,02
510,957	1,02
511,408	1,03
511,86	1,03
512,311	1,03
512,762	1,04
513,213	1,04
513,665	1,04
514,116	1,05
514,567	1,05
515,018	1,05
515,469	1,06
515,92	1,06
516,371	1,06
516,822	1,07
517,273	1,07
517,724	1,07
518,175	1,08
518,626	1,08
519,076	1,08
519,527	1,08
519,978	1,09
520,429	1,09
520,88	1,09
521,33	1,09
521,781	1,1
522,232	1,1
522,682	1,1
523,133	1,1
523,583	1,1
524,034	1,1
524,484	1,1
524,935	1,11
525,385	1,11
525,836	1,11
526,286	1,11
526,736	1,11
527,187	1,11
527,637	1,11
528,087	1,1
528,538	1,1
528,988	1,1
529,438	1,1
529,888	1,1
530,338	1,1
530,788	1,1
531,238	1,1
531,688	1,09
532,139	1,09
532,589	1,09
533,038	1,09
533,488	1,09
533,938	1,09
534,388	1,08
534,838	1,08
535,288	1,08
535,738	1,08
536,187	1,07
536,637	1,07
537,087	1,07
537,537	1,06
537,986	1,06
538,436	1,05
538,885	1,05
539,335	1,04
539,785	1,04
540,234	1,04
540,684	1,03
541,133	1,03
541,582	1,02
542,032	1,02
542,481	1,01
542,931	1,01
543,38	1
543,829	1
544,278	0,99
544,728	0,99
545,177	0,98
545,626	0,98
546,075	0,97
546,524	0,97
546,973	0,97
547,422	0,96
547,871	0,96
548,32	0,95
548,769	0,95
549,218	0,95
549,667	0,94
550,116	0,94
550,565	0,94
551,014	0,93
551,463	0,93
551,911	0,92
552,36	0,92
552,809	0,91
553,258	0,91
553,706	0,9
554,155	0,9
554,603	0,89
555,052	0,89
555,501	0,88
555,949	0,88
556,398	0,87
556,846	0,87
557,294	0,86
557,743	0,86
558,191	0,85
558,64	0,85
559,088	0,84
559,536	0,84
559,985	0,83
560,433	0,83
560,881	0,82
561,329	0,82
561,777	0,81
562,225	0,81
562,674	0,81
563,122	0,8
563,57	0,8
564,018	0,79
564,466	0,79
564,914	0,79
565,362	0,78
565,809	0,78
566,257	0,77
566,705	0,77
567,153	0,76
567,601	0,76
568,048	0,76
568,496	0,75
568,944	0,75
569,392	0,75
569,839	0,74
570,287	0,74
570,734	0,73
571,182	0,73
571,63	0,73
572,077	0,72
572,525	0,72
572,972	0,72
573,419	0,71
573,867	0,71
574,314	0,71
574,761	0,7
575,209	0,7
575,656	0,69
576,103	0,69
576,551	0,69
576,998	0,69
577,445	0,68
577,892	0,68
578,339	0,68
578,786	0,67
579,233	0,67
579,68	0,67
580,127	0,66
580,574	0,66
581,021	0,66
581,468	0,65
581,915	0,65
582,362	0,65
582,809	0,65
583,255	0,64
583,702	0,64
584,149	0,64
584,596	0,64
585,042	0,63
585,489	0,63
585,936	0,63
586,382	0,63
586,829	0,63
587,275	0,62
587,722	0,62
588,168	0,62
588,615	0,62
589,061	0,61
589,508	0,61
589,954	0,61
590,4	0,61
590,847	0,61
591,293	0,6
591,739	0,6
592,185	0,6
592,632	0,6
593,078	0,6
593,524	0,6
593,97	0,59
594,416	0,59
594,862	0,59
595,308	0,59
595,754	0,59
596,2	0,59
596,646	0,58
597,092	0,58
597,538	0,58
597,984	0,58
598,43	0,58
598,876	0,58
599,321	0,58
599,767	0,57
600,213	0,57
600,659	0,57
601,104	0,57
601,55	0,57
601,995	0,57
602,441	0,57
602,887	0,56
603,332	0,56
603,778	0,56
604,223	0,56
604,668	0,56
605,114	0,56
605,559	0,56
606,005	0,56
606,45	0,56
606,895	0,55
607,341	0,55
607,786	0,55
608,231	0,55
608,676	0,54
609,121	0,54
609,566	0,53
610,012	0,53
610,457	0,53
610,902	0,52
611,347	0,52
611,792	0,52
612,237	0,52
612,682	0,51
613,127	0,51
613,571	0,52
614,016	0,52
614,461	0,52
614,906	0,52
615,351	0,52
615,795	0,52
616,24	0,52
616,685	0,52
617,129	0,52
617,574	0,52
618,019	0,52
618,463	0,52
618,908	0,52
619,352	0,52
619,797	0,52
620,241	0,52
620,686	0,52
621,13	0,52
621,574	0,52
622,019	0,52
622,463	0,51
622,907	0,51
623,352	0,51
623,796	0,51
624,24	0,51
624,684	0,51
625,128	0,51
625,572	0,51
626,016	0,51
626,461	0,51
626,905	0,51
627,349	0,51
627,793	0,51
628,236	0,51
628,68	0,51
629,124	0,51
629,568	0,51
630,012	0,51
630,456	0,51
630,9	0,51
631,343	0,51
631,787	0,51
632,231	0,51
632,674	0,51
633,118	0,5
633,562	0,5
634,005	0,5
634,449	0,5
634,892	0,5
635,336	0,5
635,779	0,5
636,223	0,5
636,666	0,5
637,109	0,5
637,553	0,5
637,996	0,5
638,439	0,5
638,883	0,5
639,326	0,5
639,769	0,5
640,212	0,5
640,655	0,5
641,099	0,5
641,542	0,49
641,985	0,49
642,428	0,49
642,871	0,49
643,314	0,49
643,757	0,49
644,2	0,49
644,643	0,49
645,085	0,49
645,528	0,49
645,971	0,49
646,414	0,49
646,857	0,49
647,299	0,49
647,742	0,49
648,185	0,49
648,627	0,49
649,07	0,48
649,513	0,48
649,955	0,48
650,398	0,48
650,84	0,48
651,283	0,49
651,725	0,49
652,168	0,49
652,61	0,49
653,052	0,49
653,495	0,49
653,937	0,4
654,379	0,34
654,821	0,35
655,264	0,35
655,706	0,35
656,148	0,35
656,59	0,35
657,032	0,35
657,474	0,35
657,916	0,35
658,358	0,34
658,8	0,4
659,242	0,48
659,684	0,48
660,126	0,48
660,568	0,48
661,01	0,48
661,452	0,48
661,894	0,48
662,335	0,48
662,777	0,48
663,219	0,48
663,661	0,48
664,102	0,48
664,544	0,48
664,985	0,48
665,427	0,48
665,869	0,48
666,31	0,48
666,752	0,48
667,193	0,48
667,634	0,48
668,076	0,48
668,517	0,48
668,959	0,48
669,4	0,48
669,841	0,48
670,282	0,48
670,724	0,48
671,165	0,48
671,606	0,48
672,047	0,48
672,488	0,48
672,929	0,48
673,37	0,48
673,811	0,47
674,252	0,47
674,693	0,47
675,134	0,47
675,575	0,47
676,016	0,47
676,457	0,47
676,898	0,47
677,339	0,47
677,78	0,46
678,22	0,46
678,661	0,46
679,102	0,46
679,542	0,46
679,983	0,46
680,424	0,46
680,864	0,46
681,305	0,47
681,745	0,47
682,186	0,47
682,626	0,47
683,067	0,47
683,507	0,47
683,948	0,47
684,388	0,47
684,828	0,47
685,269	0,47
685,709	0,47
686,149	0,46
686,589	0,46
687,029	0,46
687,47	0,46
687,91	0,46
688,35	0,46
688,79	0,46
689,23	0,46
689,67	0,46
690,11	0,46
690,55	0,46
690,99	0,46
691,43	0,46
691,87	0,46
692,31	0,46
692,749	0,45
693,189	0,45
693,629	0,45
694,069	0,45
694,508	0,45
694,948	0,45
695,388	0,45
695,827	0,45
696,267	0,45
696,706	0,45
697,146	0,45
697,586	0,45
698,025	0,45
698,464	0,46
698,904	0,46
699,343	0,46
699,783	0,46
700,222	0,46
700,661	0,46
701,101	0,46
701,54	0,46
701,979	0,46
702,418	0,46
702,857	0,46
703,297	0,46
703,736	0,46
704,175	0,46
704,614	0,46
705,053	0,46
705,492	0,46
705,931	0,45
706,37	0,45
706,809	0,45
707,248	0,45
707,687	0,45
708,125	0,45
708,564	0,45
709,003	0,45
709,442	0,45
709,88	0,45
710,319	0,45
710,758	0,45
711,196	0,45
711,635	0,45
712,074	0,45
712,512	0,44
712,951	0,44
713,389	0,44
713,828	0,44
714,266	0,44
714,705	0,44
715,143	0,44
715,581	0,44
716,02	0,44
716,458	0,44
716,896	0,44
717,334	0,44
717,773	0,44
718,211	0,44
718,649	0,44
719,087	0,44
719,525	0,44
719,963	0,45
720,401	0,45
720,839	0,45
721,277	0,45
721,715	0,45
722,153	0,45
722,591	0,45
723,029	0,45
723,467	0,44
723,905	0,44
724,342	0,44
724,78	0,44
725,218	0,44
725,656	0,45
726,093	0,45
726,531	0,45
726,969	0,45
727,406	0,45
727,844	0,45
728,281	0,45
728,719	0,45
729,156	0,44
729,594	0,44
730,031	0,44
730,469	0,44
730,906	0,44
731,343	0,44
731,781	0,44
732,218	0,44
732,655	0,44
733,092	0,44
733,53	0,44
733,967	0,43
734,404	0,43
734,841	0,43
735,278	0,43
735,715	0,43
736,152	0,43
736,589	0,43
737,026	0,43
737,463	0,43
737,9	0,43
738,337	0,43
738,774	0,43
739,211	0,43
739,647	0,43
740,084	0,43
740,521	0,43
740,958	0,43
741,394	0,43
741,831	0,43
742,268	0,43
742,704	0,43
743,141	0,43
743,577	0,43
744,014	0,43
744,45	0,43
744,887	0,43
745,323	0,43
745,76	0,42
746,196	0,42
746,632	0,42
747,069	0,42
747,505	0,42
747,941	0,42
748,378	0,42
748,814	0,42
749,25	0,42
749,686	0,42
750,122	0,42
750,558	0,42
750,994	0,43
751,43	0,43
751,866	0,43
752,302	0,43
752,738	0,43
753,174	0,43
753,61	0,43
754,046	0,43
754,482	0,43
754,918	0,43
755,354	0,43
755,789	0,43
756,225	0,43
756,661	0,43
757,096	0,43
757,532	0,42
757,968	0,42
758,403	0,42
758,839	0,42
759,274	0,42
759,71	0,41
760,145	0,41
760,581	0,4
761,016	0,39
761,452	0,39
761,887	0,39
762,322	0,38
762,758	0,37
763,193	0,37
763,628	0,36
764,063	0,35
764,499	0,35
764,934	0,34
765,369	0,34
765,804	0,33
766,239	0,32
766,674	0,32
767,109	0,31
767,544	0,3
767,979	0,29
768,414	0,28
768,849	0,27
769,284	0,27
769,719	0,26
770,154	0,25
770,588	0,24
771,023	0,23
771,458	0,22
771,893	0,21
772,327	0,19
772,762	0,19
773,197	0,18
773,631	0,17
774,066	0,16
774,5	0,15
774,935	0,14
775,369	0,13
775,804	0,12
776,238	0,11
776,673	0,1
777,107	0,1
777,541	0,08
777,976	0,07
778,41	0,07
778,844	0,06
779,279	0,05
779,713	0,04
780,147	0,03
780,581	0,02
781,015	0,01
781,449	-0
781,883	-0,01
782,317	-0,02
782,751	-0,03
783,185	-0,04
783,619	-0,05
784,053	-0,06
784,487	-0,07
784,921	-0,08
785,355	-0,08
785,789	-0,09
786,223	-0,1
786,656	-0,11
787,09	-0,12
787,524	-0,13
787,957	-0,14
788,391	-0,16
788,825	-0,18
789,258	-0,19
789,692	-0,21
790,125	-0,23
790,559	-0,24
790,992	-0,26
791,426	-0,29
791,859	-0,3
792,293	-0,33
792,726	-0,35
793,159	-0,37
793,593	-0,39
794,026	-0,41
794,459	-0,44
794,892	-0,47
795,326	-0,49
795,759	-0,53
796,192	-0,57
796,625	-0,61
797,058	-0,63
797,491	-0,68
797,924	-0,71
798,357	-0,76
798,79	-0,8
799,223	-0,84
799,656	-0,89
800,089	-0,94
800,522	-0,98
800,955	-1,03
801,387	-1,09
801,82	-1,14
802,253	-1,2
802,686	-1,28
803,118	-1,34
803,551	-1,39
803,984	-1,44
804,416	-1,47
804,849	-1,51
805,281	-1,65
805,714	-2,01
806,146	-2,46
806,579	-2,72
807,011	-2,87
807,444	-2,97
807,876	-3,05
808,308	-3,08
808,741	-3,11
809,173	-3,16
809,605	-3,18
810,037	-3,26
810,47	-3,17
810,902	-2,97
811,334	-2,82
811,766	-2,65
812,198	-2,39
812,63	-1,97
813,062	-1,77
813,494	-1,68
813,926	-1,59
814,358	-1,54
814,79	-1,46
815,222	-1,4
815,654	-1,35
816,086	-1,29
816,518	-1,23
816,949	-1,18
817,381	-1,14
817,813	-1,12
818,245	-1,08
818,676	-1,04
819,108	-1,01
819,54	-0,99
819,971	-0,97
820,403	-0,92
820,834	-0,91
821,266	-0,87
821,697	-0,85
822,129	-0,83
822,56	-0,81
822,991	-0,79
823,423	-0,76
823,854	-0,76
824,286	-0,73
824,717	-0,72
825,148	-0,7
825,579	-0,69
826,01	-0,68
826,442	-0,67
826,873	-0,65
827,304	-0,62
827,735	-0,61
828,166	-0,61
828,597	-0,6
829,028	-0,6
829,459	-0,61
829,89	-0,6
830,321	-0,56
830,752	-0,56
831,183	-0,56
831,613	-0,55
832,044	-0,55
832,475	-0,54
832,906	-0,55
833,336	-0,56
833,767	-0,56
834,198	-0,55
834,628	-0,53
835,059	-0,56
835,49	-0,57
835,92	-0,54
836,351	-0,54
836,781	-0,54
837,212	-0,55
837,642	-0,55
838,072	-0,53
838,503	-0,54
838,933	-0,52
839,364	-0,53
839,794	-0,51
840,224	-0,5
840,654	-0,54
841,085	-0,55
841,515	-0,52
841,945	-0,52
842,375	-0,48
842,805	-0,47
843,235	-0,46
843,665	-0,47
844,095	-0,45
844,525	-0,48
844,955	-0,48
845,385	-0,45
845,815	-0,44
846,245	-0,46
846,675	-0,48
847,105	-0,5
847,534	-0,5
847,964	-0,48
848,394	-0,47
848,824	-0,5
849,253	-0,49
849,683	-0,49
850,112	-0,5
850,542	-0,52
850,972	-0,53
851,401	-0,5
851,831	-0,48
852,26	-0,49
852,69	-0,53
853,119	-0,51
853,548	-0,53
853,978	-0,53
854,407	-0,51
854,836	-0,52
855,266	-0,52
855,695	-0,54
856,124	-0,56
856,553	-0,57
856,983	-0,58
857,412	-0,58
857,841	-0,59
858,27	-0,59
858,699	-0,6
859,128	-0,64
859,557	-0,64
859,986	-0,65
860,415	-0,63
860,844	-0,6
861,273	-0,61
861,702	-0,62
862,13	-0,6
862,559	-0,62
862,988	-0,6
863,417	-0,59
863,845	-0,57
864,274	-0,57
864,703	-0,57
865,131	-0,56
865,56	-0,56
865,989	-0,59
866,417	-0,55
866,846	-0,55
867,274	-0,54
867,703	-0,55
868,131	-0,58
868,559	-0,58
868,988	-0,6
869,416	-0,59
869,844	-0,61
870,273	-0,64
870,701	-0,62
871,129	-0,66
871,557	-0,69
871,986	-0,69
872,414	-0,7
872,842	-0,66
873,27	-0,64
873,698	-0,62
874,126	-0,66
874,554	-0,64
874,982	-0,63
875,41	-0,66
875,838	-0,61
876,266	-0,58
876,694	-0,59
877,122	-0,57
877,549	-0,63
877,977	-0,6
878,405	-0,63
878,833	-0,59
879,26	-0,58
879,688	-0,59
880,116	-0,56
880,543	-0,55
880,971	-0,54
881,399	-0,56
881,826	-0,58
882,254	-0,55
882,681	-0,58
883,109	-0,54
883,536	-0,56
883,963	-0,57
884,391	-0,56
884,818	-0,55
885,245	-0,58
885,673	-0,59
886,1	-0,57
886,527	-0,57
886,954	-0,53
887,381	-0,55
887,809	-0,56
888,236	-0,58
888,663	-0,58
889,09	-0,62
889,517	-0,64
889,944	-0,64
890,371	-0,63
890,798	-0,63
891,225	-0,62
891,652	-0,65
892,078	-0,63
892,505	-0,66
892,932	-0,6
893,359	-0,62
893,786	-0,62
894,212	-0,59
894,639	-0,61
895,066	-0,64
895,492	-0,59
895,919	-0,59
896,346	-0,58
896,772	-0,59
897,199	-0,56
897,625	-0,6
898,052	-0,56
898,478	-0,55
898,904	-0,56
899,331	-0,55
899,757	-0,55
900,183	-0,58
900,61	-0,56
901,036	-0,57
901,462	-0,55
901,888	-0,55
902,315	-0,53
902,741	-0,58
903,167	-0,57
903,593	-0,59
904,019	-0,58
904,445	-0,55
904,871	-0,57
905,297	-0,59
905,723	-0,59
906,149	-0,58
906,575	-0,59
907,001	-0,59
907,427	-0,56
907,852	-0,55
908,278	-0,56
908,704	-0,54
909,13	-0,54
909,555	-0,54
909,981	-0,53
910,407	-0,53
910,832	-0,53
911,258	-0,53
911,684	-0,53
912,109	-0,53
912,535	-0,55
912,96	-0,5
913,386	-0,54
913,811	-0,54
914,236	-0,55
914,662	-0,53
915,087	-0,56
915,512	-0,56
915,938	-0,58
916,363	-0,57
916,788	-0,58
917,213	-0,57
917,639	-0,61
918,064	-0,58
918,489	-0,58
918,914	-0,59
919,339	-0,61
919,764	-0,58
920,189	-0,57
920,614	-0,59
921,039	-0,59
921,464	-0,55
921,889	-0,58
922,314	-0,59
922,738	-0,62
923,163	-0,64
923,588	-0,64
924,013	-0,63
924,437	-0,62
924,862	-0,64
925,287	-0,6
925,711	-0,61
926,136	-0,63
926,561	-0,61
926,985	-0,61
927,41	-0,58
927,834	-0,56
928,259	-0,52
928,683	-0,5
929,108	-0,48
929,532	-0,49
929,956	-0,49
930,381	-0,48
930,805	-0,48
931,229	-0,48
931,653	-0,46
932,078	-0,46
932,502	-0,48
932,926	-0,49
933,35	-0,49
933,774	-0,48
934,198	-0,46
934,622	-0,45
935,046	-0,45
935,47	-0,45
935,894	-0,44
936,318	-0,44
936,742	-0,44
937,166	-0,45
937,59	-0,44
938,014	-0,47
938,437	-0,47
938,861	-0,5
939,285	-0,5
939,709	-0,5
940,132	-0,5
940,556	-0,5
940,98	-0,5
941,403	-0,48
941,827	-0,48
942,25	-0,5
942,674	-0,48
943,097	-0,48
943,521	-0,47
943,944	-0,49
944,368	-0,48
944,791	-0,46
945,214	-0,49
945,638	-0,5
946,061	-0,53
946,484	-0,53
946,907	-0,51
947,331	-0,51
947,754	-0,55
948,177	-0,52
948,6	-0,51
949,023	-0,5
949,446	-0,51
949,869	-0,48
950,292	-0,48
950,715	-0,45
951,138	-0,43
951,561	-0,42
951,984	-0,42
952,407	-0,4
952,83	-0,39
953,252	-0,35
953,675	-0,35
954,098	-0,37
954,521	-0,35
954,943	-0,34
955,366	-0,35
955,789	-0,34
956,211	-0,36
956,634	-0,37
957,056	-0,34
957,479	-0,36
957,902	-0,39
958,324	-0,4
958,746	-0,38
959,169	-0,39
959,591	-0,39
960,014	-0,4
960,436	-0,4
960,858	-0,39
961,281	-0,38
961,703	-0,4
962,125	-0,4
962,547	-0,37
962,969	-0,37
963,391	-0,38
963,814	-0,39
964,236	-0,38
964,658	-0,35
965,08	-0,36
965,502	-0,35
965,924	-0,33
966,346	-0,33
966,768	-0,32
967,189	-0,34
967,611	-0,33
968,033	-0,33
968,455	-0,31
968,877	-0,32
969,298	-0,33
969,72	-0,34
970,142	-0,34
970,563	-0,34
970,985	-0,32
971,407	-0,31
971,828	-0,29
972,25	-0,28
972,671	-0,26
973,093	-0,26
973,514	-0,25
973,936	-0,23
974,357	-0,21
974,778	-0,21
975,2	-0,21
975,621	-0,2
976,042	-0,19
976,464	-0,19
976,885	-0,18
977,306	-0,17
977,727	-0,17
978,148	-0,15
978,57	-0,14
978,991	-0,13
979,412	-0,12
979,833	-0,11
980,254	-0,11
980,675	-0,11
981,096	-0,1
981,517	-0,08
981,937	-0,07
982,358	-0,05
982,779	-0,03
983,2	-0,03
983,621	-0,02
984,042	-0
984,462	0,01
984,883	0,03
985,304	0,05
985,724	0,06
986,145	0,07
986,565	0,09
986,986	0,1
987,407	0,1
987,827	0,11
988,248	0,13
988,668	0,14
989,088	0,15
989,509	0,16
989,929	0,17
990,35	0,19
990,77	0,2
991,19	0,2
991,61	0,22
992,031	0,22
992,451	0,23
992,871	0,24
993,291	0,25
993,711	0,26
994,131	0,27
994,551	0,28
994,971	0,28
995,391	0,29
995,811	0,3
996,231	0,3
996,651	0,31
997,071	0,32
997,491	0,32
997,911	0,33
998,331	0,34
998,75	0,35
999,17	0,35
999,59	0,36
1000,009	0,36
1000,429	0,37
1000,849	0,38
1001,268	0,38
1001,688	0,39
1002,107	0,39
1002,527	0,39
1002,946	0,39
1003,366	0,4
1003,785	0,4
1004,205	0,4
1004,624	0,41
1005,044	0,41
1005,463	0,41
1005,882	0,41
1006,301	0,41
1006,721	0,42
1007,14	0,42
1007,559	0,42
1007,978	0,42
1008,397	0,42
1008,816	0,42
1009,235	0,42
1009,655	0,42
1010,074	0,42
1010,492	0,42
1010,911	0,42
1011,33	0,42
1011,749	0,42
1012,168	0,42
1012,587	0,42
1013,006	0,42
1013,425	0,42
1013,843	0,41
1014,262	0,41
1014,681	0,41
1015,099	0,41
1015,518	0,41
1015,937	0,41
1016,355	0,41
1016,774	0,41
1017,192	0,41
1017,611	0,41
1018,029	0,41
1018,448	0,41
1018,866	0,41
1019,285	0,41
1019,703	0,41
1020,121	0,41
1020,54	0,41
1020,958	0,41
1021,376	0,41
1021,794	0,41
1022,213	0,41
1022,631	0,4
1023,049	0,4
1023,467	0,4
1023,885	0,4
1024,303	0,4
1024,721	0,4
1025,139	0,4
1025,557	0,4
1025,975	0,4
1026,393	0,4
1026,811	0,4
1027,229	0,4
1027,647	0,4
1028,065	0,4
1028,482	0,39
1028,9	0,39
1029,318	0,39
1029,735	0,39
1030,153	0,39
1030,571	0,39
1030,988	0,39
1031,406	0,39
1031,823	0,39
1032,241	0,39
1032,659	0,39
1033,076	0,39
1033,493	0,4
1033,911	0,4
1034,328	0,4
1034,746	0,4
1035,163	0,4
1035,58	0,4
1035,997	0,4
1036,415	0,4
1036,832	0,4
1037,249	0,4
1037,666	0,4
1038,083	0,4
1038,501	0,4
1038,918	0,4
1039,335	0,4
1039,752	0,4
1040,169	0,4
1040,586	0,4
1041,003	0,4
1041,419	0,4
1041,836	0,4
1042,253	0,4
1042,67	0,4
1043,087	0,4
1043,504	0,4
1043,92	0,4
1044,337	0,4
1044,754	0,4
1045,17	0,4
1045,587	0,4
1046,004	0,4
1046,42	0,4
1046,837	0,4
1047,253	0,4
1047,67	0,4
1048,086	0,4
1048,503	0,4
1048,919	0,4
1049,335	0,4
1049,752	0,4
1050,168	0,4
1050,584	0,4
1051,001	0,4
1051,417	0,4
1051,833	0,4
1052,249	0,4
1052,665	0,4
1053,081	0,4
1053,497	0,4
1053,914	0,4
1054,33	0,4
1054,746	0,41
1055,162	0,41
1055,578	0,41
1055,993	0,41
1056,409	0,41
1056,825	0,41
1057,241	0,41
1057,657	0,41
1058,073	0,41
1058,488	0,41
1058,904	0,41
1059,32	0,41
1059,736	0,41
1060,151	0,41
1060,567	0,41
1060,982	0,41
1061,398	0,41
1061,813	0,41
1062,229	0,41
1062,644	0,4
1063,06	0,4
1063,475	0,4
1063,891	0,4
1064,306	0,4
1064,721	0,4
1065,137	0,4
1065,552	0,4
1065,967	0,4
1066,382	0,4
1066,798	0,4
1067,213	0,4
1067,628	0,4
1068,043	0,4
1068,458	0,4
1068,873	0,4
1069,288	0,4
1069,703	0,4
1070,118	0,4
1070,533	0,4
1070,948	0,4
1071,363	0,4
1071,778	0,4
1072,193	0,4
1072,607	0,4
1073,022	0,4
1073,437	0,4
1073,852	0,4
1074,266	0,4
1074,681	0,4
1075,096	0,4
1075,51	0,4
1075,925	0,4
1076,339	0,4
1076,754	0,4
1077,168	0,4
1077,583	0,4
1077,997	0,4
1078,412	0,4
1078,826	0,4
1079,24	0,39
1079,655	0,39
1080,069	0,39
1080,483	0,39
1080,897	0,39
1081,312	0,39
1081,726	0,39
1082,14	0,39
1082,554	0,39
1082,968	0,39
1083,382	0,39
1083,796	0,39
1084,21	0,39
1084,624	0,39
1085,038	0,39
1085,452	0,39
1085,866	0,38
1086,28	0,38
1086,694	0,38
1087,108	0,38
1087,521	0,38
1087,935	0,37
1088,349	0,37
1088,763	0,37
1089,176	0,37
1089,59	0,36
1090,004	0,36
1090,417	0,36
1090,831	0,35
1091,244	0,35
1091,658	0,35
1092,071	0,35
1092,485	0,34
1092,898	0,34
1093,312	0,34
1093,725	0,34
1094,138	0,33
1094,552	0,33
1094,965	0,33
1095,378	0,33
1095,791	0,32
1096,205	0,32
1096,618	0,32
1097,031	0,31
1097,444	0,31
1097,857	0,31
1098,27	0,31
1098,683	0,3
1099,096	0,3
1099,509	0,3
1099,922	0,29
1100,335	0,29
1100,748	0,28
1101,161	0,28
1101,574	0,27
1101,986	0,27
1102,399	0,27
1102,812	0,26
1103,225	0,26
1103,637	0,25
1104,05	0,25
1104,463	0,25
1104,875	0,25
1105,288	0,25
1105,7	0,25
1106,113	0,24
1106,525	0,24
1106,938	0,24
1107,35	0,23
1107,763	0,23
1108,175	0,23
1108,588	0,22
1109	0,22
1109,412	0,21
1109,824	0,21
1110,237	0,21
1110,649	0,21
1111,061	0,21
